,COUNTER, INTERPOLATED, RAW_CQ, AF3, F7, F3, FC5, T7, P7, O1, O2, P8, T8, FC6, F4, F8, AF4, MARKER_HARDWARE, MARKER
0,4,0,3596,4207.564,4193.718,4176.538,4188.846,4177.692,4181.667,4335.641,4184.487,4183.846,4184.231,4172.436,4158.462,4189.744000000001,4187.436,0,0
1,5,0,3253,4215.128,4202.9490000000005,4182.9490000000005,4190.0,4184.231,4186.538,4327.0509999999995,4193.462,4194.615,4201.667,4184.231,4163.59,4202.692,4197.308,0,0
2,6,0,3176,4197.564,4201.154,4178.718,4187.0509999999995,4170.897,4176.026,4271.41,4175.128,4178.718,4181.667,4182.0509999999995,4153.077,4193.974,4184.615,0,0
3,7,0,3505,4200.897,4198.205,4179.615,4195.128,4169.231,4175.513,4154.359,4172.692,4180.897,4179.231,4183.974,4156.667,4193.718,4183.718,0,0
4,8,0,3083,4218.462,4203.846,4187.308,4201.282,4172.179,4183.846,3959.8720000000003,4189.103,4212.436,4212.564,4192.436,4175.641,4202.308,4192.0509999999995,0,0
5,9,0,3618,4211.282,4201.795,4180.128,4194.231,4156.923,4179.231,3789.2309999999998,4182.179,4206.538,4212.564,4184.615,4171.026,4191.667,4187.308,0,0
6,10,0,3516,4195.385,4190.641,4167.564,4180.641,4154.103,4173.333,3633.333,4165.128,4170.513,4181.154,4170.255999999999,4155.0,4180.255999999999,4177.692,0,0
7,11,0,3484,4193.333,4184.744000000001,4169.744000000001,4175.513,4172.9490000000005,4175.897,3465.385,4164.744000000001,4166.41,4170.385,4167.692,4155.385,4185.897,4174.744000000001,0,0
8,12,0,3084,4181.538,4174.615,4165.513,4171.41,4175.513,4171.923,3357.5640000000003,4157.692,4167.692,4174.615,4168.077,4155.385,4179.359,4165.513,0,0
9,13,0,3117,4165.641,4164.872,4155.128,4162.9490000000005,4160.255999999999,4164.103,3294.103,4145.513,4150.128,4167.308,4163.974,4145.513,4162.308,4152.821,0,0
10,14,0,3516,4186.154,4182.0509999999995,4173.333,4175.897,4165.255999999999,4177.436,3234.2309999999998,4167.0509999999995,4178.333,4173.077,4173.974,4157.692,4180.128,4168.974,0,0
11,15,0,3484,4205.641,4199.103,4192.821,4192.9490000000005,4179.103,4190.769,3180.513,4187.308,4209.487,4188.333,4189.872,4177.692,4199.487,4193.333,0,0
12,16,0,0,4189.744000000001,4187.308,4184.231,4183.59,4173.59,4180.769,3161.41,4171.41,4172.692,4180.0,4182.436,4171.154,4181.154,4182.9490000000005,0,0
13,17,0,0,4186.795,4185.385,4179.872,4176.667,4173.974,4177.436,3242.051,4164.487,4148.462,4172.9490000000005,4168.462,4165.128,4177.308,4173.205,0,0
14,18,0,0,4202.9490000000005,4198.333,4188.59,4189.359,4179.872,4188.077,3315.897,4177.179,4180.385,4181.795,4168.846,4174.615,4194.231,4187.692,0,0
15,19,0,0,4195.385,4192.0509999999995,4190.641,4194.103,4172.179,4188.205,3226.923,4175.0,4198.718,4187.308,4174.744000000001,4176.026,4185.385,4185.897,0,0
16,20,0,0,4177.564,4180.897,4182.692,4181.41,4172.692,4182.179,3136.41,4164.872,4177.436,4178.846,4166.795,4169.103,4172.9490000000005,4168.333,0,0
17,21,0,0,4180.513,4181.538,4173.974,4170.641,4188.846,4184.744000000001,3127.308,4169.103,4163.846,4169.744000000001,4152.821,4169.744000000001,4182.821,4166.795,0,0
18,22,0,0,4186.41,4182.821,4173.462,4172.179,4183.205,4185.897,3163.205,4166.923,4165.255999999999,4163.846,4156.026,4171.538,4184.872,4171.026,0,0
19,23,0,0,4183.974,4186.026,4186.923,4187.821,4177.436,4182.9490000000005,3295.1279999999997,4160.641,4169.231,4169.103,4171.41,4172.436,4179.615,4172.821,0,0
20,24,0,0,4171.154,4178.974,4185.385,4185.255999999999,4181.154,4173.205,3340.0,4156.41,4167.179,4168.077,4165.897,4170.0,4174.359,4161.41,0,0
21,25,0,0,4165.513,4167.821,4167.0509999999995,4166.154,4168.333,4164.487,3186.538,4151.154,4162.9490000000005,4155.255999999999,4152.436,4166.41,4164.615,4147.179,0,0
22,26,0,0,4187.9490000000005,4185.255999999999,4175.897,4173.077,4176.795,4175.513,3103.718,4160.513,4177.821,4172.0509999999995,4167.821,4180.513,4174.359,4165.513,0,0
23,27,0,0,4200.641,4202.0509999999995,4198.333,4188.718,4206.538,4187.564,3134.8720000000003,4173.333,4185.128,4199.487,4189.615,4202.436,4197.9490000000005,4192.564,0,0
24,28,0,0,4192.179,4192.0509999999995,4196.667,4186.923,4211.538,4186.026,3109.8720000000003,4173.59,4179.103,4199.744000000001,4190.385,4203.462,4202.564,4192.821,0,0
25,29,0,0,4184.103,4181.026,4181.538,4179.359,4179.103,4177.179,3081.41,4163.333,4175.128,4179.487,4178.077,4186.923,4185.128,4177.179,0,0
26,30,0,0,4176.026,4182.308,4178.974,4178.462,4149.231,4173.846,3101.795,4153.205,4174.487,4164.359,4167.564,4177.9490000000005,4171.026,4165.385,0,0
27,31,0,0,4183.205,4192.564,4195.255999999999,4187.692,4173.974,4182.564,3118.8459999999995,4160.641,4171.282,4168.974,4176.795,4188.718,4177.821,4176.795,0,0
28,32,0,0,4209.359,4203.333,4204.103,4192.0509999999995,4209.615,4184.615,3131.026,4168.718,4161.538,4175.0,4188.077,4201.923,4183.462,4196.667,0,0
29,33,0,0,4212.0509999999995,4199.615,4191.538,4183.333,4196.538,4174.615,3153.205,4157.179,4158.59,4172.436,4175.255999999999,4198.462,4171.538,4190.513,0,0
30,34,0,0,4197.0509999999995,4195.385,4188.59,4186.923,4187.308,4176.41,3178.718,4154.872,4174.231,4179.103,4179.744000000001,4195.0,4170.0,4186.154,0,0
31,35,0,0,4206.41,4202.436,4204.744000000001,4201.282,4208.077,4189.103,3181.923,4171.026,4186.538,4185.385,4212.179,4210.255999999999,4187.821,4204.615,0,0
32,36,0,0,4203.59,4195.641,4198.333,4192.0509999999995,4198.59,4182.9490000000005,3168.974,4164.615,4173.077,4170.128,4197.821,4208.718,4187.564,4194.615,0,0
33,37,0,0,4176.923,4181.667,4179.872,4179.359,4180.128,4168.846,3178.077,4146.667,4165.128,4163.974,4161.026,4183.846,4168.974,4168.974,0,0
34,38,0,0,4184.487,4189.103,4192.179,4191.667,4182.436,4172.436,3183.718,4158.462,4168.974,4177.9490000000005,4172.436,4186.154,4168.333,4179.231,0,0
35,39,0,0,4205.255999999999,4199.103,4203.59,4196.282,4173.974,4178.59,3153.333,4170.128,4160.641,4173.077,4187.436,4202.821,4174.231,4190.641,0,0
36,40,0,0,4187.9490000000005,4184.487,4183.846,4177.564,4173.077,4175.641,3138.8459999999995,4154.359,4153.205,4157.308,4165.0,4185.385,4151.667,4170.513,0,0
37,41,0,0,4165.128,4168.077,4173.333,4168.974,4190.897,4172.9490000000005,3156.41,4143.974,4150.0,4151.026,4148.59,4164.615,4131.795,4156.026,0,0
38,42,0,0,4169.359,4170.0,4181.667,4172.692,4181.923,4173.974,3153.8459999999995,4149.103,4150.769,4135.641,4157.436,4174.359,4154.615,4162.564,0,0
39,43,0,0,4180.0,4176.026,4186.282,4175.897,4162.564,4174.615,3142.179,4155.769,4164.615,4133.462,4171.026,4191.923,4182.692,4173.846,0,0
40,44,0,0,4191.282,4184.872,4199.231,4189.231,4181.154,4181.41,3189.615,4172.0509999999995,4182.9490000000005,4175.128,4186.795,4203.846,4193.205,4188.077,0,0
41,45,0,0,4206.667,4202.0509999999995,4217.821,4204.872,4214.744000000001,4192.308,3217.179,4188.077,4187.564,4207.821,4186.795,4208.846,4203.718,4198.59,0,0
42,46,0,0,4204.487,4202.0509999999995,4209.103,4200.513,4206.026,4183.846,3150.7690000000002,4176.795,4172.308,4186.282,4164.231,4200.513,4199.872,4192.0509999999995,0,0
43,47,0,0,4191.026,4184.231,4193.205,4192.308,4165.385,4170.641,3234.103,4162.308,4167.692,4167.564,4156.538,4195.0,4183.205,4183.205,0,0
44,48,0,0,4194.487,4185.513,4202.564,4197.436,4161.154,4175.513,3463.974,4167.9490000000005,4173.59,4180.897,4168.333,4199.872,4180.128,4187.179,0,0
45,49,0,0,4212.436,4203.974,4215.128,4205.0,4200.385,4185.897,3461.026,4172.564,4178.59,4190.128,4172.0509999999995,4205.513,4190.385,4194.615,0,0
46,50,0,0,4215.0,4202.436,4209.615,4200.641,4209.103,4186.923,3261.026,4168.333,4186.795,4188.205,4163.718,4203.59,4192.436,4195.0,0,0
47,51,0,0,4195.128,4179.231,4194.231,4185.128,4182.692,4177.0509999999995,3206.026,4157.564,4172.308,4176.282,4156.41,4191.41,4177.564,4187.436,0,0
48,52,0,0,4188.462,4173.974,4191.282,4180.897,4184.359,4172.436,3257.949,4149.103,4144.615,4154.103,4152.564,4188.59,4168.462,4182.0509999999995,0,0
49,53,0,0,4200.769,4189.103,4201.41,4190.255999999999,4194.103,4174.615,3247.692,4152.821,4158.205,4150.0,4150.897,4200.0,4176.154,4186.154,0,0
50,54,0,0,4205.128,4187.9490000000005,4204.359,4190.513,4186.41,4175.513,3249.487,4166.282,4190.255999999999,4176.154,4154.359,4207.308,4186.923,4191.923,0,0
51,55,0,0,4198.462,4177.564,4201.923,4184.872,4184.359,4174.872,3282.949,4177.0509999999995,4182.9490000000005,4192.308,4154.872,4202.436,4189.359,4190.897,0,0
52,56,0,0,4193.205,4184.487,4200.513,4187.821,4172.9490000000005,4172.0509999999995,3288.333,4168.462,4169.744000000001,4179.744000000001,4144.615,4192.0509999999995,4179.103,4186.154,0,0
53,57,0,0,4190.641,4188.59,4195.897,4186.795,4156.795,4167.564,3273.205,4154.872,4168.205,4162.308,4130.897,4187.308,4161.667,4180.769,0,0
54,58,0,0,4195.128,4185.385,4200.0,4183.59,4187.9490000000005,4167.436,3268.8459999999995,4163.718,4160.769,4164.487,4136.538,4196.667,4161.41,4183.718,0,0
55,59,0,0,4207.821,4201.538,4213.077,4191.923,4224.744000000001,4175.769,3287.821,4178.077,4171.795,4182.0509999999995,4156.282,4208.205,4178.846,4195.385,0,0
56,60,0,0,4202.821,4206.538,4202.9490000000005,4195.513,4178.846,4170.128,3280.7690000000002,4164.615,4173.974,4175.513,4154.487,4197.821,4171.795,4192.0509999999995,0,0
57,61,0,0,4184.103,4181.538,4181.154,4181.41,4136.41,4155.897,3252.5640000000003,4145.128,4146.923,4145.385,4129.359,4177.564,4143.974,4170.128,0,0
58,62,0,0,4180.128,4170.769,4181.667,4167.821,4173.846,4159.615,3263.333,4152.308,4146.41,4146.154,4120.641,4174.872,4140.385,4160.769,0,0
59,63,0,0,4189.359,4184.359,4192.436,4175.0,4208.077,4173.205,3285.1279999999997,4170.0,4178.077,4174.487,4141.282,4189.487,4164.744000000001,4178.974,0,0
60,64,0,3271,4194.359,4187.821,4190.128,4183.333,4182.821,4173.077,3270.897,4172.9490000000005,4177.9490000000005,4167.9490000000005,4148.59,4193.846,4172.436,4188.205,0,0
61,65,0,3144,4197.436,4179.231,4183.846,4175.897,4158.462,4161.41,3255.897,4167.308,4160.641,4146.923,4135.513,4182.692,4153.974,4176.026,0,0
62,66,0,3453,4198.333,4175.641,4187.564,4169.872,4175.0,4161.795,3255.1279999999997,4171.154,4164.103,4161.026,4141.538,4183.333,4150.385,4171.154,0,0
63,67,0,3517,4189.744000000001,4174.359,4189.744000000001,4173.718,4183.718,4167.9490000000005,3243.077,4174.487,4162.179,4177.692,4155.513,4189.231,4158.077,4175.769,0,0
64,68,0,3594,4186.538,4173.205,4179.872,4172.564,4172.821,4163.462,3242.4359999999997,4170.128,4158.205,4173.462,4151.667,4181.923,4155.769,4176.41,0,0
65,69,0,3256,4184.872,4168.333,4167.308,4164.872,4162.9490000000005,4153.462,3261.795,4165.255999999999,4164.615,4158.462,4144.231,4168.205,4150.769,4168.59,0,0
66,70,0,3220,4184.359,4165.769,4166.41,4166.154,4166.026,4151.667,3263.59,4165.385,4163.462,4148.59,4139.231,4164.872,4152.821,4164.744000000001,0,0
67,71,0,3512,4194.103,4174.359,4172.179,4173.974,4183.462,4161.538,3263.333,4172.9490000000005,4171.41,4160.897,4138.077,4171.282,4164.487,4172.179,0,0
68,72,0,3071,4192.692,4173.205,4170.897,4171.026,4185.641,4162.436,3295.897,4172.821,4182.179,4168.333,4143.077,4168.205,4167.308,4168.462,0,0
69,73,0,3604,4180.897,4165.513,4166.41,4165.255999999999,4175.0,4160.769,3333.205,4167.0509999999995,4171.282,4162.564,4148.718,4161.41,4157.436,4156.667,0,0
70,74,0,3526,4182.821,4176.026,4170.255999999999,4173.077,4172.179,4167.308,3335.897,4173.077,4167.436,4165.255999999999,4151.923,4168.205,4164.615,4163.462,0,0
71,75,0,3488,4181.667,4179.103,4173.333,4176.154,4160.255999999999,4162.9490000000005,3314.744,4173.462,4175.897,4162.821,4148.59,4168.462,4175.641,4168.205,0,0
72,76,0,3088,4171.538,4160.255999999999,4166.282,4167.564,4149.103,4148.974,3328.974,4159.872,4167.308,4152.179,4139.359,4156.282,4161.154,4152.436,0,0
73,77,0,3120,4171.923,4157.692,4164.103,4165.897,4170.385,4148.59,3375.1279999999997,4152.692,4155.897,4153.462,4134.872,4158.462,4150.897,4150.385,0,0
74,78,0,3526,4180.641,4177.0509999999995,4175.641,4171.538,4191.795,4156.538,3392.4359999999997,4154.744000000001,4161.282,4155.641,4142.436,4170.128,4164.487,4168.846,0,0
75,79,0,3488,4194.231,4188.846,4187.436,4178.846,4188.846,4157.0509999999995,3385.7690000000002,4160.897,4168.846,4160.641,4154.103,4174.359,4175.255999999999,4177.9490000000005,0,0
76,80,0,3088,4200.769,4182.692,4186.026,4182.821,4181.795,4156.41,3369.3590000000004,4170.641,4171.538,4168.846,4152.179,4175.513,4169.103,4175.0,0,0
77,81,0,3120,4189.359,4171.923,4179.615,4175.128,4157.564,4156.154,3354.744,4171.923,4167.0509999999995,4155.897,4139.872,4174.231,4159.231,4169.872,0,0
78,82,0,3526,4179.872,4172.0509999999995,4179.359,4165.513,4145.128,4154.615,3347.821,4165.128,4166.41,4148.205,4141.026,4171.667,4161.154,4166.282,0,0
79,83,0,3488,4188.077,4181.795,4183.462,4173.718,4178.462,4157.0509999999995,3337.051,4165.513,4174.359,4165.0,4153.077,4174.231,4170.513,4167.821,0,0
80,84,0,3088,4199.487,4188.333,4188.462,4188.718,4193.59,4163.205,3371.538,4172.436,4172.436,4172.9490000000005,4157.564,4175.128,4175.128,4172.9490000000005,0,0
81,85,0,3120,4197.564,4182.9490000000005,4184.872,4186.538,4183.462,4165.0,3427.308,4166.923,4163.974,4166.538,4154.359,4171.41,4172.821,4174.359,0,0
82,86,0,3526,4184.872,4172.692,4174.103,4173.205,4181.154,4157.564,3414.487,4154.487,4164.359,4163.59,4150.513,4170.128,4166.026,4169.487,0,0
83,87,0,3488,4182.0509999999995,4169.487,4177.179,4171.538,4166.667,4155.128,3393.718,4160.513,4175.385,4171.667,4157.436,4173.462,4172.308,4171.41,0,0
84,88,0,3088,4189.872,4175.128,4183.59,4177.0509999999995,4153.205,4159.359,3436.795,4167.436,4173.974,4175.255999999999,4163.205,4173.59,4183.718,4176.667,0,0
85,89,0,3120,4185.513,4173.205,4172.9490000000005,4170.897,4164.487,4156.667,3445.897,4157.821,4159.615,4163.718,4148.205,4168.462,4179.103,4171.154,0,0
86,90,0,3526,4181.795,4167.692,4166.282,4167.179,4177.9490000000005,4153.718,3405.513,4161.154,4163.974,4164.744000000001,4145.128,4169.103,4174.615,4169.103,0,0
87,91,0,3488,4181.026,4168.718,4170.513,4167.9490000000005,4177.436,4153.205,3411.667,4167.308,4169.615,4174.487,4154.615,4169.103,4176.795,4167.821,0,0
88,92,0,3088,4169.615,4166.282,4165.0,4160.128,4173.077,4146.282,3429.487,4152.436,4158.718,4164.872,4145.513,4161.41,4164.615,4158.846,0,0
89,93,0,3120,4173.974,4170.255999999999,4169.744000000001,4163.718,4159.231,4146.282,3429.2309999999998,4152.692,4160.385,4162.564,4144.103,4163.462,4159.744000000001,4162.308,0,0
90,94,0,3526,4192.179,4186.923,4189.231,4184.487,4161.282,4162.0509999999995,3434.744,4173.59,4177.564,4181.282,4158.205,4176.282,4179.231,4176.282,0,0
91,95,0,3488,4192.179,4188.974,4189.872,4187.179,4180.641,4172.692,3454.2309999999998,4175.255999999999,4175.769,4179.615,4158.846,4180.0,4186.026,4177.564,0,0
92,96,0,3088,4184.744000000001,4176.923,4181.41,4172.308,4178.077,4167.308,3497.949,4169.615,4166.282,4166.923,4152.179,4176.026,4178.077,4172.9490000000005,0,0
93,97,0,3120,4186.282,4173.974,4183.205,4169.103,4166.795,4159.872,3513.205,4166.41,4169.359,4172.692,4153.077,4172.564,4174.359,4172.564,0,0
94,98,0,3526,4186.538,4175.128,4182.9490000000005,4172.9490000000005,4169.744000000001,4156.538,3496.538,4155.385,4170.255999999999,4173.718,4160.769,4169.744000000001,4167.436,4170.897,0,0
95,99,0,3488,4182.0509999999995,4169.872,4180.641,4168.718,4174.744000000001,4157.179,3511.282,4155.385,4169.615,4168.205,4162.0509999999995,4171.282,4165.0,4171.795,0,0
96,100,0,3088,4172.9490000000005,4167.0509999999995,4179.872,4165.255999999999,4164.615,4155.385,3531.1540000000005,4160.897,4166.154,4165.128,4144.872,4171.795,4169.103,4169.872,0,0
97,101,0,3120,4169.359,4168.077,4176.667,4169.103,4163.205,4150.897,3511.667,4153.205,4160.769,4152.9490000000005,4135.0,4166.923,4168.59,4163.974,0,0
98,102,0,3526,4182.821,4170.0,4180.255999999999,4173.333,4177.0509999999995,4157.564,3508.462,4155.255999999999,4160.641,4154.359,4149.872,4166.538,4168.462,4168.205,0,0
99,103,0,3488,4192.0509999999995,4173.077,4188.333,4175.0,4171.538,4167.436,3533.974,4170.0,4170.641,4179.872,4159.744000000001,4175.513,4173.59,4178.462,0,0
100,104,0,3088,4185.769,4168.718,4185.897,4170.255999999999,4158.333,4159.103,3522.4359999999997,4166.538,4183.205,4186.795,4157.308,4182.9490000000005,4169.103,4182.692,0,0
101,105,0,3120,4190.255999999999,4168.59,4181.795,4167.692,4174.487,4152.564,3500.1279999999997,4157.179,4170.128,4167.179,4154.359,4182.9490000000005,4165.128,4182.564,0,0
102,106,0,3526,4201.154,4180.769,4186.026,4178.462,4187.9490000000005,4163.718,3515.6409999999996,4165.641,4156.795,4163.846,4160.641,4185.255999999999,4170.128,4185.769,0,0
103,107,0,3488,4196.538,4181.667,4188.974,4188.974,4167.564,4165.128,3538.077,4173.59,4176.923,4183.205,4173.846,4189.872,4172.436,4190.128,0,0
104,108,0,3088,4188.974,4174.103,4187.564,4180.255999999999,4169.487,4155.897,3542.308,4167.0509999999995,4179.487,4185.769,4168.59,4185.513,4166.795,4185.897,0,0
105,109,0,3120,4178.333,4169.103,4179.103,4161.667,4189.872,4155.0,3541.538,4153.846,4150.128,4161.154,4149.615,4171.538,4155.255999999999,4171.41,0,0
106,110,0,3526,4165.255999999999,4162.821,4167.308,4156.282,4167.9490000000005,4153.462,3556.923,4152.179,4150.255999999999,4153.333,4149.103,4163.333,4153.846,4161.667,0,0
107,111,0,3488,4171.795,4165.897,4172.436,4168.974,4147.692,4155.513,3585.385,4168.718,4178.333,4174.744000000001,4158.205,4169.872,4171.282,4171.538,0,0
108,112,0,3088,4180.128,4172.308,4184.615,4176.667,4161.795,4162.179,3591.667,4173.974,4175.0,4170.897,4155.385,4172.9490000000005,4178.333,4178.718,0,0
109,113,0,3120,4170.255999999999,4169.359,4182.821,4168.846,4170.897,4162.692,3572.949,4166.154,4160.0,4152.308,4157.179,4168.59,4172.0509999999995,4171.667,0,0
110,114,0,3526,4175.255999999999,4176.795,4183.333,4173.974,4176.154,4166.282,3577.051,4180.255999999999,4180.513,4181.538,4173.59,4180.255999999999,4187.564,4177.9490000000005,0,0
111,115,0,3488,4192.0509999999995,4187.821,4189.103,4185.0,4175.385,4173.205,3592.051,4193.718,4198.846,4208.974,4179.359,4187.308,4199.359,4189.872,0,0
112,116,0,3088,4187.821,4174.359,4185.128,4175.0,4169.744000000001,4170.641,3572.692,4178.462,4174.487,4185.255999999999,4164.872,4177.308,4178.077,4185.769,0,0
113,117,0,3120,4182.564,4166.026,4181.282,4166.538,4184.103,4166.41,3545.7690000000002,4164.744000000001,4155.385,4163.077,4155.641,4176.154,4166.154,4182.0509999999995,0,0
114,118,0,3526,4183.205,4172.179,4182.9490000000005,4172.821,4192.0509999999995,4168.846,3561.667,4168.205,4174.359,4171.795,4159.103,4179.744000000001,4174.231,4183.205,0,0
115,119,0,3488,4172.9490000000005,4164.359,4178.718,4174.744000000001,4181.41,4168.718,3589.487,4172.564,4185.255999999999,4179.744000000001,4158.718,4172.692,4176.667,4174.231,0,0
116,120,0,3088,4155.0,4155.0,4168.846,4164.615,4161.538,4157.308,3577.692,4162.821,4162.436,4155.769,4148.205,4165.0,4163.59,4160.255999999999,0,0
117,121,0,3120,4148.59,4165.128,4172.308,4163.974,4148.59,4150.385,3558.462,4153.59,4151.667,4133.718,4148.333,4167.0509999999995,4153.205,4159.744000000001,0,0
118,122,0,3526,4165.255999999999,4177.821,4186.923,4178.077,4173.077,4160.128,3577.821,4162.436,4164.872,4154.744000000001,4164.103,4172.308,4162.564,4170.897,0,0
119,123,0,3488,4173.077,4169.359,4182.9490000000005,4176.795,4195.255999999999,4165.897,3601.667,4165.897,4165.641,4172.308,4158.333,4166.154,4167.9490000000005,4171.026,0,0
120,124,0,3088,4153.205,4151.538,4163.846,4155.769,4168.59,4160.769,3591.026,4154.615,4156.026,4156.538,4136.923,4149.231,4154.359,4153.846,0,0
121,125,0,3120,4152.308,4157.692,4170.513,4158.205,4163.718,4166.026,3581.026,4161.795,4165.128,4160.385,4144.744000000001,4156.667,4155.897,4151.154,0,0
122,126,0,3526,4171.538,4172.308,4186.923,4178.59,4187.821,4171.795,3587.5640000000003,4175.897,4179.231,4177.692,4160.769,4175.897,4170.897,4165.0,0,0
123,127,0,52,4167.692,4166.538,4180.641,4169.744000000001,4170.0,4166.667,3592.821,4169.487,4172.436,4166.923,4151.41,4169.103,4167.179,4166.795,0,0
124,0,0,3264,4173.205,4170.641,4188.333,4170.897,4172.436,4176.41,3610.385,4175.385,4170.255999999999,4170.641,4156.795,4171.667,4172.436,4177.821,0,0
125,1,0,3140,4191.795,4190.897,4206.795,4200.769,4209.872,4188.59,3625.385,4191.026,4182.308,4187.692,4175.641,4187.564,4192.436,4194.103,0,0
126,2,0,3456,4175.769,4185.0,4197.179,4199.231,4191.026,4176.538,3628.077,4186.282,4187.9490000000005,4178.974,4172.0509999999995,4179.872,4190.641,4182.179,0,0
127,3,0,3514,4159.103,4167.0509999999995,4184.615,4180.255999999999,4168.333,4166.026,3639.744,4180.897,4185.641,4170.513,4167.9490000000005,4170.255999999999,4182.0509999999995,4166.667,0,0
128,4,0,3600,4167.821,4175.769,4184.487,4181.41,4198.718,4168.846,3646.282,4178.59,4174.615,4167.564,4167.692,4170.513,4184.744000000001,4166.923,0,0
129,5,0,3255,4166.538,4183.974,4175.513,4179.103,4199.487,4168.718,3639.103,4169.744000000001,4165.385,4162.564,4155.513,4159.359,4183.462,4163.718,0,0
130,6,0,3219,4160.641,4172.9490000000005,4165.128,4171.538,4165.255999999999,4164.487,3648.205,4165.0,4169.359,4164.487,4148.59,4149.359,4180.513,4153.718,0,0
131,7,0,3514,4166.923,4173.974,4172.179,4183.462,4173.462,4167.821,3666.282,4173.333,4180.0,4171.282,4157.564,4160.513,4188.333,4156.923,0,0
132,8,0,3121,4171.923,4185.255999999999,4179.231,4188.974,4197.436,4175.769,3668.974,4183.077,4188.077,4176.923,4167.179,4170.641,4201.667,4168.462,0,0
133,9,0,3604,4171.41,4179.231,4175.897,4174.872,4193.462,4178.333,3671.538,4182.308,4184.359,4182.564,4173.974,4165.897,4206.026,4169.231,0,0
134,10,0,3529,4160.0,4165.897,4166.795,4166.026,4173.205,4164.359,3667.179,4162.564,4169.744000000001,4165.513,4165.0,4152.692,4189.231,4154.744000000001,0,0
135,11,0,3489,4150.641,4170.769,4161.923,4169.103,4152.9490000000005,4152.9490000000005,3652.692,4150.897,4170.641,4142.179,4151.923,4147.821,4175.897,4146.795,0,0
136,12,0,3082,4174.103,4187.821,4176.923,4182.564,4176.795,4168.718,3647.821,4170.897,4187.564,4165.0,4169.103,4165.0,4196.282,4167.564,0,0
137,13,0,3120,4193.59,4193.462,4189.359,4191.026,4222.179,4183.718,3651.1540000000005,4183.59,4185.0,4193.846,4188.333,4174.359,4212.308,4183.974,0,0
138,14,0,3529,4177.179,4182.308,4176.923,4180.897,4207.9490000000005,4172.564,3655.256,4167.9490000000005,4167.308,4177.436,4175.641,4158.59,4193.077,4169.103,0,0
139,15,0,3489,4163.974,4170.641,4167.9490000000005,4169.103,4173.205,4163.205,3666.538,4161.026,4166.154,4162.436,4165.641,4150.769,4180.385,4157.308,0,0
140,16,0,0,4171.667,4175.641,4181.026,4171.282,4184.744000000001,4173.205,3678.462,4175.385,4176.667,4178.205,4176.538,4167.692,4192.692,4171.282,0,0
141,17,0,0,4171.026,4178.718,4184.615,4173.205,4183.205,4170.513,3681.923,4171.795,4171.154,4170.641,4175.769,4173.59,4185.769,4172.692,0,0
142,18,0,0,4161.795,4168.205,4168.59,4166.41,4156.667,4154.487,3697.5640000000003,4151.538,4161.026,4147.179,4170.255999999999,4154.487,4163.846,4153.205,0,0
143,19,0,0,4166.026,4170.255999999999,4167.821,4167.692,4177.564,4161.41,3715.256,4153.974,4166.667,4159.872,4180.385,4150.255999999999,4165.769,4154.103,0,0
144,20,0,0,4166.538,4178.205,4174.615,4170.769,4201.538,4171.538,3697.179,4160.897,4164.615,4164.744000000001,4179.487,4161.41,4165.513,4157.436,0,0
145,21,0,0,4141.795,4153.59,4158.462,4151.41,4166.282,4156.154,3660.1279999999997,4141.667,4141.923,4132.0509999999995,4156.667,4148.846,4139.744000000001,4135.128,0,0
146,22,0,0,4134.744000000001,4137.436,4148.718,4138.205,4150.128,4150.255999999999,3658.59,4135.385,4141.667,4125.255999999999,4153.333,4136.795,4141.667,4131.538,0,0
147,23,0,0,4164.359,4170.0,4171.923,4160.641,4183.718,4169.744000000001,3687.4359999999997,4166.026,4171.154,4163.974,4180.0,4158.462,4185.0,4162.9490000000005,0,0
148,24,0,0,4186.795,4197.436,4191.923,4186.154,4187.692,4176.026,3695.897,4183.846,4193.462,4193.718,4199.487,4179.487,4210.897,4184.359,0,0
149,25,0,0,4185.255999999999,4188.333,4191.154,4186.154,4173.59,4168.59,3702.308,4174.744000000001,4190.513,4199.872,4205.0,4177.9490000000005,4206.154,4187.0509999999995,0,0
150,26,0,0,4179.872,4183.59,4188.974,4177.821,4186.282,4170.513,3735.0,4168.077,4161.538,4187.564,4206.538,4173.205,4197.692,4184.231,0,0
151,27,0,0,4171.795,4183.205,4180.0,4170.769,4186.923,4165.385,3760.385,4160.513,4124.487,4162.9490000000005,4193.846,4168.718,4181.026,4168.077,0,0
152,28,0,0,4168.333,4173.205,4170.897,4167.9490000000005,4175.128,4154.615,3750.513,4149.615,4104.872,4162.564,4179.487,4165.897,4166.026,4160.255999999999,0,0
153,29,0,0,4170.0,4171.282,4179.487,4176.41,4177.692,4159.872,3749.3590000000004,4155.128,4103.59,4174.103,4188.462,4168.333,4167.436,4167.564,0,0
154,30,0,0,4164.872,4178.974,4181.667,4180.897,4183.974,4169.487,3819.103,4167.821,4112.0509999999995,4166.667,4200.641,4166.282,4170.255999999999,4167.0509999999995,0,0
155,31,0,0,4172.564,4190.513,4177.692,4182.179,4188.718,4171.667,3871.538,4170.255999999999,4123.333,4171.538,4201.667,4169.359,4174.615,4172.821,0,0
156,32,0,0,4185.128,4195.385,4187.308,4189.487,4191.795,4172.308,3865.0,4172.436,4125.385,4190.255999999999,4203.205,4179.359,4182.179,4187.0509999999995,0,0
157,33,0,0,4173.718,4185.255999999999,4185.0,4185.897,4180.641,4170.255999999999,3939.2309999999998,4172.179,4121.41,4178.718,4204.231,4172.308,4173.462,4180.769,0,0
158,34,0,0,4161.026,4177.821,4168.205,4175.128,4178.205,4165.385,4072.5640000000003,4165.897,4123.333,4162.0509999999995,4200.513,4161.538,4160.128,4163.462,0,0
159,35,0,0,4168.462,4183.333,4173.718,4179.231,4197.821,4168.974,4118.077,4173.846,4123.205,4177.0509999999995,4200.897,4172.564,4171.026,4166.795,0,0
160,36,0,0,4178.974,4187.436,4190.0,4190.385,4204.872,4177.308,4036.282,4188.333,4131.026,4194.615,4206.41,4184.615,4185.385,4180.513,0,0
161,37,0,0,4170.513,4181.923,4178.333,4180.385,4179.744000000001,4169.359,3934.744,4176.538,4138.077,4184.231,4202.308,4172.564,4175.385,4173.333,0,0
162,38,0,0,4160.897,4182.436,4167.564,4175.385,4167.0509999999995,4158.718,4001.667,4160.769,4125.769,4162.9490000000005,4197.564,4164.103,4163.077,4162.821,0,0
163,39,0,0,4168.846,4188.077,4177.436,4185.255999999999,4178.718,4164.359,4148.846,4173.333,4122.821,4173.846,4203.59,4172.821,4160.0,4176.026,0,0
164,40,0,0,4177.308,4186.41,4179.487,4179.615,4165.385,4170.385,4111.923,4187.9490000000005,4138.59,4191.923,4202.821,4173.846,4161.538,4188.333,0,0
165,41,0,0,4171.282,4180.897,4173.846,4171.41,4149.744000000001,4169.103,4019.8720000000003,4188.077,4140.513,4169.231,4201.026,4171.795,4173.59,4175.769,0,0
166,42,0,0,4166.538,4186.282,4175.385,4180.897,4183.718,4171.538,4079.3590000000004,4183.205,4135.385,4161.154,4210.513,4176.154,4180.641,4168.462,0,0
167,43,0,0,4174.103,4194.487,4176.41,4186.795,4218.59,4175.897,4089.8720000000003,4176.667,4144.231,4193.462,4207.692,4174.359,4164.872,4178.59,0,0
168,44,0,0,4170.769,4179.231,4164.487,4168.077,4189.744000000001,4165.0,3973.59,4165.897,4131.41,4182.692,4185.769,4164.615,4148.718,4167.564,0,0
169,45,0,0,4156.41,4155.0,4149.103,4150.513,4143.846,4150.513,3966.1540000000005,4151.667,4092.5640000000003,4137.179,4175.641,4153.974,4147.436,4144.359,0,0
170,46,0,0,4161.538,4166.41,4155.255999999999,4162.9490000000005,4164.103,4157.821,4057.949,4152.308,4099.615,4146.923,4189.103,4155.641,4156.026,4155.513,0,0
171,47,0,0,4183.59,4196.282,4173.846,4183.718,4197.564,4173.077,4087.821,4169.103,4149.487,4183.974,4206.026,4171.41,4169.487,4180.385,0,0
172,48,0,0,4189.872,4195.641,4175.769,4185.0,4165.255999999999,4171.282,4079.615,4174.744000000001,4153.974,4191.41,4207.564,4174.615,4176.026,4178.59,0,0
173,49,0,0,4179.872,4178.333,4162.436,4176.026,4141.154,4162.308,4054.615,4161.795,4117.0509999999995,4176.026,4198.718,4162.308,4169.487,4162.821,0,0
174,50,0,0,4187.308,4190.128,4172.179,4188.333,4193.462,4172.436,3966.026,4164.359,4118.077,4167.179,4204.872,4173.718,4169.487,4167.692,0,0
175,51,0,0,4185.128,4184.615,4167.0509999999995,4182.179,4194.231,4164.103,3841.41,4156.41,4128.846,4155.641,4197.692,4168.462,4156.026,4160.0,0,0
176,52,0,0,4157.308,4143.974,4134.359,4147.0509999999995,4121.026,4131.41,3781.667,4124.487,4110.769,4136.795,4167.9490000000005,4128.718,4127.821,4135.769,0,0
177,53,0,0,4173.205,4163.974,4153.59,4163.846,4133.077,4148.846,3806.538,4148.462,4124.231,4157.436,4188.974,4147.0509999999995,4152.692,4162.179,0,0
178,54,0,0,4219.359,4221.154,4207.692,4213.333,4197.564,4192.436,3839.487,4209.615,4160.897,4205.128,4240.255999999999,4209.103,4210.255999999999,4214.103,0,0
179,55,0,0,4212.0509999999995,4210.897,4206.667,4209.872,4177.308,4185.769,3831.923,4206.795,4154.231,4201.923,4234.231,4209.103,4208.077,4208.718,0,0
180,56,0,0,4178.077,4173.077,4170.255999999999,4179.487,4128.974,4154.487,3795.513,4167.436,4138.462,4165.255999999999,4198.333,4171.538,4166.667,4169.872,0,0
181,57,0,0,4182.436,4180.897,4172.692,4184.359,4148.974,4154.103,3792.692,4173.205,4148.333,4171.795,4197.564,4176.41,4169.359,4173.718,0,0
182,58,0,0,4197.9490000000005,4197.692,4192.436,4200.255999999999,4188.205,4167.179,3805.256,4192.0509999999995,4152.692,4193.205,4209.359,4194.487,4192.9490000000005,4193.205,0,0
183,59,0,0,4199.231,4192.0509999999995,4189.103,4200.641,4191.282,4169.359,3792.821,4184.359,4140.513,4184.615,4211.154,4189.103,4187.821,4183.333,0,0
184,60,0,0,4197.692,4187.308,4184.103,4200.641,4173.846,4172.436,3786.282,4182.9490000000005,4143.077,4178.974,4213.846,4185.513,4183.077,4179.744000000001,0,0
185,61,0,0,4188.846,4185.0,4182.436,4200.0,4155.769,4172.9490000000005,3780.897,4186.026,4155.128,4181.154,4208.077,4185.385,4184.744000000001,4187.436,0,0
186,62,0,0,4180.385,4179.231,4174.872,4195.897,4147.821,4165.897,3770.1279999999997,4173.718,4141.282,4164.487,4195.769,4175.641,4170.513,4176.667,0,0
187,63,0,0,4183.333,4172.821,4171.154,4191.923,4149.615,4159.487,3777.692,4164.744000000001,4122.308,4150.897,4197.692,4169.872,4165.0,4162.821,0,0
188,64,0,3260,4194.487,4180.385,4181.538,4196.282,4156.923,4172.179,3813.333,4179.615,4148.462,4182.0509999999995,4212.0509999999995,4181.154,4184.359,4177.308,0,0
189,65,0,3138,4201.41,4195.128,4189.487,4207.821,4168.59,4186.795,3842.949,4193.718,4178.462,4209.615,4217.436,4188.718,4193.462,4191.795,0,0
190,66,0,3449,4194.359,4190.641,4181.026,4203.077,4173.59,4176.154,3845.513,4184.231,4156.667,4192.179,4215.128,4179.615,4191.667,4186.154,0,0
191,67,0,3511,4188.462,4184.615,4174.872,4189.872,4159.487,4167.436,3848.8459999999995,4176.026,4142.692,4182.436,4215.0,4178.59,4197.179,4182.436,0,0
192,68,0,3590,4185.0,4185.0,4173.077,4186.795,4136.41,4167.564,3850.256,4174.487,4152.436,4193.205,4208.333,4181.667,4193.333,4179.231,0,0
193,69,0,3250,4173.462,4175.385,4165.128,4186.41,4127.436,4158.974,3831.667,4163.077,4144.231,4184.744000000001,4197.692,4170.897,4182.308,4168.333,0,0
194,70,0,3218,4168.077,4168.974,4162.692,4183.718,4137.179,4153.846,3812.692,4160.641,4144.872,4180.641,4198.333,4165.128,4185.385,4165.513,0,0
195,71,0,3503,4171.026,4171.41,4168.59,4181.026,4140.0,4156.795,3823.718,4166.154,4155.128,4188.205,4202.692,4171.795,4183.974,4172.179,0,0
196,72,0,3125,4166.154,4169.487,4168.333,4182.0509999999995,4132.436,4152.436,3847.692,4156.667,4139.359,4173.974,4199.744000000001,4172.692,4170.128,4169.615,0,0
197,73,0,3606,4166.026,4167.0509999999995,4165.769,4185.641,4140.128,4153.59,3854.744,4153.974,4128.718,4167.821,4200.513,4168.333,4173.462,4167.9490000000005,0,0
198,74,0,3523,4171.923,4167.692,4170.128,4180.255999999999,4140.0,4167.0509999999995,3848.333,4168.077,4147.436,4184.487,4202.436,4168.333,4185.0,4171.923,0,0
199,75,0,3486,4170.128,4167.436,4169.103,4172.0509999999995,4126.538,4167.0509999999995,3843.974,4170.385,4154.487,4191.282,4201.282,4169.487,4183.462,4168.205,0,0
200,76,0,3076,4164.103,4166.923,4160.128,4170.641,4121.154,4154.359,3840.256,4159.231,4143.077,4183.205,4198.462,4168.59,4173.077,4160.385,0,0
201,77,1,3134,4164.359,4166.538,4160.255999999999,4170.641,4121.41,4153.333,3839.615,4158.718,4143.077,4182.821,4198.333,4169.103,4173.077,4161.667,0,0
202,78,1,3192,4164.615,4166.154,4160.385,4170.641,4121.667,4152.308,3838.974,4158.205,4143.077,4182.436,4198.205,4169.615,4173.077,4162.9490000000005,0,0
203,79,1,3250,4164.872,4165.769,4160.513,4170.641,4121.923,4151.282,3838.333,4157.692,4143.077,4182.0509999999995,4198.077,4170.128,4173.077,4164.231,0,0
204,80,1,3308,4165.128,4165.385,4160.641,4170.641,4122.179,4150.255999999999,3837.692,4157.179,4143.077,4181.667,4197.9490000000005,4170.641,4173.077,4165.513,0,0
205,81,1,3366,4165.385,4165.0,4160.769,4170.641,4122.436,4149.231,3837.051,4156.667,4143.077,4181.282,4197.821,4171.154,4173.077,4166.795,0,0
206,82,1,3424,4165.641,4164.615,4160.897,4170.641,4122.692,4148.205,3836.41,4156.154,4143.077,4180.897,4197.692,4171.667,4173.077,4168.077,0,0
207,83,0,3486,4166.282,4163.846,4161.795,4170.255999999999,4123.59,4146.923,3835.1279999999997,4155.641,4143.462,4180.255999999999,4197.436,4172.9490000000005,4173.59,4169.359,0,0
208,84,0,3076,4164.103,4173.205,4155.255999999999,4169.231,4123.974,4151.795,3838.974,4157.9490000000005,4149.103,4183.59,4198.59,4170.128,4164.231,4167.308,0,0
209,85,0,3114,4160.0,4167.308,4157.821,4169.231,4124.103,4155.513,3851.026,4168.077,4160.641,4183.59,4203.077,4169.744000000001,4169.615,4172.564,0,0
210,86,0,3523,4154.872,4153.333,4159.615,4163.59,4124.231,4142.9490000000005,3845.897,4155.385,4144.872,4171.41,4198.718,4167.564,4167.308,4168.333,0,0
211,87,0,3486,4160.385,4161.923,4163.333,4171.538,4124.231,4140.769,3847.051,4152.436,4141.538,4180.769,4200.513,4171.795,4168.462,4172.821,0,0
212,88,0,3076,4177.179,4183.59,4173.718,4187.0509999999995,4113.462,4157.436,3860.6409999999996,4171.41,4169.744000000001,4194.103,4208.718,4178.59,4180.769,4186.667,0,0
213,89,0,3114,4177.179,4178.333,4170.769,4178.462,4115.385,4154.744000000001,3851.667,4162.179,4162.692,4173.718,4197.0509999999995,4171.282,4176.795,4176.795,0,0
214,90,0,3523,4161.667,4158.077,4162.9490000000005,4163.974,4134.744000000001,4140.128,3849.744,4142.821,4132.179,4166.154,4190.0,4166.667,4162.821,4163.718,0,0
215,91,0,3486,4155.128,4153.846,4164.103,4166.795,4130.769,4143.846,3870.0,4151.538,4133.59,4179.744000000001,4197.564,4168.974,4159.487,4166.538,0,0
216,92,0,3076,4154.615,4157.179,4159.103,4169.487,4121.795,4144.872,3852.821,4151.026,4145.769,4159.744000000001,4186.795,4159.744000000001,4157.692,4161.282,0,0
217,93,0,3114,4153.205,4154.872,4153.333,4165.897,4129.359,4137.436,3802.5640000000003,4136.154,4141.41,4144.744000000001,4170.641,4153.718,4153.205,4153.333,0,0
218,94,0,3523,4151.923,4151.795,4153.974,4166.538,4122.821,4141.923,3782.4359999999997,4138.846,4133.846,4165.513,4169.615,4154.231,4156.538,4153.846,0,0
219,95,0,3486,4131.026,4137.564,4138.846,4153.846,4111.41,4139.359,3773.077,4132.564,4119.103,4152.564,4156.923,4136.41,4151.026,4131.795,0,0
220,96,0,3076,4120.385,4131.41,4128.462,4142.9490000000005,4120.0,4131.667,3757.4359999999997,4121.41,4117.9490000000005,4133.59,4149.103,4126.538,4145.385,4115.513,0,0
221,97,0,3114,4144.359,4151.026,4146.667,4162.0509999999995,4131.795,4146.154,3777.308,4141.282,4147.436,4163.333,4174.487,4150.513,4162.308,4142.9490000000005,0,0
222,98,0,3523,4152.179,4156.026,4152.308,4170.128,4124.744000000001,4160.513,3806.41,4161.538,4161.026,4171.795,4183.718,4158.846,4176.282,4155.0,0,0
223,99,0,3486,4136.41,4147.0509999999995,4142.0509999999995,4155.128,4117.9490000000005,4155.513,3799.487,4156.667,4149.615,4150.897,4167.692,4144.103,4172.308,4145.255999999999,0,0
224,100,0,3076,4137.692,4151.282,4149.231,4157.308,4129.615,4153.974,3791.923,4154.872,4154.872,4161.923,4168.205,4149.615,4171.667,4151.154,0,0
225,101,0,3114,4138.59,4146.026,4149.103,4163.462,4137.564,4153.077,3806.1540000000005,4155.513,4162.692,4175.513,4169.615,4154.744000000001,4170.255999999999,4144.872,0,0
226,102,0,3523,4124.359,4130.641,4133.205,4151.795,4129.487,4143.077,3810.1279999999997,4142.692,4143.462,4149.744000000001,4155.0,4140.385,4159.487,4126.154,0,0
227,103,0,3486,4128.077,4134.744000000001,4134.487,4148.718,4113.59,4137.564,3802.821,4139.487,4130.255999999999,4124.744000000001,4154.103,4139.744000000001,4153.333,4134.744000000001,0,0
228,104,0,3076,4138.846,4139.872,4139.487,4153.333,4099.231,4136.282,3799.487,4144.744000000001,4135.255999999999,4131.026,4160.255999999999,4151.026,4152.436,4144.615,0,0
229,105,0,3114,4140.128,4137.308,4137.564,4152.308,4110.897,4141.026,3795.897,4150.255999999999,4146.026,4158.59,4161.026,4153.59,4161.923,4136.026,0,0
230,106,0,3523,4146.154,4149.872,4151.026,4159.615,4147.436,4154.103,3792.692,4157.692,4158.718,4176.282,4166.923,4156.282,4175.0,4142.308,0,0
231,107,0,3486,4139.231,4150.255999999999,4154.359,4162.821,4139.615,4148.205,3780.385,4147.9490000000005,4151.154,4160.513,4163.59,4149.872,4163.974,4145.128,0,0
232,108,0,3076,4123.077,4133.846,4140.769,4153.974,4109.103,4136.667,3778.974,4137.436,4142.0509999999995,4143.462,4155.513,4139.231,4152.308,4135.641,0,0
233,109,0,3114,4132.9490000000005,4142.9490000000005,4146.795,4155.128,4127.179,4150.128,3824.103,4156.667,4160.128,4151.667,4167.821,4149.103,4168.205,4147.821,0,0
234,110,0,3523,4151.154,4157.821,4159.744000000001,4161.538,4145.255999999999,4160.513,3864.744,4171.667,4164.103,4165.897,4178.333,4159.615,4178.846,4161.41,0,0
235,111,0,3486,4143.974,4144.103,4154.359,4157.9490000000005,4127.821,4150.513,3846.41,4158.462,4140.128,4158.205,4167.692,4153.077,4167.9490000000005,4154.615,0,0
236,112,0,3076,4134.487,4135.897,4151.667,4157.0509999999995,4121.026,4149.872,3823.8459999999995,4152.9490000000005,4144.744000000001,4141.026,4166.795,4153.462,4165.128,4151.795,0,0
237,113,0,3114,4139.359,4151.026,4154.103,4160.897,4132.692,4155.897,3832.308,4158.077,4160.385,4143.462,4169.872,4156.154,4168.974,4152.564,0,0
238,114,0,3523,4144.744000000001,4156.795,4143.462,4158.718,4147.179,4150.513,3838.8459999999995,4149.487,4146.41,4156.667,4158.077,4143.333,4167.0509999999995,4138.974,0,0
239,115,0,3486,4138.205,4143.077,4132.564,4150.385,4144.103,4143.462,3832.949,4142.9490000000005,4138.718,4158.205,4151.667,4133.333,4167.308,4131.154,0,0
240,116,0,3076,4122.9490000000005,4137.692,4138.846,4150.255999999999,4108.205,4139.103,3831.282,4148.205,4150.769,4147.564,4153.846,4139.615,4165.897,4136.026,0,0
241,117,0,3114,4131.795,4151.667,4152.308,4162.9490000000005,4115.255999999999,4145.128,3843.462,4158.59,4159.231,4152.821,4161.923,4153.077,4165.769,4139.872,0,0
242,118,0,3523,4148.077,4159.487,4147.692,4162.9490000000005,4156.923,4155.385,3849.8720000000003,4163.205,4157.564,4166.41,4168.846,4158.077,4169.872,4141.41,0,0
243,119,0,3486,4138.59,4150.0,4137.308,4150.128,4140.513,4154.103,3842.692,4159.231,4152.0509999999995,4157.821,4167.821,4150.128,4171.795,4144.231,0,0
244,120,0,3076,4139.359,4148.846,4146.538,4157.564,4131.282,4155.769,3861.1540000000005,4162.692,4153.718,4151.026,4167.821,4149.487,4175.897,4151.923,0,0
245,121,0,3114,4159.103,4159.744000000001,4159.615,4171.282,4171.923,4164.103,3890.256,4175.128,4160.641,4168.974,4174.359,4159.487,4180.641,4160.513,0,0
246,122,0,3523,4150.385,4158.205,4154.487,4162.179,4163.077,4159.744000000001,3886.923,4172.9490000000005,4159.103,4175.897,4172.436,4155.0,4174.872,4157.692,0,0
247,123,0,3486,4133.333,4152.821,4150.897,4152.308,4118.333,4150.128,3880.1279999999997,4159.872,4154.487,4153.077,4159.231,4145.769,4165.769,4149.872,0,0
248,124,0,3076,4142.564,4154.872,4155.255999999999,4154.231,4129.615,4152.0509999999995,3892.821,4157.179,4159.103,4149.103,4156.154,4149.872,4164.615,4147.308,0,0
249,125,0,3114,4143.077,4148.462,4150.641,4149.872,4146.667,4151.154,3903.8459999999995,4155.897,4157.436,4168.59,4162.179,4150.385,4162.9490000000005,4139.872,0,0
250,126,0,3523,4140.641,4144.615,4153.462,4154.872,4145.128,4153.718,3910.6409999999996,4160.385,4153.205,4168.333,4167.179,4152.9490000000005,4165.255999999999,4140.0,0,0
251,127,0,52,4141.667,4139.359,4148.846,4152.692,4146.795,4156.41,3901.026,4160.513,4147.692,4142.436,4155.641,4151.667,4159.487,4139.615,0,0
252,0,0,3261,4119.872,4120.513,4123.462,4126.538,4119.872,4143.59,3880.385,4138.59,4133.846,4115.641,4133.462,4127.821,4134.744000000001,4119.359,0,0
253,1,0,3138,4112.0509999999995,4120.128,4122.564,4125.641,4104.615,4139.231,3895.7690000000002,4132.564,4135.128,4119.103,4132.564,4119.231,4133.846,4115.769,0,0
254,2,0,3453,4142.821,4141.41,4150.385,4152.564,4136.026,4152.436,3933.8459999999995,4158.846,4152.436,4147.0509999999995,4154.103,4146.026,4167.436,4144.872,0,0
255,3,0,3514,4168.718,4155.513,4168.59,4167.179,4158.205,4165.385,3945.256,4183.59,4167.179,4182.179,4180.128,4171.026,4199.103,4171.667,0,0
256,4,0,3579,4172.0509999999995,4162.436,4173.205,4170.385,4154.487,4168.846,3933.974,4186.026,4177.179,4194.744000000001,4187.179,4175.0,4204.744000000001,4175.769,0,0
257,5,0,3252,4163.077,4158.846,4167.308,4165.255999999999,4152.436,4159.359,3918.205,4174.487,4173.462,4167.564,4170.641,4163.846,4184.103,4166.154,0,0
258,6,0,3197,4146.026,4141.538,4154.487,4154.231,4133.974,4148.846,3904.2309999999998,4164.231,4156.41,4154.487,4161.538,4150.769,4165.128,4154.231,0,0
259,7,0,3503,4145.0,4136.154,4160.385,4157.9490000000005,4121.41,4153.077,3907.5640000000003,4167.9490000000005,4150.255999999999,4170.128,4170.128,4154.487,4169.744000000001,4152.692,0,0
260,8,0,3098,4157.179,4143.462,4169.744000000001,4162.0509999999995,4158.077,4158.462,3920.513,4174.103,4158.974,4175.128,4174.744000000001,4161.538,4177.179,4161.795,0,0
261,9,0,3603,4150.513,4141.026,4157.179,4146.282,4182.179,4153.077,3926.1540000000005,4169.231,4163.974,4168.59,4169.615,4155.513,4172.308,4159.231,0,0
262,10,0,3526,4132.436,4129.231,4142.308,4138.205,4158.333,4146.795,3932.308,4165.897,4159.103,4159.359,4163.205,4148.718,4166.41,4142.821,0,0
263,11,0,3483,4123.205,4121.667,4139.872,4144.103,4138.333,4142.179,3939.8720000000003,4165.513,4146.923,4151.282,4155.0,4143.462,4160.513,4133.462,0,0
264,12,0,3074,4123.333,4124.103,4144.872,4149.615,4143.333,4148.077,3955.897,4169.615,4149.487,4160.513,4155.897,4141.41,4159.231,4142.308,0,0
265,13,0,3111,4122.0509999999995,4126.667,4143.333,4146.923,4139.359,4154.615,3977.5640000000003,4169.615,4157.692,4163.077,4157.179,4140.897,4158.846,4142.692,0,0
266,14,0,3526,4124.744000000001,4129.103,4141.154,4145.385,4131.795,4151.923,3989.615,4162.692,4150.385,4149.487,4155.128,4142.436,4156.154,4134.615,0,0
267,15,0,3483,4135.0,4137.9490000000005,4152.436,4159.487,4160.641,4154.103,3975.513,4172.9490000000005,4155.641,4167.692,4165.255999999999,4154.615,4164.487,4145.769,0,0
268,16,0,0,4143.462,4142.821,4162.821,4170.897,4190.255999999999,4159.487,3944.3590000000004,4185.255999999999,4169.615,4180.385,4174.615,4164.744000000001,4175.641,4159.872,0,0
269,17,0,0,4138.462,4139.872,4158.333,4162.564,4179.487,4155.128,3933.974,4174.103,4161.026,4154.359,4169.487,4159.103,4171.538,4157.308,0,0
270,18,0,0,4126.154,4135.641,4150.641,4149.872,4151.538,4148.974,3937.692,4161.282,4149.744000000001,4151.667,4165.255999999999,4150.385,4160.641,4146.667,0,0
271,19,0,0,4127.308,4132.692,4151.538,4152.9490000000005,4146.41,4150.513,3931.026,4169.231,4156.795,4171.282,4167.179,4152.179,4157.821,4139.872,0,0
272,20,0,0,4140.897,4138.077,4155.255999999999,4158.974,4158.077,4152.821,3919.2309999999998,4172.308,4158.718,4169.487,4162.308,4158.462,4159.359,4142.9490000000005,0,0
273,21,0,0,4140.513,4141.026,4150.0,4148.846,4161.538,4148.205,3916.667,4157.692,4146.667,4150.0,4148.333,4151.538,4151.667,4143.846,0,0
274,22,0,0,4124.744000000001,4125.641,4136.026,4133.974,4153.846,4136.538,3903.077,4148.333,4143.974,4137.564,4139.231,4137.179,4135.128,4135.385,0,0
275,23,0,0,4126.667,4120.128,4134.744000000001,4137.436,4150.385,4132.436,3888.8459999999995,4148.205,4143.333,4143.333,4147.179,4140.641,4135.255999999999,4137.9490000000005,0,0
276,24,0,0,4147.564,4138.333,4149.872,4154.231,4159.872,4145.128,3910.1279999999997,4157.179,4142.564,4155.641,4162.9490000000005,4158.718,4154.615,4158.077,0,0
277,25,0,0,4154.615,4145.641,4157.9490000000005,4159.872,4156.538,4156.026,3933.205,4165.513,4151.538,4151.026,4168.59,4164.615,4159.103,4160.769,0,0
278,26,0,0,4143.846,4133.718,4148.846,4150.513,4148.974,4150.769,3924.2309999999998,4161.026,4153.077,4142.564,4161.41,4153.59,4145.255999999999,4142.821,0,0
279,27,0,0,4137.9490000000005,4123.974,4137.179,4140.897,4151.154,4139.487,3906.667,4150.128,4141.667,4144.231,4146.026,4142.821,4137.564,4135.897,0,0
280,28,0,0,4140.255999999999,4124.487,4139.231,4145.0,4154.744000000001,4135.513,3905.7690000000002,4143.205,4134.231,4139.103,4137.564,4140.769,4135.255999999999,4139.359,0,0
281,29,0,0,4140.255999999999,4130.0,4146.026,4149.744000000001,4161.795,4137.308,3908.462,4144.487,4138.718,4139.103,4145.255999999999,4144.615,4127.564,4137.9490000000005,0,0
282,30,0,0,4150.255999999999,4134.487,4150.513,4149.872,4172.308,4143.718,3912.051,4155.385,4147.436,4151.923,4155.897,4155.128,4128.59,4145.385,0,0
283,31,0,0,4170.513,4143.59,4164.872,4163.846,4180.0,4156.154,3924.103,4172.821,4154.103,4158.974,4159.231,4168.846,4149.103,4163.59,0,0
284,32,0,0,4170.769,4151.667,4171.41,4173.333,4156.154,4155.128,3927.179,4176.026,4154.103,4156.282,4156.41,4167.692,4160.128,4164.231,0,0
285,33,0,0,4151.538,4145.513,4157.692,4157.179,4127.179,4142.0509999999995,3920.6409999999996,4163.333,4153.205,4153.59,4150.897,4151.923,4147.0509999999995,4147.179,0,0
286,34,0,0,4142.821,4136.282,4147.564,4146.667,4151.026,4143.846,3920.0,4154.744000000001,4155.513,4149.487,4149.615,4148.205,4144.615,4136.41,0,0
287,35,0,0,4146.667,4135.769,4150.897,4153.718,4188.718,4150.385,3924.744,4153.077,4150.128,4137.564,4151.538,4152.564,4155.255999999999,4137.436,0,0
288,36,0,0,4153.205,4141.667,4153.718,4157.692,4178.462,4148.718,3938.974,4159.103,4156.026,4147.9490000000005,4155.897,4152.308,4157.179,4150.641,0,0
289,37,0,0,4156.282,4148.333,4153.077,4156.923,4165.0,4150.769,3957.4359999999997,4166.795,4173.333,4179.872,4164.744000000001,4156.538,4159.103,4157.179,0,0
290,38,0,0,4154.487,4152.436,4156.41,4155.255999999999,4179.231,4153.462,3959.2309999999998,4167.564,4166.538,4185.385,4169.872,4163.846,4165.897,4152.179,0,0
291,39,0,0,4163.846,4155.0,4165.641,4157.821,4183.59,4159.615,3959.744,4168.333,4153.59,4172.692,4170.0,4169.872,4172.179,4162.692,0,0
292,40,0,0,4172.179,4157.821,4172.692,4166.41,4169.872,4165.897,3972.5640000000003,4173.077,4158.333,4175.128,4172.0509999999995,4171.667,4174.615,4171.923,0,0
293,41,0,0,4159.872,4153.205,4168.846,4167.564,4164.359,4159.615,3981.538,4171.538,4159.872,4171.667,4169.615,4165.0,4166.667,4161.667,0,0
294,42,0,0,4154.359,4151.026,4166.026,4165.769,4184.615,4156.667,3994.744,4171.026,4156.026,4158.974,4165.513,4162.821,4158.205,4160.897,0,0
295,43,0,0,4168.333,4165.769,4171.923,4170.0,4210.385,4169.872,4018.205,4182.179,4167.692,4162.308,4171.667,4172.436,4167.308,4174.359,0,0
296,44,0,0,4171.923,4172.179,4174.615,4174.103,4207.692,4170.769,4019.744,4189.872,4180.255999999999,4174.744000000001,4174.872,4178.077,4178.333,4177.308,0,0
297,45,0,0,4156.923,4157.308,4165.255999999999,4167.692,4180.128,4154.615,3996.1540000000005,4179.103,4167.179,4172.821,4161.923,4170.897,4166.538,4167.0509999999995,0,0
298,46,0,0,4149.872,4147.821,4159.487,4156.154,4163.077,4152.179,3986.923,4168.205,4150.0,4159.231,4155.513,4166.41,4155.128,4158.846,0,0
299,47,0,0,4155.0,4155.385,4167.821,4160.128,4174.231,4163.718,3996.282,4177.0509999999995,4159.359,4156.154,4167.308,4171.795,4164.359,4161.538,0,0
300,48,0,0,4157.436,4161.667,4173.077,4173.077,4190.641,4167.436,4004.8720000000003,4186.923,4176.923,4173.59,4174.103,4175.769,4172.692,4172.179,0,0
301,49,0,0,4152.179,4155.769,4162.0509999999995,4163.333,4183.205,4158.205,4012.5640000000003,4177.821,4172.821,4175.769,4161.282,4166.282,4165.897,4165.769,0,0
302,50,0,0,4150.513,4152.692,4155.0,4155.641,4183.462,4153.974,4024.8720000000003,4170.128,4163.333,4151.154,4157.179,4156.667,4163.205,4154.103,0,0
303,51,0,0,4152.0509999999995,4159.103,4158.846,4166.41,4206.154,4161.795,4028.205,4179.359,4169.744000000001,4154.615,4168.59,4160.513,4174.103,4159.615,0,0
304,52,0,0,4142.9490000000005,4156.923,4152.692,4152.692,4200.513,4158.846,4021.667,4174.615,4172.436,4171.154,4163.974,4155.897,4167.179,4153.077,0,0
305,53,0,0,4134.872,4147.9490000000005,4146.923,4136.667,4177.821,4151.795,4027.179,4160.641,4162.564,4162.308,4150.897,4145.385,4154.487,4140.385,0,0
306,54,0,0,4140.128,4154.487,4156.41,4155.385,4182.0509999999995,4156.026,4042.821,4172.692,4166.026,4163.974,4153.846,4151.282,4164.487,4148.333,0,0
307,55,0,0,4139.487,4159.231,4155.385,4158.077,4190.385,4158.846,4057.308,4184.103,4178.077,4174.744000000001,4158.333,4152.9490000000005,4171.026,4151.538,0,0
308,56,0,0,4130.0,4146.667,4143.205,4140.128,4188.462,4157.308,4064.8720000000003,4172.0509999999995,4173.846,4163.205,4154.103,4143.333,4163.59,4138.077,0,0
309,57,0,0,4134.744000000001,4146.667,4149.359,4149.231,4187.436,4159.359,4058.974,4166.667,4162.564,4159.231,4154.359,4147.821,4164.359,4137.308,0,0
310,58,0,0,4141.667,4159.231,4157.0509999999995,4160.128,4181.923,4158.974,4055.7690000000002,4172.179,4163.718,4168.077,4156.026,4154.103,4170.897,4143.846,0,0
311,59,0,0,4138.974,4161.538,4150.255999999999,4151.538,4189.872,4159.103,4069.8720000000003,4170.255999999999,4177.692,4161.667,4161.154,4150.255999999999,4168.974,4145.255999999999,0,0
312,60,0,0,4143.333,4163.205,4154.103,4150.769,4211.923,4169.487,4084.615,4173.333,4183.333,4165.641,4166.667,4153.59,4170.513,4154.615,0,0
313,61,0,0,4144.615,4166.923,4155.385,4151.795,4219.487,4168.718,4082.5640000000003,4176.154,4173.846,4177.308,4158.333,4153.205,4173.718,4154.872,0,0
314,62,0,0,4136.538,4163.077,4141.667,4144.231,4200.513,4159.359,4067.5640000000003,4166.923,4166.026,4168.205,4151.41,4144.231,4170.385,4143.205,0,0
315,63,0,0,4133.974,4152.179,4140.128,4140.255999999999,4175.769,4166.667,4057.692,4169.872,4171.538,4166.538,4156.923,4144.744000000001,4171.795,4141.923,0,0
316,64,0,3257,4133.59,4148.077,4144.103,4139.359,4181.154,4170.128,4066.667,4175.641,4174.103,4170.897,4153.462,4141.923,4172.179,4141.923,0,0
317,65,0,3133,4130.128,4158.59,4136.667,4140.0,4199.615,4155.641,4071.795,4159.615,4164.744000000001,4157.9490000000005,4144.359,4130.897,4161.41,4136.026,0,0
318,66,0,3448,4134.487,4173.974,4136.282,4147.692,4205.641,4153.205,4057.4359999999997,4149.359,4166.795,4152.9490000000005,4147.0509999999995,4133.718,4153.462,4136.41,0,0
319,67,0,3499,4143.846,4184.872,4145.128,4156.154,4208.077,4168.846,4049.8720000000003,4164.487,4173.718,4152.436,4154.487,4143.333,4163.205,4143.718,0,0
320,68,0,3576,4140.769,4189.359,4144.103,4150.0,4212.179,4167.821,4051.923,4169.615,4165.385,4146.538,4155.128,4142.0509999999995,4172.436,4146.538,0,0
321,69,0,3241,4132.0509999999995,4181.667,4140.0,4139.744000000001,4200.641,4158.462,4054.487,4156.538,4159.744000000001,4160.385,4148.205,4139.359,4168.59,4142.308,0,0
322,70,0,3170,4132.0509999999995,4172.564,4140.897,4141.154,4194.359,4162.9490000000005,4068.333,4152.179,4166.41,4173.205,4140.897,4138.718,4165.897,4139.872,0,0
323,71,0,3499,4133.59,4176.538,4139.744000000001,4145.128,4204.744000000001,4164.231,4079.3590000000004,4157.564,4170.0,4159.872,4141.154,4133.333,4164.103,4140.255999999999,0,0
324,72,0,3080,4126.026,4181.923,4133.846,4139.872,4195.255999999999,4153.077,4072.821,4154.872,4168.59,4152.308,4141.538,4126.795,4154.359,4132.564,0,0
325,73,0,3598,4115.641,4177.692,4126.667,4127.821,4175.513,4146.667,4071.1540000000005,4148.333,4161.538,4151.538,4131.282,4120.769,4147.564,4116.795,0,0
326,74,0,3513,4127.179,4183.846,4134.744000000001,4134.615,4194.872,4161.538,4095.0,4159.872,4159.231,4152.821,4137.436,4128.333,4160.513,4123.846,0,0
327,75,0,3477,4138.59,4196.282,4145.0,4149.872,4232.0509999999995,4172.436,4117.564,4174.231,4166.026,4163.205,4153.462,4140.769,4174.615,4143.59,0,0
328,76,0,3080,4130.128,4198.333,4138.333,4145.769,4224.744000000001,4163.462,4110.641,4169.744000000001,4162.9490000000005,4159.103,4148.718,4138.718,4170.385,4142.308,0,0
329,77,0,3109,4128.974,4207.179,4138.974,4133.462,4197.9490000000005,4160.513,4106.026,4166.538,4166.41,4159.231,4144.872,4135.897,4165.0,4141.282,0,0
330,78,0,3513,4138.59,4225.769,4148.59,4134.615,4203.718,4164.103,4130.0,4174.231,4187.179,4179.231,4155.641,4141.282,4171.154,4150.255999999999,0,0
331,79,0,3477,4144.359,4233.59,4146.41,4144.359,4223.846,4160.513,4143.974,4176.923,4187.179,4184.487,4160.897,4142.436,4178.846,4151.154,0,0
332,80,0,3080,4133.974,4233.205,4134.744000000001,4134.615,4230.128,4153.205,4120.255999999999,4162.692,4159.103,4161.795,4149.744000000001,4135.641,4171.923,4139.359,0,0
333,81,0,3109,4123.718,4255.641,4133.333,4119.872,4231.41,4157.692,4111.795,4154.231,4155.255999999999,4149.487,4142.308,4138.205,4164.615,4135.255999999999,0,0
334,82,0,3513,4129.487,4288.59,4143.077,4126.282,4241.538,4167.179,4143.077,4164.231,4175.385,4162.308,4146.923,4148.077,4175.513,4145.0,0,0
335,83,0,3477,4139.744000000001,4303.077,4152.9490000000005,4141.282,4250.385,4172.564,4158.333,4175.769,4186.282,4172.0509999999995,4155.255999999999,4155.385,4186.538,4152.9490000000005,0,0
336,84,0,3080,4137.564,4313.59,4156.154,4143.077,4240.641,4172.821,4145.385,4172.308,4185.897,4171.026,4157.564,4156.026,4179.103,4155.385,0,0
337,85,0,3109,4129.359,4330.897,4152.564,4137.692,4227.436,4169.103,4146.795,4166.026,4177.564,4170.897,4153.718,4152.179,4171.154,4151.538,0,0
338,86,0,3513,4129.231,4340.769,4147.821,4129.744000000001,4240.385,4169.872,4161.41,4169.872,4181.41,4179.744000000001,4155.128,4153.333,4175.128,4146.538,0,0
339,87,0,3477,4124.231,4335.385,4145.385,4121.282,4242.9490000000005,4167.9490000000005,4158.333,4169.103,4185.385,4176.923,4152.179,4150.385,4173.333,4144.103,0,0
340,88,0,3080,4125.255999999999,4337.0509999999995,4153.077,4140.255999999999,4224.744000000001,4166.667,4149.231,4166.795,4171.923,4166.282,4149.615,4145.513,4167.179,4151.795,0,0
341,89,0,3109,4136.282,4353.718,4158.077,4155.769,4234.615,4168.846,4148.462,4169.103,4163.974,4169.231,4153.462,4147.308,4167.436,4157.692,0,0
342,90,0,3513,4138.974,4373.59,4151.923,4140.255999999999,4265.385,4169.103,4151.026,4171.026,4171.41,4171.923,4155.641,4152.308,4176.538,4151.795,0,0
343,91,0,3477,4139.231,4382.564,4157.179,4135.513,4271.41,4170.641,4156.538,4174.103,4175.897,4177.179,4156.667,4156.538,4186.154,4155.641,0,0
344,92,0,3080,4137.9490000000005,4372.0509999999995,4159.615,4141.282,4253.333,4168.077,4155.0,4172.821,4171.795,4178.59,4155.769,4152.0509999999995,4177.179,4156.282,0,0
345,93,0,3109,4133.205,4364.359,4151.41,4134.231,4243.333,4164.872,4149.103,4171.795,4178.077,4173.333,4156.282,4148.333,4169.359,4147.692,0,0
346,94,0,3513,4143.077,4380.769,4160.641,4142.692,4257.179,4174.872,4155.128,4186.154,4193.077,4185.0,4170.128,4161.026,4190.897,4163.718,0,0
347,95,0,3477,4163.205,4403.462,4177.9490000000005,4167.9490000000005,4263.718,4188.205,4168.205,4205.769,4202.692,4204.487,4188.718,4175.513,4211.026,4191.538,0,0
348,96,0,3080,4155.513,4397.0509999999995,4173.462,4162.564,4247.179,4180.255999999999,4166.282,4199.103,4195.513,4201.154,4188.205,4170.897,4196.026,4186.026,0,0
349,97,0,3109,4140.128,4379.487,4166.282,4147.564,4249.615,4171.667,4159.231,4183.077,4185.897,4192.692,4180.513,4165.897,4185.128,4173.462,0,0
350,98,0,3513,4152.436,4385.897,4175.385,4160.128,4280.0,4180.255999999999,4166.795,4186.026,4191.538,4201.538,4184.615,4172.308,4200.769,4186.282,0,0
351,99,0,3477,4163.205,4396.282,4179.487,4171.282,4285.897,4186.795,4177.436,4190.769,4200.385,4207.692,4187.9490000000005,4171.923,4203.974,4188.974,0,0
352,100,0,3080,4157.308,4387.179,4174.103,4160.513,4267.0509999999995,4180.769,4171.41,4185.897,4200.641,4205.897,4184.487,4168.974,4188.59,4173.205,0,0
353,101,0,3109,4154.615,4376.538,4174.744000000001,4151.026,4265.255999999999,4174.359,4165.897,4183.974,4193.077,4197.0509999999995,4182.564,4167.436,4182.564,4170.0,0,0
354,102,0,3513,4159.231,4380.641,4181.538,4159.487,4264.231,4176.667,4180.128,4185.0,4183.846,4188.718,4182.564,4166.667,4188.205,4177.9490000000005,0,0
355,103,0,3477,4166.282,4388.59,4190.513,4170.769,4263.718,4185.385,4191.154,4187.564,4185.897,4195.897,4186.282,4177.308,4191.795,4184.615,0,0
356,104,0,3080,4168.205,4384.359,4189.615,4171.026,4276.538,4185.255999999999,4188.077,4186.923,4189.615,4195.255999999999,4187.821,4181.154,4185.128,4185.897,0,0
357,105,0,3109,4152.179,4363.333,4175.513,4160.255999999999,4264.744000000001,4168.974,4184.744000000001,4170.769,4168.718,4170.128,4170.255999999999,4161.41,4162.308,4170.385,0,0
358,106,0,3513,4133.59,4347.0509999999995,4163.59,4150.128,4250.385,4162.692,4181.026,4155.0,4149.359,4152.9490000000005,4146.795,4142.9490000000005,4143.974,4150.255999999999,0,0
359,107,0,3477,4143.077,4351.667,4167.436,4151.923,4263.077,4177.9490000000005,4184.359,4166.538,4169.359,4167.308,4155.769,4150.897,4158.462,4156.795,0,0
360,108,0,3080,4156.538,4348.974,4175.128,4151.282,4251.154,4182.436,4194.872,4185.385,4190.128,4184.359,4177.9490000000005,4162.0509999999995,4184.103,4172.308,0,0
361,109,0,3109,4151.282,4338.077,4178.333,4151.795,4235.128,4174.359,4192.564,4186.923,4185.641,4187.308,4175.0,4158.846,4194.103,4171.538,0,0
362,110,0,3513,4151.795,4346.923,4183.077,4163.59,4273.718,4180.641,4186.538,4188.205,4187.0509999999995,4190.255999999999,4174.103,4164.231,4200.0,4173.205,0,0
363,111,0,3477,4168.974,4361.667,4186.667,4172.821,4296.538,4191.41,4204.744000000001,4200.897,4203.974,4202.179,4198.59,4179.231,4209.872,4188.077,0,0
364,112,0,3080,4176.923,4361.795,4187.821,4172.821,4266.026,4188.205,4219.359,4206.667,4207.179,4211.923,4208.59,4182.179,4211.923,4190.897,0,0
365,113,0,3109,4159.359,4348.077,4181.41,4165.255999999999,4257.436,4181.923,4200.0,4190.769,4193.59,4201.41,4186.154,4167.308,4199.615,4176.538,0,0
366,114,0,3513,4139.615,4329.231,4165.769,4151.282,4270.897,4177.308,4176.667,4169.231,4184.872,4183.077,4167.308,4152.564,4181.282,4161.538,0,0
367,115,0,3477,4141.282,4320.641,4162.9490000000005,4147.692,4254.615,4175.0,4182.0509999999995,4170.128,4186.026,4180.128,4168.59,4151.538,4178.59,4155.255999999999,0,0
368,116,0,3080,4157.179,4328.205,4181.41,4165.385,4228.462,4183.077,4201.923,4186.282,4190.128,4191.282,4175.255999999999,4158.59,4194.231,4162.9490000000005,0,0
369,117,0,3109,4161.538,4328.59,4186.154,4175.513,4240.128,4189.359,4206.282,4189.615,4189.872,4193.333,4174.615,4158.077,4194.615,4170.255999999999,0,0
370,118,0,3513,4150.255999999999,4312.436,4170.128,4167.564,4271.538,4183.846,4197.179,4181.923,4187.179,4183.846,4169.615,4149.744000000001,4181.282,4166.026,0,0
371,119,0,3477,4148.846,4308.077,4171.667,4165.897,4266.667,4183.333,4199.231,4184.103,4189.615,4185.897,4173.205,4152.821,4188.59,4165.128,0,0
372,120,0,3080,4158.59,4316.923,4187.308,4170.641,4246.538,4190.128,4206.538,4191.026,4197.308,4198.846,4184.103,4166.667,4207.179,4172.564,0,0
373,121,0,3109,4161.282,4307.308,4186.538,4175.769,4252.9490000000005,4191.41,4206.154,4191.923,4202.0509999999995,4205.128,4188.718,4171.667,4210.128,4177.308,0,0
374,122,0,3513,4153.077,4281.795,4171.923,4169.231,4244.487,4184.487,4200.513,4181.667,4193.462,4193.974,4176.538,4159.872,4196.41,4171.795,0,0
375,123,0,3477,4151.41,4275.255999999999,4166.154,4158.333,4225.897,4180.385,4198.077,4173.462,4186.923,4180.385,4166.923,4155.641,4186.795,4166.154,0,0
376,124,0,3080,4159.231,4279.872,4172.436,4160.385,4242.179,4183.846,4200.897,4177.436,4188.077,4181.026,4177.692,4169.231,4191.154,4171.026,0,0
377,125,0,3109,4150.255999999999,4267.436,4172.308,4157.9490000000005,4242.564,4184.103,4200.385,4174.872,4186.026,4185.769,4183.205,4168.846,4192.821,4172.692,0,0
378,126,0,3513,4139.615,4257.179,4165.513,4149.487,4219.744000000001,4181.282,4196.538,4171.795,4193.718,4191.795,4175.769,4159.103,4185.641,4167.179,0,0
379,127,0,52,4153.205,4267.179,4168.974,4157.821,4235.385,4184.744000000001,4204.744000000001,4182.308,4203.59,4200.255999999999,4180.0,4167.821,4187.308,4170.0,0,0
380,0,0,3260,4158.718,4269.231,4173.718,4166.282,4257.692,4191.667,4222.0509999999995,4185.0,4194.744000000001,4200.897,4187.564,4174.744000000001,4193.462,4172.564,0,0
381,1,0,3132,4137.436,4248.205,4161.026,4149.744000000001,4238.718,4182.821,4215.128,4171.026,4177.308,4185.0,4174.359,4159.103,4179.872,4158.462,0,0
382,2,0,3454,4135.128,4234.231,4151.026,4141.41,4215.0,4166.538,4195.385,4163.077,4173.59,4166.795,4159.487,4148.718,4164.872,4150.0,0,0
383,3,0,3496,4165.0,4246.795,4167.564,4161.41,4219.103,4173.974,4208.333,4173.846,4186.026,4175.897,4169.359,4163.974,4179.231,4166.282,0,0
384,4,0,3568,4173.077,4255.0,4176.538,4166.154,4225.128,4187.308,4217.821,4178.205,4189.615,4190.641,4179.615,4174.615,4191.026,4176.026,0,0
385,5,0,3243,4151.41,4232.692,4152.308,4138.718,4217.0509999999995,4172.564,4193.205,4160.513,4173.333,4168.974,4162.308,4153.333,4166.538,4156.41,0,0
386,6,0,3170,4149.872,4214.487,4142.692,4126.923,4211.282,4161.154,4190.0,4150.385,4166.282,4151.538,4149.872,4139.103,4154.615,4145.255999999999,0,0
387,7,0,3504,4171.667,4227.0509999999995,4168.59,4157.821,4217.0509999999995,4180.513,4214.103,4167.692,4185.128,4178.846,4165.769,4160.128,4177.821,4163.59,0,0
388,8,0,3080,4177.9490000000005,4236.026,4180.513,4175.641,4220.255999999999,4187.9490000000005,4212.436,4177.692,4190.769,4193.59,4175.0,4175.385,4181.923,4176.154,0,0
389,9,0,3596,4170.385,4221.923,4168.077,4156.538,4211.795,4174.359,4199.231,4163.59,4174.103,4171.795,4167.821,4163.59,4166.154,4167.9490000000005,0,0
390,10,0,3514,4168.205,4212.308,4168.846,4151.795,4208.974,4171.667,4202.308,4157.0509999999995,4172.692,4166.026,4167.0509999999995,4157.308,4167.9490000000005,4159.744000000001,0,0
391,11,0,3484,4158.59,4207.308,4171.923,4158.59,4199.744000000001,4172.692,4198.333,4159.744000000001,4173.718,4169.359,4160.0,4153.59,4167.692,4153.718,0,0
392,12,0,3077,4152.0509999999995,4202.692,4166.41,4153.846,4179.487,4172.9490000000005,4202.436,4164.487,4170.641,4168.846,4155.128,4150.641,4165.897,4153.59,0,0
393,13,0,3115,4166.923,4215.0,4173.59,4160.769,4193.846,4184.615,4225.769,4182.821,4189.744000000001,4188.205,4177.179,4167.308,4183.846,4169.615,0,0
394,14,0,3514,4177.436,4219.615,4176.538,4171.282,4227.0509999999995,4191.282,4228.718,4188.974,4204.231,4200.641,4188.846,4177.0509999999995,4193.077,4176.795,0,0
395,15,0,3484,4167.564,4200.255999999999,4160.641,4160.0,4228.974,4182.692,4212.564,4173.077,4187.821,4184.744000000001,4171.154,4158.077,4181.026,4161.154,0,0
396,16,0,0,4163.077,4194.744000000001,4157.0509999999995,4153.974,4212.821,4179.872,4216.026,4168.333,4182.692,4175.769,4162.9490000000005,4150.513,4178.462,4156.795,0,0
397,17,0,0,4174.872,4213.077,4176.667,4172.821,4217.308,4188.333,4237.692,4188.974,4203.205,4191.026,4177.9490000000005,4169.103,4191.282,4175.385,0,0
398,18,0,0,4172.692,4207.308,4180.0,4175.897,4208.974,4188.974,4235.128,4191.538,4197.821,4189.872,4179.615,4167.179,4193.205,4177.0509999999995,0,0
399,19,0,0,4157.436,4181.667,4160.897,4153.846,4184.359,4181.667,4218.59,4170.641,4178.333,4169.872,4159.359,4147.564,4181.795,4159.615,0,0
400,20,0,0,4161.667,4182.436,4162.436,4151.41,4198.205,4182.564,4225.897,4174.615,4185.641,4176.154,4158.462,4157.0509999999995,4182.564,4163.462,0,0
401,21,0,0,4171.154,4187.308,4175.255999999999,4166.154,4214.615,4186.026,4231.923,4184.103,4189.231,4186.282,4172.0509999999995,4174.231,4187.821,4173.333,0,0
402,22,0,0,4170.0,4174.103,4174.231,4171.667,4194.359,4184.615,4223.974,4178.077,4179.231,4172.692,4170.255999999999,4169.615,4185.897,4170.128,0,0
403,23,0,0,4170.128,4168.333,4172.692,4169.872,4176.923,4182.821,4227.564,4175.513,4181.026,4166.538,4165.897,4165.0,4185.513,4170.128,0,0
404,24,0,0,4173.077,4172.436,4174.103,4170.897,4192.308,4182.0509999999995,4237.0509999999995,4176.026,4188.59,4179.872,4170.769,4169.487,4187.436,4173.333,0,0
405,25,0,0,4175.769,4168.077,4170.385,4168.59,4208.718,4183.205,4235.769,4172.179,4189.872,4189.231,4175.128,4171.41,4185.641,4176.41,0,0
406,26,0,0,4176.282,4159.744000000001,4167.821,4165.385,4196.795,4181.795,4225.897,4169.231,4188.205,4185.769,4175.897,4170.641,4183.462,4178.077,0,0
407,27,0,0,4164.487,4148.077,4168.846,4166.923,4179.487,4173.077,4218.077,4168.846,4183.718,4174.231,4174.359,4169.872,4183.59,4174.359,0,0
408,28,0,0,4152.564,4141.538,4168.333,4167.179,4186.282,4169.872,4222.821,4167.821,4181.795,4172.821,4170.255999999999,4167.0509999999995,4183.462,4164.103,0,0
409,29,0,0,4161.282,4150.128,4169.359,4168.462,4204.872,4180.255999999999,4233.718,4171.41,4187.436,4184.615,4168.077,4167.0509999999995,4184.359,4159.872,0,0
410,30,0,0,4169.231,4153.846,4168.846,4165.769,4197.9490000000005,4184.872,4228.077,4175.128,4188.333,4179.487,4167.692,4167.821,4187.308,4162.564,0,0
411,31,0,0,4170.128,4152.692,4175.641,4168.59,4186.667,4184.872,4230.255999999999,4178.205,4186.667,4174.103,4174.359,4172.179,4192.308,4171.282,0,0
412,32,0,0,4174.487,4152.821,4182.436,4177.179,4192.308,4186.538,4244.615,4177.692,4189.359,4183.718,4180.897,4175.0,4193.205,4176.026,0,0
413,33,0,0,4165.128,4134.359,4167.821,4163.077,4175.897,4175.769,4236.795,4166.154,4186.154,4175.385,4165.897,4162.564,4184.487,4162.0509999999995,0,0
414,34,0,0,4152.821,4121.41,4159.487,4148.333,4159.359,4169.231,4228.59,4163.974,4178.59,4164.359,4154.487,4153.205,4178.59,4152.821,0,0
415,35,0,0,4156.41,4138.205,4172.692,4159.231,4185.641,4177.9490000000005,4238.462,4172.308,4177.179,4173.462,4167.179,4160.513,4181.026,4158.974,0,0
416,36,0,0,4157.436,4137.821,4167.436,4162.0509999999995,4200.769,4174.103,4235.255999999999,4166.026,4174.872,4173.846,4167.179,4159.872,4174.615,4158.077,0,0
417,37,0,0,4157.821,4116.538,4154.359,4156.795,4173.718,4166.282,4228.974,4157.9490000000005,4171.026,4166.538,4155.385,4154.872,4165.897,4152.0509999999995,0,0
418,38,0,0,4169.487,4124.615,4166.41,4168.718,4167.821,4174.359,4242.9490000000005,4166.923,4179.103,4171.667,4162.308,4165.128,4175.897,4160.0,0,0
419,39,0,0,4169.103,4143.462,4171.795,4169.231,4190.897,4178.333,4253.718,4175.641,4189.872,4176.538,4169.615,4169.359,4186.923,4169.872,0,0
420,40,0,0,4152.179,4135.513,4155.769,4152.821,4184.103,4171.282,4244.359,4166.026,4182.308,4168.718,4159.359,4157.179,4176.923,4160.255999999999,0,0
421,41,0,0,4147.0509999999995,4119.872,4147.308,4152.0509999999995,4152.821,4163.462,4231.154,4150.769,4168.077,4154.744000000001,4149.487,4149.615,4163.205,4143.59,0,0
422,42,0,0,4155.128,4120.255999999999,4153.205,4157.179,4139.615,4159.231,4222.0509999999995,4150.128,4168.846,4150.641,4152.821,4152.821,4166.154,4143.59,0,0
423,43,0,0,4161.538,4125.897,4157.692,4156.026,4155.897,4162.436,4216.538,4155.641,4173.205,4159.615,4156.154,4157.9490000000005,4171.41,4155.385,0,0
424,44,0,0,4153.846,4122.436,4150.385,4150.513,4181.026,4163.59,4214.872,4149.231,4164.359,4155.769,4151.795,4153.974,4164.615,4153.077,0,0
425,45,0,0,4148.974,4124.487,4147.564,4150.641,4190.513,4162.821,4225.385,4151.282,4167.179,4155.0,4158.59,4154.744000000001,4166.026,4149.487,0,0
426,46,0,0,4162.436,4136.795,4164.231,4164.615,4187.564,4169.872,4244.487,4168.333,4187.564,4176.923,4173.205,4172.0509999999995,4181.667,4165.0,0,0
427,47,0,0,4167.564,4141.154,4174.231,4169.872,4184.744000000001,4171.41,4249.103,4171.538,4193.333,4187.0509999999995,4173.333,4181.41,4186.923,4174.615,0,0
428,48,0,0,4163.846,4144.872,4169.231,4164.872,4186.41,4169.231,4243.718,4171.282,4186.41,4178.718,4174.487,4179.487,4181.282,4170.641,0,0
429,49,0,0,4170.385,4153.59,4173.974,4170.897,4182.692,4176.154,4244.231,4180.513,4186.795,4180.128,4183.718,4181.282,4184.744000000001,4171.41,0,0
430,50,0,0,4173.462,4146.923,4176.538,4171.795,4172.9490000000005,4176.41,4244.231,4176.538,4187.179,4187.0509999999995,4176.026,4176.795,4184.744000000001,4169.487,0,0
431,51,0,0,4167.308,4136.026,4170.128,4164.359,4170.641,4172.436,4245.769,4171.538,4188.462,4183.333,4168.974,4170.255999999999,4176.41,4169.487,0,0
432,52,0,0,4160.385,4140.128,4170.897,4166.026,4172.436,4173.205,4250.0,4176.795,4188.974,4174.231,4175.128,4168.718,4172.692,4168.718,0,0
433,53,0,0,4146.538,4137.179,4163.974,4158.205,4166.923,4163.718,4244.872,4164.487,4175.385,4164.359,4160.128,4154.744000000001,4163.846,4147.179,0,0
434,54,0,0,4152.436,4140.897,4160.641,4152.179,4175.0,4166.923,4251.154,4166.923,4185.0,4174.359,4152.564,4151.923,4169.872,4146.154,0,0
435,55,0,0,4173.59,4162.308,4172.0509999999995,4167.308,4190.0,4185.513,4268.333,4192.0509999999995,4208.846,4193.333,4175.128,4170.385,4191.538,4173.846,0,0
436,56,0,0,4154.487,4150.769,4159.359,4163.59,4177.179,4177.564,4258.846,4177.821,4188.846,4179.359,4171.667,4163.59,4181.026,4163.974,0,0
437,57,0,0,4130.897,4131.026,4138.974,4145.513,4166.538,4161.538,4243.846,4154.103,4166.154,4160.897,4150.897,4145.641,4160.897,4139.359,0,0
438,58,0,0,4149.359,4153.59,4152.821,4155.255999999999,4167.179,4171.795,4252.821,4169.615,4184.872,4170.0,4163.333,4153.462,4173.205,4153.205,0,0
439,59,0,0,4156.026,4168.205,4162.308,4161.154,4151.282,4177.9490000000005,4249.487,4179.744000000001,4190.769,4175.769,4173.333,4160.255999999999,4180.385,4164.231,0,0
440,60,0,0,4137.436,4152.436,4148.974,4144.231,4154.872,4166.538,4227.9490000000005,4164.103,4168.718,4163.846,4154.487,4150.641,4165.385,4149.359,0,0
441,61,0,0,4145.641,4155.641,4156.41,4156.795,4188.846,4166.795,4233.205,4163.846,4170.255999999999,4164.615,4153.205,4149.744000000001,4166.795,4149.487,0,0
442,62,0,0,4156.667,4170.255999999999,4165.641,4173.205,4190.641,4172.821,4250.0,4171.282,4180.897,4171.538,4162.308,4154.359,4172.692,4153.974,0,0
443,63,0,0,4148.333,4175.641,4154.359,4153.077,4170.897,4170.128,4248.974,4169.359,4175.641,4170.641,4160.513,4154.359,4168.59,4146.923,0,0
444,64,0,3258,4150.897,4182.179,4153.333,4144.103,4173.846,4171.538,4248.718,4172.692,4177.9490000000005,4172.692,4164.615,4156.538,4172.308,4151.667,0,0
445,65,0,3130,4149.359,4177.9490000000005,4159.103,4157.9490000000005,4166.538,4172.9490000000005,4246.41,4173.333,4187.179,4167.821,4163.205,4154.744000000001,4169.359,4157.308,0,0
446,66,0,3450,4136.026,4171.795,4150.255999999999,4153.077,4156.41,4163.333,4233.077,4165.897,4178.077,4156.923,4150.0,4149.487,4158.205,4151.667,0,0
447,67,0,3510,4145.769,4184.744000000001,4151.795,4152.436,4171.923,4166.667,4236.538,4168.59,4168.077,4163.59,4156.923,4155.641,4165.255999999999,4157.821,0,0
448,68,0,3564,4160.255999999999,4193.59,4165.641,4172.0509999999995,4162.821,4182.692,4248.718,4176.795,4174.615,4176.538,4171.538,4159.231,4177.9490000000005,4167.692,0,0
449,69,0,3246,4141.41,4183.846,4153.59,4157.9490000000005,4141.795,4176.667,4234.615,4165.897,4170.897,4164.744000000001,4159.103,4143.974,4171.026,4151.154,0,0
450,70,0,3169,4129.103,4179.359,4140.897,4136.667,4168.333,4163.846,4224.615,4157.692,4170.0,4155.385,4147.308,4139.359,4164.487,4135.897,0,0
451,71,0,3502,4145.385,4193.59,4153.205,4150.128,4191.795,4168.718,4241.41,4170.641,4185.897,4170.897,4157.821,4154.359,4173.333,4148.59,0,0
452,72,0,3083,4157.0509999999995,4213.077,4158.462,4160.513,4177.308,4175.641,4253.205,4175.769,4182.564,4178.974,4169.231,4159.744000000001,4178.077,4165.128,0,0
453,73,0,3610,4154.231,4220.513,4156.154,4153.077,4173.205,4179.487,4255.128,4167.692,4171.667,4171.538,4168.077,4155.0,4176.026,4166.154,0,0
454,74,0,3520,4154.615,4217.821,4165.385,4155.255999999999,4182.179,4184.744000000001,4262.821,4169.487,4186.667,4172.564,4160.385,4156.154,4177.308,4161.282,0,0
455,75,0,3484,4152.692,4217.436,4159.744000000001,4158.718,4172.821,4176.667,4251.538,4171.154,4185.128,4170.641,4157.179,4151.282,4171.795,4153.718,0,0
456,76,0,3076,4141.41,4215.255999999999,4138.205,4146.795,4153.718,4158.333,4223.462,4153.462,4153.718,4152.308,4154.487,4137.692,4157.692,4141.41,0,0
457,77,0,3114,4131.154,4215.385,4134.744000000001,4136.154,4148.846,4151.923,4219.359,4141.538,4145.128,4145.255999999999,4151.41,4133.462,4148.077,4135.513,0,0
458,78,0,3520,4124.872,4215.128,4139.615,4133.077,4153.462,4157.0509999999995,4230.0,4146.667,4158.974,4150.128,4148.718,4136.538,4142.308,4136.282,0,0
459,79,0,3484,4124.231,4210.0,4139.231,4132.436,4157.0509999999995,4163.333,4227.692,4152.436,4162.179,4145.641,4142.9490000000005,4137.436,4137.692,4136.538,0,0
460,80,0,3076,4137.436,4222.0509999999995,4145.769,4138.205,4170.641,4167.436,4231.41,4161.026,4168.205,4149.872,4148.077,4143.974,4151.795,4143.205,0,0
461,81,0,3114,4164.615,4252.0509999999995,4165.513,4160.769,4196.923,4178.59,4263.205,4182.436,4193.462,4185.128,4176.538,4164.231,4188.462,4166.154,0,0
462,82,0,3520,4177.821,4264.103,4177.9490000000005,4180.897,4204.872,4187.564,4281.923,4192.564,4205.128,4207.564,4196.923,4177.308,4207.692,4181.41,0,0
463,83,0,3484,4160.255999999999,4251.154,4163.846,4163.462,4190.385,4175.641,4261.282,4171.154,4187.692,4188.59,4181.795,4164.487,4187.821,4169.615,0,0
464,84,0,3076,4148.974,4246.667,4153.333,4152.179,4177.436,4167.179,4252.308,4156.538,4175.769,4172.0509999999995,4167.9490000000005,4154.231,4168.205,4158.974,0,0
465,85,0,3114,4157.436,4251.282,4155.641,4165.641,4157.308,4172.0509999999995,4261.667,4162.9490000000005,4172.9490000000005,4170.513,4166.795,4155.385,4169.231,4158.077,0,0
466,86,0,3520,4151.41,4244.487,4144.103,4154.487,4150.769,4162.9490000000005,4246.923,4153.333,4153.974,4155.513,4155.0,4142.9490000000005,4160.641,4150.513,0,0
467,87,0,3484,4146.282,4244.103,4144.103,4143.462,4184.103,4160.385,4234.487,4148.974,4155.769,4155.897,4160.255999999999,4142.179,4154.615,4158.077,0,0
468,88,0,3076,4166.538,4260.385,4172.179,4168.462,4211.41,4185.513,4259.615,4177.436,4190.255999999999,4188.333,4189.615,4169.231,4178.333,4185.513,0,0
469,89,0,3114,4176.282,4271.795,4180.769,4179.615,4199.359,4195.385,4273.974,4190.641,4201.026,4200.128,4197.692,4178.333,4192.436,4189.359,0,0
470,90,0,3520,4167.9490000000005,4264.872,4167.179,4163.974,4187.0509999999995,4178.974,4255.641,4170.0,4184.872,4182.692,4180.641,4164.359,4175.769,4170.0,0,0
471,91,0,3484,4170.0,4252.564,4165.897,4168.462,4182.0509999999995,4175.128,4242.564,4164.872,4175.769,4180.0,4179.615,4163.718,4173.333,4167.436,0,0
472,92,0,3076,4167.692,4249.359,4163.974,4177.821,4164.231,4182.179,4241.795,4177.308,4184.231,4187.9490000000005,4192.0509999999995,4165.385,4187.564,4176.154,0,0
473,93,0,3114,4153.718,4249.359,4148.077,4158.333,4171.282,4174.872,4228.462,4170.897,4186.41,4176.795,4183.718,4154.231,4177.0509999999995,4167.821,0,0
474,94,0,3520,4147.308,4244.744000000001,4140.513,4144.872,4197.821,4164.872,4213.333,4158.846,4171.282,4163.462,4159.487,4144.872,4158.974,4150.897,0,0
475,95,0,3484,4153.718,4254.359,4150.0,4161.923,4192.692,4174.744000000001,4226.795,4166.41,4169.744000000001,4175.128,4168.846,4150.769,4168.846,4158.59,0,0
476,96,0,3076,4165.897,4263.718,4160.385,4176.41,4179.359,4185.641,4246.923,4181.026,4184.103,4191.154,4199.487,4163.846,4182.692,4180.769,0,0
477,97,0,3114,4169.359,4254.103,4156.538,4166.026,4188.205,4175.255999999999,4240.128,4179.359,4187.564,4187.692,4187.9490000000005,4161.026,4173.462,4178.59,0,0
478,98,0,3520,4166.41,4254.872,4153.333,4164.231,4177.436,4165.385,4226.795,4172.0509999999995,4188.718,4180.897,4160.128,4151.667,4167.564,4166.282,0,0
479,99,0,3484,4169.744000000001,4263.59,4160.385,4172.0509999999995,4158.333,4172.179,4233.59,4174.872,4189.744000000001,4182.308,4162.564,4154.359,4172.9490000000005,4171.667,0,0
480,100,0,3076,4166.41,4251.026,4153.077,4156.538,4176.154,4170.128,4234.359,4167.692,4170.385,4176.41,4165.385,4150.0,4163.462,4165.0,0,0
481,101,0,3114,4148.462,4231.282,4137.436,4145.769,4180.897,4155.769,4215.0,4149.103,4158.59,4160.769,4142.436,4134.103,4141.795,4140.0,0,0
482,102,0,3520,4144.359,4229.615,4140.769,4158.974,4155.769,4156.282,4210.641,4151.154,4168.462,4151.667,4133.59,4136.154,4137.0509999999995,4145.513,0,0
483,103,0,3484,4163.846,4243.718,4154.744000000001,4160.255999999999,4162.564,4171.795,4239.872,4173.974,4169.872,4155.641,4159.872,4154.615,4150.513,4171.795,0,0
484,104,0,3076,4176.923,4259.872,4163.846,4151.282,4190.769,4185.255999999999,4268.205,4188.462,4172.9490000000005,4165.385,4171.282,4163.077,4160.385,4173.59,0,0
485,105,0,3114,4174.103,4255.769,4166.923,4159.487,4177.436,4183.59,4258.077,4185.128,4178.974,4172.9490000000005,4148.333,4160.128,4161.795,4164.872,0,0
486,106,0,3520,4172.308,4238.59,4161.923,4171.923,4151.41,4172.9490000000005,4231.41,4175.385,4174.487,4169.231,4130.128,4156.538,4155.897,4166.154,0,0
487,107,0,3484,4173.846,4240.385,4154.103,4166.795,4166.282,4166.667,4223.205,4168.205,4170.769,4156.667,4135.641,4155.255999999999,4144.615,4161.026,0,0
488,108,0,3076,4176.923,4248.59,4160.128,4162.436,4188.462,4166.667,4237.564,4166.923,4170.128,4157.436,4145.385,4159.231,4142.564,4155.897,0,0
489,109,0,3114,4187.9490000000005,4249.615,4171.923,4173.205,4188.333,4172.0509999999995,4255.255999999999,4170.641,4173.205,4173.718,4154.872,4169.487,4154.231,4170.641,0,0
490,110,0,3520,4181.795,4238.333,4160.255999999999,4165.769,4174.487,4170.255999999999,4249.615,4170.513,4174.615,4167.179,4145.255999999999,4162.692,4153.846,4170.897,0,0
491,111,0,3484,4164.615,4226.923,4151.41,4151.923,4167.308,4166.538,4242.436,4174.103,4171.538,4153.59,4131.41,4150.641,4149.359,4156.026,0,0
492,112,0,3076,4182.564,4241.923,4176.026,4173.846,4180.128,4178.59,4271.538,4194.872,4189.231,4183.077,4155.897,4171.154,4171.667,4172.692,0,0
493,113,0,3114,4206.795,4263.718,4193.205,4196.538,4190.128,4194.872,4304.103,4211.538,4217.436,4210.641,4174.359,4191.795,4189.231,4195.769,0,0
494,114,0,3520,4187.308,4257.564,4174.615,4175.769,4176.154,4185.0,4297.0509999999995,4199.872,4206.667,4191.538,4148.974,4170.385,4175.641,4180.128,0,0
495,115,0,3484,4166.282,4233.077,4160.513,4159.359,4164.359,4168.205,4285.513,4183.205,4177.821,4172.821,4130.897,4150.255999999999,4161.795,4160.897,0,0
496,116,0,3076,4179.487,4230.255999999999,4172.821,4179.744000000001,4179.615,4176.795,4295.513,4191.282,4186.026,4184.231,4144.487,4163.205,4170.769,4173.846,0,0
497,117,0,3114,4187.308,4242.308,4178.718,4186.667,4191.154,4183.846,4301.026,4199.744000000001,4203.333,4190.385,4152.9490000000005,4173.462,4180.641,4185.128,0,0
498,118,0,3520,4186.026,4248.846,4173.333,4181.41,4186.667,4179.359,4296.795,4200.513,4205.897,4187.564,4154.872,4170.641,4184.487,4184.872,0,0
499,119,0,3484,4188.462,4246.282,4171.154,4181.154,4182.9490000000005,4177.179,4281.026,4202.179,4202.564,4189.487,4154.103,4171.41,4184.487,4187.0509999999995,0,0
500,120,0,3076,4180.385,4236.154,4169.231,4174.872,4171.667,4172.9490000000005,4252.179,4194.359,4190.513,4186.538,4143.462,4170.641,4174.103,4186.154,0,0
501,121,0,3114,4176.538,4229.615,4171.41,4173.974,4160.255999999999,4168.462,4242.564,4185.255999999999,4181.667,4185.641,4142.9490000000005,4169.231,4169.231,4185.513,0,0
502,122,0,3520,4182.436,4228.59,4170.769,4177.564,4172.564,4168.077,4246.41,4185.769,4186.538,4188.59,4150.385,4167.821,4172.564,4181.667,0,0
503,123,0,3484,4183.59,4231.154,4168.205,4181.795,4191.667,4170.255999999999,4238.718,4190.513,4188.846,4185.385,4150.128,4167.821,4172.0509999999995,4177.692,0,0
504,124,0,3076,4183.974,4232.436,4172.308,4183.462,4190.255999999999,4173.846,4248.974,4194.615,4188.077,4186.026,4144.103,4172.436,4172.436,4183.077,0,0
505,125,0,3114,4183.462,4224.615,4168.718,4176.795,4175.0,4174.487,4267.692,4192.308,4191.795,4186.154,4140.769,4169.359,4172.308,4182.692,0,0
506,126,0,3520,4172.564,4211.282,4155.897,4163.59,4156.026,4167.564,4257.436,4181.923,4189.615,4175.513,4135.641,4156.282,4164.103,4168.077,0,0
507,127,0,52,4166.154,4211.923,4157.821,4164.231,4160.513,4168.333,4250.128,4182.0509999999995,4182.821,4171.154,4135.513,4155.0,4163.846,4164.231,0,0
508,0,0,3264,4174.872,4220.769,4170.897,4180.0,4182.564,4175.255999999999,4263.974,4190.769,4184.103,4184.872,4140.255999999999,4161.795,4177.821,4175.255999999999,0,0
509,1,0,3146,4177.436,4217.436,4167.9490000000005,4185.255999999999,4178.718,4172.692,4263.974,4187.692,4189.487,4190.128,4140.385,4159.615,4179.487,4171.282,0,0
510,2,0,3460,4168.205,4214.103,4157.821,4176.795,4165.128,4169.359,4252.692,4185.0,4186.154,4176.282,4138.59,4153.718,4173.333,4157.179,0,0
511,3,0,3511,4158.462,4212.692,4155.641,4167.821,4175.897,4168.462,4244.744000000001,4182.821,4174.231,4166.154,4131.923,4149.615,4169.359,4151.154,0,0
512,4,0,3570,4152.436,4199.744000000001,4151.538,4167.0509999999995,4174.872,4165.128,4235.513,4171.026,4168.718,4168.59,4129.487,4145.385,4159.487,4151.41,0,0
513,5,0,3247,4156.538,4195.255999999999,4151.282,4170.513,4147.692,4165.769,4237.436,4169.487,4174.487,4174.744000000001,4134.744000000001,4150.641,4157.564,4156.282,0,0
514,6,0,3167,4168.462,4210.0,4165.641,4174.487,4151.41,4172.179,4250.255999999999,4185.897,4182.692,4182.308,4140.897,4161.538,4169.487,4169.103,0,0
515,7,0,3502,4171.923,4212.0509999999995,4171.154,4173.718,4182.308,4173.333,4252.436,4187.821,4187.821,4184.744000000001,4141.41,4160.769,4172.308,4173.205,0,0
516,8,0,3081,4163.846,4196.026,4155.255999999999,4167.436,4179.103,4164.744000000001,4244.103,4168.974,4181.795,4172.9490000000005,4136.282,4148.077,4162.308,4160.128,0,0
517,9,0,3605,4166.026,4197.308,4154.359,4169.359,4164.231,4168.59,4247.564,4171.41,4174.744000000001,4168.974,4144.231,4147.692,4165.0,4161.667,0,0
518,10,0,3516,4175.255999999999,4207.179,4169.872,4174.872,4175.0,4181.667,4258.205,4190.897,4176.41,4180.769,4154.872,4162.179,4175.385,4175.255999999999,0,0
519,11,0,3482,4167.436,4196.41,4163.333,4170.897,4179.872,4176.282,4247.692,4186.282,4176.41,4177.9490000000005,4147.821,4161.795,4167.9490000000005,4170.128,0,0
520,12,0,3083,4160.255999999999,4182.821,4150.641,4165.513,4167.0509999999995,4165.0,4235.769,4175.641,4178.205,4170.128,4143.333,4150.255999999999,4159.487,4163.205,0,0
521,13,0,3113,4166.923,4185.641,4154.615,4168.718,4170.641,4170.128,4247.179,4183.718,4179.744000000001,4175.255999999999,4154.487,4151.154,4166.026,4168.462,0,0
522,14,0,3516,4167.436,4184.103,4157.692,4170.0,4174.359,4174.359,4258.59,4187.692,4174.487,4175.897,4157.692,4155.513,4172.179,4169.231,0,0
523,15,0,3482,4157.308,4171.282,4154.744000000001,4159.744000000001,4148.205,4167.564,4245.897,4181.538,4175.0,4170.0,4151.026,4151.667,4165.385,4167.308,0,0
524,16,0,0,4156.667,4164.615,4153.846,4154.872,4141.41,4165.641,4231.154,4181.538,4182.436,4173.718,4151.795,4150.385,4163.59,4170.255999999999,0,0
525,17,0,0,4169.744000000001,4169.231,4158.718,4167.308,4165.255999999999,4172.308,4230.513,4183.462,4183.846,4180.0,4161.41,4161.538,4176.154,4173.846,0,0
526,18,0,0,4173.59,4167.9490000000005,4166.538,4174.103,4168.333,4175.641,4232.0509999999995,4185.128,4187.692,4184.359,4168.846,4171.282,4185.641,4179.103,0,0
527,19,0,0,4166.41,4159.744000000001,4170.513,4168.333,4157.0509999999995,4172.564,4232.436,4186.41,4190.641,4187.308,4168.59,4168.205,4184.231,4182.9490000000005,0,0
528,20,0,0,4173.077,4149.103,4170.255999999999,4172.692,4164.872,4173.846,4231.026,4185.513,4184.872,4185.385,4174.487,4167.436,4181.41,4185.513,0,0
529,21,0,0,4186.795,4143.846,4173.718,4185.769,4175.897,4184.359,4228.59,4191.538,4189.231,4187.179,4185.513,4178.462,4186.538,4190.769,0,0
530,22,0,0,4179.744000000001,4145.641,4175.897,4187.9490000000005,4162.179,4185.128,4229.359,4200.385,4195.385,4187.9490000000005,4179.615,4181.154,4186.795,4191.923,0,0
531,23,0,0,4164.359,4135.255999999999,4164.231,4175.769,4145.897,4171.667,4232.179,4188.205,4185.641,4174.487,4166.795,4166.026,4174.231,4179.487,0,0
532,24,0,0,4164.615,4118.462,4155.769,4165.641,4152.436,4166.154,4230.769,4170.769,4176.923,4166.154,4167.0509999999995,4159.487,4167.9490000000005,4169.744000000001,0,0
533,25,0,0,4172.9490000000005,4122.179,4160.513,4170.255999999999,4164.872,4173.846,4226.923,4177.0509999999995,4179.231,4179.872,4171.538,4167.308,4174.487,4179.103,0,0
534,26,0,0,4168.846,4126.538,4159.231,4173.462,4157.692,4174.744000000001,4228.974,4180.385,4173.333,4182.308,4170.385,4164.231,4175.513,4182.179,0,0
535,27,0,0,4154.231,4111.667,4154.872,4169.359,4151.026,4167.9490000000005,4239.359,4169.359,4167.821,4167.9490000000005,4168.718,4156.538,4167.9490000000005,4172.308,0,0
536,28,0,0,4155.255999999999,4105.255999999999,4165.513,4169.872,4155.769,4170.385,4256.026,4176.282,4179.231,4173.974,4170.769,4165.385,4170.385,4176.282,0,0
537,29,0,0,4175.255999999999,4109.487,4173.077,4172.179,4142.308,4174.872,4262.179,4190.385,4185.769,4184.359,4173.974,4175.0,4174.615,4187.179,0,0
538,30,0,0,4184.744000000001,4105.255999999999,4168.077,4173.333,4137.179,4167.821,4259.744000000001,4183.846,4181.795,4173.974,4174.103,4170.128,4168.718,4181.282,0,0
539,31,0,0,4181.538,4109.615,4176.795,4185.255999999999,4167.0509999999995,4173.333,4271.41,4181.667,4187.436,4173.333,4177.692,4171.41,4173.205,4180.897,0,0
540,32,0,0,4179.615,4110.769,4183.333,4190.897,4182.308,4184.872,4273.718,4187.308,4192.179,4182.9490000000005,4178.718,4173.333,4182.436,4185.385,0,0
541,33,0,0,4166.026,4088.59,4161.538,4169.103,4160.385,4171.41,4248.974,4167.0509999999995,4167.564,4161.667,4162.308,4154.231,4161.282,4164.744000000001,0,0
542,34,0,0,4165.385,4089.2309999999998,4161.41,4165.385,4148.846,4169.872,4246.026,4164.744000000001,4157.692,4155.897,4164.487,4155.255999999999,4153.333,4164.359,0,0
543,35,0,0,4193.462,4123.846,4197.9490000000005,4196.795,4165.641,4202.0509999999995,4272.9490000000005,4207.692,4193.205,4196.795,4201.795,4188.205,4192.564,4203.59,0,0
544,36,0,0,4199.487,4124.487,4204.231,4198.718,4178.077,4209.744000000001,4271.026,4220.385,4210.513,4205.897,4208.846,4194.359,4204.872,4208.205,0,0
545,37,0,0,4172.0509999999995,4088.718,4172.179,4168.718,4162.308,4185.128,4242.308,4180.385,4178.718,4170.513,4173.205,4165.641,4172.0509999999995,4170.513,0,0
546,38,0,0,4159.359,4086.282,4166.41,4167.0509999999995,4149.103,4178.974,4243.333,4163.974,4164.231,4163.462,4165.255999999999,4158.077,4164.359,4161.795,0,0
547,39,0,0,4177.692,4109.231,4190.0,4190.0,4167.821,4191.795,4273.846,4187.692,4194.103,4191.154,4196.923,4177.692,4187.821,4186.667,0,0
548,40,0,0,4188.59,4104.615,4190.513,4191.923,4174.231,4191.538,4285.897,4190.769,4198.333,4193.718,4203.718,4181.282,4192.0509999999995,4188.333,0,0
549,41,0,0,4175.897,4085.256,4171.026,4174.231,4147.0509999999995,4176.667,4268.974,4166.923,4169.487,4170.769,4182.308,4168.462,4174.615,4169.744000000001,0,0
550,42,0,0,4168.846,4084.3590000000004,4170.769,4165.385,4130.0,4173.59,4248.462,4162.179,4169.359,4167.692,4183.077,4166.154,4170.255999999999,4170.0,0,0
551,43,0,0,4179.615,4092.308,4183.462,4175.641,4151.538,4183.846,4243.59,4180.128,4187.692,4183.205,4201.923,4173.333,4182.179,4182.692,0,0
552,44,0,0,4188.077,4092.4359999999997,4187.821,4189.103,4182.9490000000005,4188.333,4258.205,4190.641,4193.333,4195.385,4206.026,4178.718,4194.487,4185.255999999999,0,0
553,45,0,0,4185.897,4091.026,4185.385,4187.821,4186.667,4190.255999999999,4262.9490000000005,4187.692,4191.41,4200.385,4202.692,4182.9490000000005,4194.487,4185.128,0,0
554,46,0,0,4185.769,4094.103,4185.0,4185.641,4174.487,4195.769,4247.9490000000005,4186.154,4189.487,4201.282,4209.744000000001,4186.538,4188.59,4191.41,0,0
555,47,0,0,4182.692,4090.385,4186.026,4189.487,4168.462,4191.282,4246.538,4192.436,4192.436,4200.385,4216.538,4187.179,4188.718,4195.513,0,0
556,48,0,0,4181.282,4081.1540000000005,4188.077,4188.077,4158.077,4183.718,4270.128,4200.641,4198.59,4204.487,4218.59,4191.538,4192.9490000000005,4199.103,0,0
557,49,0,0,4186.41,4079.103,4190.385,4183.718,4149.359,4189.231,4287.9490000000005,4199.231,4198.59,4204.359,4215.255999999999,4193.205,4191.026,4202.564,0,0
558,50,0,0,4174.487,4069.103,4178.974,4174.231,4158.205,4186.154,4282.821,4178.077,4186.41,4178.974,4194.103,4175.255999999999,4166.923,4183.846,0,0
559,51,0,0,4146.923,4041.795,4154.744000000001,4154.231,4156.41,4168.462,4266.923,4149.615,4161.538,4143.077,4166.282,4149.103,4138.59,4147.0509999999995,0,0
560,52,0,0,4141.154,4028.59,4146.923,4145.128,4138.59,4160.385,4257.308,4145.513,4149.359,4138.077,4163.462,4144.615,4143.718,4136.923,0,0
561,53,0,0,4168.077,4045.897,4168.333,4166.923,4143.974,4172.308,4265.0,4171.538,4176.667,4174.359,4190.769,4166.538,4179.744000000001,4166.026,0,0
562,54,0,0,4192.436,4069.487,4191.667,4189.872,4161.923,4187.9490000000005,4279.872,4198.077,4208.077,4207.0509999999995,4215.641,4189.103,4210.897,4191.795,0,0
563,55,0,0,4191.923,4076.282,4195.897,4188.846,4158.59,4189.872,4288.077,4204.615,4207.564,4210.769,4220.385,4191.923,4215.255999999999,4196.026,0,0
564,56,0,0,4187.0509999999995,4070.385,4192.692,4188.59,4150.769,4186.41,4288.59,4196.795,4198.974,4206.923,4216.026,4189.744000000001,4207.9490000000005,4198.974,0,0
565,57,0,0,4186.795,4061.795,4190.385,4185.769,4157.9490000000005,4184.359,4278.333,4187.179,4196.795,4197.436,4209.872,4188.333,4197.821,4197.821,0,0
566,58,0,0,4179.231,4056.1540000000005,4185.897,4171.923,4161.795,4185.128,4270.255999999999,4184.615,4188.205,4184.872,4201.538,4177.179,4183.077,4188.333,0,0
567,59,0,0,4173.205,4049.615,4185.128,4175.769,4150.513,4182.436,4278.333,4184.487,4177.564,4183.59,4200.513,4173.077,4172.564,4180.641,0,0
568,60,0,0,4172.9490000000005,4040.1279999999997,4191.026,4184.872,4143.974,4172.436,4282.564,4173.462,4170.513,4177.436,4200.641,4183.846,4168.333,4173.205,0,0
569,61,0,0,4168.974,4036.795,4185.255999999999,4172.436,4150.255999999999,4170.255999999999,4272.308,4166.667,4172.692,4167.821,4195.897,4184.103,4169.872,4171.026,0,0
570,62,0,0,4167.436,4048.205,4170.255999999999,4163.077,4162.179,4181.41,4276.923,4179.872,4186.795,4181.667,4203.59,4171.667,4181.282,4184.872,0,0
571,63,0,0,4179.615,4063.205,4174.359,4180.0,4174.487,4190.0,4298.974,4191.923,4200.128,4201.282,4220.385,4174.615,4197.436,4198.077,0,0
572,64,0,3248,4188.974,4060.7690000000002,4189.872,4197.308,4175.513,4189.231,4302.821,4190.385,4199.615,4199.487,4219.744000000001,4186.282,4196.282,4191.667,0,0
573,65,0,3126,4177.0509999999995,4044.2309999999998,4184.359,4186.41,4159.615,4182.0509999999995,4282.9490000000005,4180.128,4190.769,4186.026,4200.513,4179.487,4178.59,4174.359,0,0
574,66,0,3440,4166.282,4041.41,4172.308,4168.333,4148.718,4174.487,4273.718,4171.538,4184.872,4183.077,4195.513,4170.255999999999,4177.564,4170.255999999999,0,0
575,67,0,3504,4168.974,4049.2309999999998,4166.538,4168.462,4151.026,4176.154,4276.154,4171.41,4176.538,4185.385,4201.667,4164.872,4183.205,4175.769,0,0
576,68,0,3566,4167.692,4044.3590000000004,4159.615,4170.513,4149.872,4180.128,4266.795,4169.231,4167.179,4174.103,4191.154,4154.615,4171.795,4169.615,0,0
577,69,0,3241,4166.667,4039.2309999999998,4164.872,4169.359,4156.795,4180.769,4265.128,4165.641,4171.923,4165.255999999999,4184.359,4153.462,4164.872,4168.077,0,0
578,70,0,3154,4176.923,4048.718,4177.692,4178.462,4170.255999999999,4185.641,4278.974,4171.667,4177.9490000000005,4178.718,4197.308,4167.0509999999995,4174.103,4183.718,0,0
579,71,0,3493,4184.615,4051.795,4176.154,4179.487,4162.821,4188.205,4277.0509999999995,4176.154,4176.538,4186.923,4203.462,4170.769,4174.487,4188.462,0,0
580,72,0,3079,4183.205,4043.8459999999995,4170.255999999999,4167.692,4148.077,4179.103,4263.974,4165.385,4170.769,4171.667,4196.538,4166.026,4164.744000000001,4179.359,0,0
581,73,0,3593,4183.205,4044.103,4171.923,4168.718,4154.872,4173.077,4260.255999999999,4162.0509999999995,4170.641,4166.154,4199.872,4169.615,4165.769,4180.769,0,0
582,74,0,3510,4184.359,4046.538,4173.974,4174.487,4158.077,4174.744000000001,4251.538,4171.538,4177.9490000000005,4179.744000000001,4198.59,4172.179,4173.205,4187.308,0,0
583,75,0,3470,4183.718,4040.6409999999996,4172.692,4169.615,4131.026,4172.308,4242.9490000000005,4169.359,4176.667,4177.821,4188.205,4169.231,4168.718,4180.641,0,0
584,76,0,3068,4182.821,4035.513,4169.359,4164.103,4121.154,4167.436,4253.205,4161.026,4166.538,4164.872,4189.231,4168.205,4155.513,4173.205,0,0
585,77,0,3101,4188.077,4036.026,4169.487,4168.59,4149.359,4170.385,4264.615,4164.487,4166.795,4167.821,4192.179,4170.769,4152.821,4178.846,0,0
586,78,0,3510,4197.9490000000005,4039.744,4175.897,4174.359,4158.974,4176.667,4261.795,4170.769,4174.872,4175.255999999999,4187.692,4174.487,4158.846,4184.359,0,0
587,79,0,3470,4189.359,4040.513,4177.821,4169.359,4138.846,4176.154,4257.9490000000005,4172.564,4174.744000000001,4172.0509999999995,4187.436,4171.154,4160.385,4177.564,0,0
588,80,0,3068,4167.564,4032.051,4164.103,4163.59,4133.205,4170.0,4243.974,4166.923,4167.821,4160.897,4184.872,4158.333,4152.0509999999995,4161.667,0,0
589,81,0,3101,4170.385,4029.103,4154.231,4164.744000000001,4135.769,4168.59,4230.255999999999,4157.9490000000005,4164.103,4155.0,4174.359,4152.0509999999995,4145.255999999999,4158.333,0,0
590,82,0,3510,4189.872,4041.923,4163.974,4168.077,4133.974,4175.897,4242.821,4157.692,4163.846,4160.897,4174.487,4159.615,4153.846,4170.128,0,0
591,83,0,3470,4186.667,4041.795,4162.692,4167.179,4135.385,4173.974,4253.077,4155.513,4157.308,4159.231,4173.846,4152.564,4153.718,4166.154,0,0
592,84,0,3068,4177.436,4035.0,4151.41,4168.718,4139.231,4166.923,4245.641,4152.9490000000005,4154.487,4150.385,4165.897,4140.769,4146.154,4153.462,0,0
593,85,0,3101,4188.846,4047.308,4162.564,4176.282,4146.41,4178.718,4251.795,4164.231,4167.436,4161.923,4174.872,4152.0509999999995,4160.385,4163.462,0,0
594,86,0,3510,4194.615,4050.1279999999997,4175.641,4177.436,4151.41,4187.564,4267.308,4171.667,4171.41,4175.641,4188.974,4163.205,4176.667,4176.923,0,0
595,87,0,3470,4185.385,4038.462,4168.846,4170.385,4148.205,4176.154,4266.795,4166.923,4169.872,4170.513,4187.564,4159.615,4174.744000000001,4171.667,0,0
596,88,0,3068,4184.615,4039.8720000000003,4165.385,4168.718,4141.154,4167.308,4264.487,4164.615,4174.744000000001,4168.462,4183.205,4158.59,4171.41,4167.564,0,0
597,89,0,3101,4184.872,4043.59,4170.513,4168.974,4135.513,4168.333,4262.9490000000005,4158.462,4163.462,4167.436,4180.513,4155.769,4165.769,4167.564,0,0
598,90,0,3510,4175.128,4036.923,4166.41,4164.359,4138.462,4166.923,4256.923,4151.667,4150.641,4160.769,4174.744000000001,4150.769,4159.103,4165.0,0,0
599,91,0,3470,4182.0509999999995,4047.179,4167.308,4173.333,4153.718,4170.641,4263.077,4164.359,4164.103,4167.564,4180.128,4162.308,4170.769,4169.231,0,0
600,92,0,3068,4196.41,4062.692,4176.667,4183.846,4153.462,4175.513,4262.308,4174.615,4179.103,4174.744000000001,4185.385,4171.026,4177.179,4171.282,0,0
601,93,0,3101,4192.564,4058.59,4181.795,4178.59,4139.487,4173.974,4248.333,4168.077,4177.692,4169.872,4181.41,4167.821,4171.667,4172.564,0,0
602,94,0,3510,4192.821,4060.7690000000002,4185.513,4180.897,4150.128,4178.974,4244.231,4171.538,4181.538,4178.333,4190.255999999999,4174.359,4180.128,4183.077,0,0
603,95,0,3470,4204.359,4072.5640000000003,4190.897,4190.641,4166.795,4187.564,4240.769,4182.308,4193.205,4195.0,4205.255999999999,4179.615,4190.128,4188.718,0,0
604,96,0,3068,4199.103,4069.744,4188.974,4182.0509999999995,4157.0509999999995,4182.564,4231.923,4177.9490000000005,4191.41,4189.487,4198.59,4173.333,4185.641,4178.59,0,0
605,97,0,3101,4185.128,4060.513,4176.41,4168.462,4143.59,4172.0509999999995,4236.41,4169.872,4182.821,4178.077,4183.205,4163.974,4181.923,4168.718,0,0
606,98,0,3510,4189.359,4065.513,4173.205,4173.077,4161.923,4172.821,4244.872,4171.923,4183.077,4186.923,4185.513,4161.923,4188.974,4172.0509999999995,0,0
607,99,0,3470,4185.128,4063.462,4171.026,4171.41,4157.179,4163.718,4228.333,4159.872,4172.821,4183.59,4180.128,4154.231,4180.255999999999,4165.641,0,0
608,100,0,3068,4169.231,4052.308,4162.179,4162.0509999999995,4115.897,4148.718,4218.333,4148.333,4159.359,4164.615,4167.821,4145.255999999999,4168.333,4154.487,0,0
609,101,0,3101,4181.41,4068.333,4173.462,4176.026,4132.692,4165.641,4244.872,4173.846,4176.282,4178.718,4185.641,4157.436,4188.718,4170.255999999999,0,0
610,102,0,3510,4202.0509999999995,4089.744,4188.205,4193.205,4184.872,4185.128,4265.769,4197.564,4196.154,4201.923,4205.513,4174.103,4206.026,4191.923,0,0
611,103,0,3470,4194.615,4082.308,4176.538,4182.436,4164.872,4173.205,4260.0,4183.205,4188.59,4191.282,4191.667,4168.077,4190.897,4186.41,0,0
612,104,0,3068,4180.641,4067.821,4163.205,4168.974,4128.205,4164.615,4255.255999999999,4166.282,4179.359,4178.59,4176.795,4153.077,4173.974,4176.923,0,0
613,105,0,3101,4184.103,4070.513,4172.436,4173.462,4151.538,4171.538,4254.231,4167.821,4176.026,4180.769,4184.744000000001,4155.385,4175.897,4182.692,0,0
614,106,0,3510,4188.846,4078.333,4180.641,4174.359,4160.769,4171.154,4248.333,4173.333,4171.41,4176.41,4190.897,4167.692,4180.0,4188.59,0,0
615,107,0,3470,4184.744000000001,4076.41,4170.513,4169.103,4134.744000000001,4164.744000000001,4240.128,4166.282,4166.026,4166.154,4184.231,4168.205,4173.462,4181.026,0,0
616,108,0,3068,4186.026,4077.692,4170.641,4175.385,4140.128,4165.385,4241.923,4157.9490000000005,4166.923,4170.769,4181.667,4164.744000000001,4168.846,4176.154,0,0
617,109,0,3101,4199.744000000001,4087.821,4190.385,4186.795,4168.462,4175.128,4254.487,4170.897,4182.9490000000005,4192.179,4193.462,4175.128,4179.744000000001,4192.308,0,0
618,110,0,3510,4206.795,4097.564,4201.667,4191.154,4178.718,4180.641,4265.385,4190.0,4192.692,4204.744000000001,4205.255999999999,4189.487,4193.333,4206.41,0,0
619,111,0,3470,4194.744000000001,4094.487,4188.974,4183.205,4160.128,4174.872,4271.795,4186.026,4183.077,4194.487,4204.359,4183.462,4190.769,4195.769,0,0
620,112,0,3068,4179.744000000001,4081.026,4174.487,4171.923,4135.769,4168.462,4278.205,4171.154,4181.154,4179.103,4193.974,4170.513,4178.974,4178.59,0,0
621,113,0,3101,4179.231,4076.026,4174.359,4174.103,4145.897,4168.333,4283.846,4166.538,4183.718,4172.436,4182.308,4172.308,4168.333,4174.103,0,0
622,114,0,3510,4193.205,4087.179,4183.974,4185.513,4171.41,4177.0509999999995,4292.436,4177.436,4181.282,4176.154,4187.564,4183.205,4174.744000000001,4183.846,0,0
623,115,0,3470,4205.769,4099.359,4195.513,4191.795,4168.333,4186.795,4295.255999999999,4187.564,4189.231,4185.641,4202.436,4191.667,4187.179,4193.718,0,0
624,116,0,3068,4195.128,4088.205,4188.718,4183.846,4143.718,4177.0509999999995,4272.9490000000005,4177.308,4184.615,4177.564,4192.564,4182.564,4169.744000000001,4180.769,0,0
625,117,0,3101,4182.9490000000005,4075.1279999999997,4175.255999999999,4177.564,4137.436,4164.231,4254.615,4162.308,4165.513,4163.462,4176.026,4172.308,4151.923,4168.718,0,0
626,118,0,3510,4191.795,4086.1540000000005,4182.0509999999995,4184.103,4153.846,4173.59,4261.923,4167.308,4165.897,4173.974,4187.564,4180.255999999999,4165.128,4183.077,0,0
627,119,0,3470,4203.59,4096.795,4194.872,4188.205,4169.231,4184.872,4266.795,4182.9490000000005,4184.103,4190.385,4202.0509999999995,4190.0,4182.308,4197.9490000000005,0,0
628,120,0,3068,4205.513,4092.308,4194.359,4187.692,4175.769,4185.897,4262.564,4186.026,4194.359,4189.487,4202.9490000000005,4190.128,4183.846,4199.744000000001,0,0
629,121,0,3101,4197.692,4089.487,4190.769,4191.667,4174.487,4184.744000000001,4257.9490000000005,4173.846,4185.385,4176.282,4198.205,4187.821,4175.641,4195.897,0,0
630,122,0,3510,4192.179,4093.59,4190.641,4194.231,4165.0,4178.077,4256.667,4163.462,4169.744000000001,4165.513,4189.103,4186.41,4170.0,4188.333,0,0
631,123,0,3470,4198.205,4091.41,4186.538,4185.641,4140.0,4170.0,4262.821,4165.897,4167.308,4167.436,4183.718,4183.333,4171.538,4188.718,0,0
632,124,0,3068,4206.41,4089.3590000000004,4189.872,4182.179,4132.564,4169.615,4268.205,4168.974,4174.231,4172.692,4189.103,4185.897,4169.103,4197.821,0,0
633,125,0,3101,4208.462,4096.41,4203.333,4192.692,4163.462,4175.385,4263.846,4169.103,4175.513,4173.718,4195.255999999999,4193.59,4167.0509999999995,4204.231,0,0
634,126,0,3510,4208.077,4100.255999999999,4204.231,4196.41,4174.103,4175.897,4257.821,4170.385,4175.0,4171.41,4192.436,4192.436,4173.59,4201.41,0,0
635,127,0,52,4200.0,4094.103,4190.128,4187.308,4151.538,4170.255999999999,4261.154,4162.179,4167.692,4160.385,4184.103,4182.308,4165.385,4190.513,0,0
636,0,0,3260,4186.282,4085.7690000000002,4182.564,4179.359,4135.0,4167.821,4262.436,4153.205,4157.179,4150.769,4180.769,4178.462,4152.0509999999995,4181.026,0,0
637,1,0,3136,4188.974,4092.308,4189.487,4187.0509999999995,4136.41,4173.333,4255.513,4165.0,4167.821,4164.615,4189.615,4187.9490000000005,4164.231,4186.282,0,0
638,2,0,3456,4187.436,4094.615,4186.795,4186.667,4143.846,4173.333,4246.795,4171.795,4173.846,4170.128,4191.795,4182.436,4167.692,4186.667,0,0
639,3,0,3521,4170.897,4076.1540000000005,4168.077,4170.897,4153.718,4165.513,4251.026,4157.0509999999995,4161.538,4154.103,4177.436,4161.026,4149.487,4168.462,0,0
640,4,0,3581,4173.974,4075.1279999999997,4168.205,4175.897,4154.615,4170.385,4273.205,4157.308,4171.282,4159.615,4175.513,4161.795,4156.154,4166.538,0,0
641,5,0,3251,4190.255999999999,4097.692,4182.0509999999995,4191.154,4150.128,4180.255999999999,4285.128,4173.205,4186.923,4176.667,4188.846,4175.513,4177.179,4181.538,0,0
642,6,0,3161,4187.179,4100.0,4176.538,4184.615,4152.564,4174.231,4267.821,4171.923,4175.385,4170.0,4187.821,4174.231,4170.513,4181.923,0,0
643,7,0,3507,4175.769,4086.667,4171.154,4175.513,4155.769,4167.0509999999995,4242.692,4162.179,4166.154,4166.41,4178.077,4170.255999999999,4162.0509999999995,4176.538,0,0
644,8,0,3083,4187.692,4099.359,4191.154,4192.564,4156.538,4179.744000000001,4248.718,4170.0,4183.333,4184.103,4192.308,4183.718,4177.821,4192.0509999999995,0,0
645,9,0,3604,4207.308,4121.538,4206.026,4206.41,4157.308,4192.564,4278.462,4183.718,4200.641,4194.103,4212.692,4192.692,4192.564,4209.487,0,0
646,10,0,3522,4199.487,4111.923,4191.026,4190.641,4160.0,4182.564,4277.692,4176.154,4185.255999999999,4178.974,4199.487,4181.41,4183.846,4196.538,0,0
647,11,0,3484,4182.9490000000005,4093.59,4177.436,4176.923,4164.103,4169.487,4250.255999999999,4156.538,4158.718,4163.846,4182.179,4175.385,4166.282,4179.487,0,0
648,12,0,3084,4192.821,4101.026,4190.769,4188.205,4158.333,4171.538,4248.205,4155.385,4160.641,4174.359,4191.667,4184.744000000001,4165.385,4191.41,0,0
649,13,0,3114,4204.359,4111.795,4201.795,4195.641,4147.436,4175.769,4260.641,4170.641,4175.641,4185.897,4196.41,4189.744000000001,4174.744000000001,4207.9490000000005,0,0
650,14,0,3522,4191.667,4106.026,4190.641,4183.333,4157.0509999999995,4170.128,4252.9490000000005,4169.872,4169.487,4173.462,4188.205,4183.718,4176.667,4199.615,0,0
651,15,0,3484,4187.436,4110.0,4188.846,4184.487,4159.231,4167.179,4244.359,4163.846,4172.308,4173.205,4193.205,4186.026,4178.718,4196.154,0,0
652,16,0,0,4204.231,4127.179,4207.564,4204.615,4136.923,4175.255999999999,4250.0,4175.769,4195.128,4195.641,4205.513,4200.385,4185.0,4213.077,0,0
653,17,0,0,4215.897,4135.255999999999,4219.615,4210.769,4146.41,4186.538,4256.154,4185.513,4188.205,4200.513,4209.103,4210.128,4186.282,4221.538,0,0
654,18,0,0,4217.308,4135.897,4216.282,4204.103,4185.513,4188.205,4261.154,4176.282,4168.205,4187.0509999999995,4205.128,4207.436,4178.59,4216.026,0,0
655,19,0,0,4205.513,4128.718,4205.0,4202.436,4190.0,4175.641,4255.769,4157.436,4166.538,4171.41,4190.255999999999,4190.769,4161.667,4201.41,0,0
656,20,0,0,4181.923,4108.462,4186.538,4195.769,4162.821,4166.538,4237.9490000000005,4140.0,4155.641,4145.255999999999,4168.974,4169.872,4135.0,4176.282,0,0
657,21,0,0,4165.385,4093.205,4169.744000000001,4177.179,4147.9490000000005,4164.872,4226.923,4125.769,4130.513,4122.0509999999995,4153.333,4153.718,4116.282,4154.103,0,0
658,22,0,0,4163.59,4098.462,4167.692,4170.513,4143.59,4164.231,4230.385,4128.333,4133.462,4130.128,4152.0509999999995,4151.41,4128.077,4152.821,0,0
659,23,0,0,4178.462,4119.103,4185.128,4190.0,4154.487,4176.41,4249.359,4158.59,4170.0,4167.692,4174.744000000001,4176.026,4167.821,4178.462,0,0
660,24,0,0,4200.769,4137.179,4205.769,4207.179,4181.282,4192.821,4264.744000000001,4187.0509999999995,4196.538,4193.205,4194.744000000001,4200.769,4196.667,4201.923,0,0
661,25,0,0,4199.872,4130.513,4199.744000000001,4198.59,4180.769,4189.103,4256.154,4176.923,4185.385,4180.769,4187.179,4193.333,4185.128,4193.205,0,0
662,26,0,0,4181.538,4115.513,4184.487,4190.0,4165.513,4179.744000000001,4242.436,4152.436,4161.667,4161.923,4178.59,4179.744000000001,4165.641,4178.846,0,0
663,27,0,0,4187.436,4127.308,4192.0509999999995,4202.564,4172.436,4185.641,4243.205,4160.769,4167.564,4171.154,4188.718,4187.692,4172.0509999999995,4192.821,0,0
664,28,0,0,4199.103,4140.513,4196.667,4205.0,4171.667,4184.231,4246.667,4171.026,4176.026,4178.974,4188.462,4187.308,4173.462,4196.154,0,0
665,29,0,0,4182.821,4127.0509999999995,4178.462,4187.436,4148.462,4169.231,4247.0509999999995,4147.9490000000005,4157.692,4158.846,4171.026,4168.462,4155.128,4172.564,0,0
666,30,0,0,4174.487,4124.359,4174.103,4184.872,4142.821,4166.667,4257.0509999999995,4139.872,4158.974,4151.282,4169.359,4167.179,4156.795,4171.667,0,0
667,31,0,0,4181.282,4134.359,4185.513,4189.615,4154.359,4171.923,4262.564,4155.897,4172.0509999999995,4166.538,4175.128,4174.103,4173.462,4186.282,0,0
668,32,0,0,4184.487,4132.9490000000005,4183.59,4188.077,4162.821,4173.718,4261.282,4157.564,4159.359,4170.385,4172.821,4171.154,4172.179,4182.692,0,0
669,33,0,0,4191.154,4132.564,4181.154,4191.282,4175.769,4181.538,4276.923,4158.718,4156.154,4165.897,4179.231,4176.154,4169.744000000001,4180.385,0,0
670,34,0,0,4192.179,4129.615,4187.821,4191.795,4175.769,4183.718,4284.872,4165.255999999999,4171.41,4167.9490000000005,4183.462,4182.179,4173.462,4187.564,0,0
671,35,0,0,4182.9490000000005,4121.026,4187.692,4185.641,4159.231,4176.538,4268.974,4163.462,4172.9490000000005,4170.0,4172.692,4174.744000000001,4168.846,4186.154,0,0
672,36,0,0,4184.231,4127.9490000000005,4184.615,4186.154,4164.615,4180.128,4267.0509999999995,4163.718,4168.205,4170.255999999999,4168.974,4168.462,4167.821,4183.462,0,0
673,37,0,0,4187.308,4137.436,4183.59,4189.103,4169.615,4186.667,4280.897,4166.154,4165.641,4168.205,4172.692,4171.795,4172.821,4182.436,0,0
674,38,0,0,4182.436,4132.692,4184.231,4190.385,4155.641,4183.59,4288.333,4166.282,4162.9490000000005,4164.615,4176.282,4177.821,4172.308,4180.641,0,0
675,39,0,0,4189.231,4138.205,4190.385,4196.667,4173.205,4186.282,4291.41,4170.769,4175.385,4172.179,4184.231,4185.641,4174.744000000001,4188.462,0,0
676,40,0,0,4186.795,4141.282,4182.692,4188.846,4188.974,4186.282,4276.282,4163.718,4174.103,4167.9490000000005,4179.872,4181.026,4171.026,4186.154,0,0
677,41,0,0,4163.077,4125.128,4161.282,4168.846,4160.769,4170.897,4251.154,4147.179,4151.154,4145.255999999999,4164.103,4161.667,4155.255999999999,4168.333,0,0
678,42,0,0,4156.026,4117.9490000000005,4159.615,4164.744000000001,4147.436,4166.923,4248.718,4149.872,4151.795,4147.0509999999995,4165.128,4158.846,4151.538,4164.615,0,0
679,43,0,0,4167.179,4125.641,4171.154,4171.154,4153.077,4174.359,4260.385,4157.821,4162.9490000000005,4170.128,4174.231,4170.128,4160.897,4171.667,0,0
680,44,0,0,4169.359,4125.769,4169.615,4168.205,4141.923,4167.179,4268.974,4156.538,4156.795,4169.872,4171.667,4171.538,4159.872,4167.9490000000005,0,0
681,45,0,0,4163.59,4116.923,4160.769,4158.718,4146.923,4156.41,4269.744000000001,4149.487,4155.255999999999,4152.821,4161.795,4166.154,4148.462,4161.41,0,0
682,46,0,0,4173.205,4125.255999999999,4165.769,4167.308,4167.564,4164.744000000001,4265.255999999999,4149.744000000001,4165.255999999999,4156.923,4165.897,4168.077,4152.436,4170.897,0,0
683,47,0,0,4189.872,4145.0,4177.308,4183.59,4175.385,4178.718,4275.385,4165.0,4170.0,4173.205,4182.821,4173.974,4171.667,4183.462,0,0
684,48,0,0,4189.231,4142.821,4176.41,4178.077,4165.641,4176.282,4281.282,4170.0,4169.359,4170.769,4182.0509999999995,4171.282,4172.0509999999995,4178.333,0,0
685,49,0,0,4180.897,4123.59,4162.821,4164.487,4140.513,4166.282,4264.744000000001,4154.231,4166.026,4152.9490000000005,4165.513,4163.333,4155.769,4164.359,0,0
686,50,0,0,4184.359,4119.744000000001,4159.744000000001,4166.154,4138.077,4169.231,4261.795,4150.513,4166.795,4151.282,4166.026,4166.41,4160.128,4167.179,0,0
687,51,0,0,4189.487,4130.385,4169.359,4169.744000000001,4170.641,4175.385,4273.333,4165.513,4170.0,4165.513,4171.795,4175.385,4171.795,4175.0,0,0
688,52,0,0,4188.077,4135.385,4169.231,4167.436,4183.333,4171.667,4267.436,4167.564,4167.692,4167.692,4167.179,4173.974,4166.154,4170.255999999999,0,0
689,53,0,0,4196.538,4139.231,4173.205,4176.538,4165.769,4172.9490000000005,4260.255999999999,4162.821,4170.255999999999,4164.872,4172.179,4177.564,4168.462,4173.077,0,0
690,54,0,0,4212.308,4147.564,4192.308,4190.0,4163.333,4184.615,4264.359,4175.128,4179.103,4174.744000000001,4185.641,4195.769,4186.154,4191.41,0,0
691,55,0,0,4218.077,4154.615,4203.077,4195.128,4175.897,4189.872,4273.59,4188.846,4190.513,4187.692,4191.026,4205.0,4192.9490000000005,4200.128,0,0
692,56,0,0,4218.333,4158.59,4201.667,4200.385,4169.615,4186.923,4287.9490000000005,4187.436,4200.513,4190.641,4191.282,4201.282,4188.59,4198.59,0,0
693,57,0,0,4218.718,4152.9490000000005,4197.0509999999995,4199.231,4154.487,4185.0,4289.359,4181.795,4193.59,4180.255999999999,4189.744000000001,4200.897,4185.128,4199.103,0,0
694,58,0,0,4215.513,4145.385,4191.282,4185.769,4167.179,4184.744000000001,4269.744000000001,4184.103,4177.821,4172.692,4186.154,4201.154,4184.231,4198.077,0,0
695,59,0,0,4209.744000000001,4147.0509999999995,4190.255999999999,4180.385,4193.462,4183.333,4250.128,4183.718,4178.974,4180.255999999999,4186.795,4200.0,4183.462,4194.103,0,0
696,60,0,0,4210.769,4153.333,4198.846,4190.385,4188.077,4183.846,4249.744000000001,4181.667,4192.308,4188.462,4193.59,4207.692,4186.795,4196.667,0,0
697,61,0,0,4225.513,4159.615,4212.692,4200.769,4176.41,4193.846,4265.128,4193.59,4201.795,4195.385,4205.0,4220.385,4198.462,4210.641,0,0
698,62,0,0,4234.615,4167.308,4222.0509999999995,4208.462,4191.154,4203.205,4271.538,4207.564,4207.692,4210.385,4214.359,4221.923,4208.718,4223.205,0,0
699,63,0,0,4226.154,4171.154,4218.333,4210.128,4186.282,4195.769,4255.769,4203.59,4202.564,4211.41,4211.923,4210.385,4202.692,4219.872,0,0
700,64,0,3253,4212.308,4164.231,4199.872,4196.667,4150.641,4182.9490000000005,4235.255999999999,4184.487,4185.0,4189.231,4196.538,4197.179,4187.564,4206.923,0,0
701,65,0,3122,4205.385,4154.103,4188.718,4187.436,4150.769,4179.872,4231.41,4168.205,4169.231,4177.0509999999995,4184.615,4186.923,4179.231,4196.282,0,0
702,66,0,3443,4205.641,4152.564,4192.9490000000005,4195.255999999999,4192.564,4186.41,4240.128,4172.9490000000005,4177.308,4186.538,4190.255999999999,4185.255999999999,4184.487,4196.538,0,0
703,67,0,3507,4204.872,4157.436,4191.795,4194.744000000001,4202.821,4185.641,4248.846,4182.0509999999995,4188.846,4185.769,4194.744000000001,4188.59,4191.026,4195.255999999999,0,0
704,68,0,3576,4201.154,4156.795,4182.179,4180.128,4173.462,4175.128,4247.564,4173.846,4176.026,4170.641,4183.077,4181.41,4185.513,4186.795,0,0
705,69,0,3250,4196.282,4151.667,4178.077,4183.333,4162.821,4173.077,4236.282,4165.385,4169.615,4172.436,4177.436,4171.154,4180.641,4183.333,0,0
706,70,0,3162,4191.154,4152.436,4177.692,4194.744000000001,4175.897,4181.667,4229.231,4172.179,4180.385,4186.923,4183.077,4170.0,4186.026,4183.59,0,0
707,71,0,3501,4188.462,4152.692,4170.0,4188.59,4168.846,4183.462,4232.308,4173.077,4182.308,4180.897,4182.308,4171.154,4186.923,4174.359,0,0
708,72,0,3071,4193.846,4159.615,4172.0509999999995,4189.103,4151.41,4182.308,4237.9490000000005,4169.103,4177.564,4169.103,4183.59,4174.615,4186.282,4169.359,0,0
709,73,0,3588,4193.205,4166.41,4183.974,4201.026,4165.128,4185.513,4234.231,4175.255999999999,4176.923,4176.282,4183.205,4177.821,4189.744000000001,4179.872,0,0
710,74,0,3514,4183.077,4163.333,4186.795,4196.41,4199.744000000001,4185.128,4231.41,4182.436,4175.385,4182.308,4173.205,4178.59,4191.282,4185.385,0,0
711,75,0,3478,4193.462,4165.513,4186.282,4187.821,4203.077,4185.769,4240.769,4183.462,4184.744000000001,4183.333,4177.9490000000005,4180.897,4191.026,4185.897,0,0
712,76,0,3070,4202.0509999999995,4165.897,4183.974,4188.333,4179.487,4185.128,4247.436,4175.385,4189.744000000001,4180.769,4184.103,4176.538,4186.41,4184.487,0,0
713,77,0,3106,4188.077,4161.026,4180.641,4186.026,4176.667,4182.9490000000005,4248.718,4169.103,4174.103,4174.872,4174.872,4168.333,4181.282,4181.154,0,0
714,78,0,3514,4189.487,4162.821,4182.692,4184.615,4177.436,4186.923,4247.179,4173.974,4169.359,4178.59,4170.385,4171.795,4185.641,4183.333,0,0
715,79,0,3478,4198.846,4162.564,4185.0,4188.462,4164.487,4185.128,4242.9490000000005,4173.974,4175.513,4185.385,4172.308,4174.744000000001,4187.564,4182.436,0,0
716,80,0,3070,4190.0,4160.385,4183.205,4186.282,4172.692,4181.026,4243.59,4170.255999999999,4176.538,4185.0,4173.846,4172.308,4186.795,4179.744000000001,0,0
717,81,0,3106,4188.846,4167.308,4185.128,4185.641,4192.692,4185.128,4246.282,4174.359,4177.308,4184.103,4184.359,4175.385,4194.872,4184.615,0,0
718,82,0,3514,4193.077,4164.615,4183.077,4182.179,4181.667,4181.154,4235.255999999999,4172.308,4181.538,4180.255999999999,4182.692,4173.59,4191.667,4184.872,0,0
719,83,0,3478,4186.41,4154.231,4180.897,4175.769,4165.513,4173.205,4225.385,4164.872,4182.9490000000005,4175.641,4170.641,4174.231,4182.821,4183.205,0,0
720,84,0,3070,4190.897,4159.872,4189.487,4184.872,4176.282,4176.538,4236.538,4167.0509999999995,4175.0,4180.128,4177.9490000000005,4182.436,4189.615,4188.718,0,0
721,85,0,3106,4192.436,4158.462,4182.308,4185.897,4168.205,4173.333,4231.154,4160.0,4156.282,4173.462,4174.615,4172.179,4182.436,4177.9490000000005,0,0
722,86,0,3514,4182.308,4149.872,4169.359,4174.359,4150.769,4168.974,4214.615,4151.282,4153.205,4162.821,4159.103,4161.795,4171.282,4165.128,0,0
723,87,0,3478,4194.615,4162.0509999999995,4187.436,4188.59,4168.205,4183.077,4231.667,4165.385,4178.59,4176.923,4171.795,4179.359,4187.308,4179.231,0,0
724,88,0,3070,4211.282,4182.9490000000005,4207.436,4210.513,4192.0509999999995,4193.077,4255.897,4177.9490000000005,4187.436,4187.564,4185.897,4192.9490000000005,4197.308,4193.333,0,0
725,89,0,3106,4203.333,4185.255999999999,4194.872,4203.718,4186.282,4186.667,4243.59,4165.641,4170.513,4175.769,4173.333,4183.718,4185.128,4188.205,0,0
726,90,0,3514,4197.692,4174.872,4182.308,4196.282,4179.615,4184.872,4224.103,4156.538,4165.128,4169.231,4165.255999999999,4181.154,4183.462,4185.128,0,0
727,91,0,3478,4202.436,4169.103,4192.564,4198.077,4187.179,4185.513,4224.359,4162.9490000000005,4168.974,4169.103,4171.026,4186.538,4186.41,4185.897,0,0
728,92,0,3070,4205.0,4171.154,4198.718,4190.641,4179.872,4184.872,4223.718,4168.59,4170.513,4166.667,4172.436,4187.9490000000005,4185.385,4186.282,0,0
729,93,0,3106,4206.923,4175.255999999999,4192.0509999999995,4187.692,4175.385,4188.846,4219.744000000001,4172.308,4174.487,4172.692,4173.974,4189.487,4191.154,4191.154,0,0
730,94,0,3514,4195.641,4171.282,4182.821,4186.667,4183.718,4180.641,4213.846,4168.846,4171.282,4173.59,4170.128,4182.692,4183.59,4184.872,0,0
731,95,0,3478,4184.744000000001,4165.255999999999,4181.026,4180.255999999999,4175.641,4169.359,4212.564,4168.077,4166.923,4173.846,4167.436,4177.564,4173.462,4177.436,0,0
732,96,0,3070,4193.59,4169.744000000001,4187.0509999999995,4185.513,4164.487,4172.564,4217.564,4178.846,4172.692,4183.974,4175.641,4183.974,4185.128,4185.128,0,0
733,97,0,3106,4195.0,4168.59,4181.282,4188.718,4173.59,4173.333,4209.615,4179.103,4172.436,4178.974,4172.308,4178.077,4190.385,4184.872,0,0
734,98,0,3514,4179.872,4155.513,4168.846,4176.795,4175.385,4165.513,4203.718,4168.974,4170.769,4166.282,4163.333,4166.026,4182.692,4172.692,0,0
735,99,0,3478,4179.744000000001,4157.308,4169.359,4172.9490000000005,4164.103,4167.436,4211.154,4164.487,4170.128,4167.436,4164.231,4166.795,4182.821,4170.897,0,0
736,100,0,3070,4186.026,4172.308,4172.179,4175.255999999999,4168.59,4171.026,4213.974,4157.9490000000005,4159.231,4161.41,4160.0,4162.564,4182.9490000000005,4172.179,0,0
737,101,0,3106,4175.769,4167.308,4165.641,4169.615,4176.41,4167.821,4209.359,4146.795,4152.692,4148.333,4149.744000000001,4153.462,4175.897,4164.744000000001,0,0
738,102,0,3514,4175.255999999999,4163.718,4170.513,4175.769,4175.0,4175.769,4215.513,4157.436,4166.41,4163.59,4159.231,4169.359,4181.795,4173.718,0,0
739,103,0,3478,4193.718,4182.692,4188.077,4193.462,4178.846,4188.974,4226.154,4178.718,4183.846,4190.385,4181.538,4187.564,4199.615,4194.231,0,0
740,104,0,3070,4197.564,4186.667,4188.718,4196.282,4186.667,4188.205,4228.077,4179.615,4183.846,4188.846,4183.077,4179.231,4204.872,4194.231,0,0
741,105,0,3106,4179.744000000001,4169.487,4173.205,4179.103,4184.487,4180.255999999999,4222.564,4167.821,4174.872,4171.667,4170.0,4170.255999999999,4193.333,4179.103,0,0
742,106,0,3514,4166.41,4162.821,4165.769,4166.667,4170.769,4180.0,4214.615,4164.359,4168.846,4164.872,4164.615,4169.487,4183.077,4169.231,0,0
743,107,0,3478,4169.487,4167.179,4174.487,4176.41,4162.0509999999995,4185.128,4221.026,4174.231,4170.0,4171.923,4168.205,4168.462,4185.255999999999,4167.692,0,0
744,108,0,3070,4182.564,4169.103,4186.026,4189.615,4174.615,4187.436,4235.255999999999,4182.692,4180.255999999999,4181.538,4170.255999999999,4175.385,4192.308,4176.282,0,0
745,109,0,3106,4189.103,4170.641,4187.564,4186.795,4188.974,4186.154,4239.744000000001,4184.744000000001,4184.231,4186.667,4172.308,4181.795,4198.333,4190.385,0,0
746,110,0,3514,4173.718,4169.487,4177.308,4179.359,4177.692,4182.821,4229.487,4179.744000000001,4176.026,4180.0,4172.9490000000005,4170.769,4199.231,4183.333,0,0
747,111,0,3478,4163.205,4168.077,4169.487,4182.564,4173.974,4182.821,4218.974,4176.41,4175.128,4177.0509999999995,4168.974,4163.59,4195.641,4170.513,0,0
748,112,0,3070,4180.255999999999,4177.179,4179.231,4188.974,4195.641,4188.974,4232.0509999999995,4187.821,4192.308,4194.744000000001,4176.667,4175.255999999999,4201.667,4184.615,0,0
749,113,0,3106,4186.923,4176.154,4185.769,4188.333,4186.538,4191.154,4246.795,4191.667,4192.308,4202.179,4183.205,4178.846,4208.077,4191.282,0,0
750,114,0,3514,4168.718,4165.255999999999,4170.641,4178.462,4155.769,4182.0509999999995,4233.846,4172.0509999999995,4167.436,4181.538,4172.9490000000005,4167.179,4195.897,4168.974,0,0
751,115,0,3478,4162.9490000000005,4166.538,4163.718,4173.59,4174.231,4178.718,4218.846,4160.0,4164.744000000001,4168.59,4165.128,4161.41,4182.9490000000005,4160.0,0,0
752,116,0,3070,4163.718,4163.718,4167.564,4173.462,4193.205,4185.385,4212.0509999999995,4165.0,4172.692,4165.0,4157.179,4155.385,4174.744000000001,4163.59,0,0
753,117,0,3106,4141.795,4144.359,4150.513,4157.308,4156.923,4179.872,4198.718,4154.103,4151.154,4141.667,4137.308,4138.462,4156.795,4142.564,0,0
754,118,0,3514,4131.154,4140.385,4136.923,4151.154,4145.769,4173.718,4206.41,4145.255999999999,4137.436,4132.436,4136.795,4136.923,4155.769,4131.538,0,0
755,119,0,3478,4157.179,4163.333,4162.436,4175.128,4179.744000000001,4189.359,4235.128,4172.692,4171.282,4167.821,4168.077,4165.513,4192.821,4162.0509999999995,0,0
756,120,0,3070,4188.718,4180.513,4194.231,4194.487,4193.59,4207.564,4243.077,4208.205,4208.846,4205.0,4191.026,4194.103,4228.205,4195.0,0,0
757,121,0,3106,4186.923,4175.769,4188.205,4189.359,4186.154,4201.795,4232.0509999999995,4209.359,4197.692,4198.974,4183.205,4188.205,4219.872,4189.872,0,0
758,122,0,3514,4160.0,4162.9490000000005,4167.564,4177.821,4172.692,4183.59,4229.359,4186.667,4171.538,4172.564,4166.795,4164.744000000001,4191.795,4169.231,0,0
759,123,0,3478,4157.821,4167.179,4174.744000000001,4176.41,4165.641,4179.872,4232.308,4179.103,4175.897,4173.718,4164.359,4165.385,4188.333,4175.128,0,0
760,124,0,3070,4181.282,4186.282,4192.0509999999995,4187.692,4189.615,4193.333,4233.462,4194.744000000001,4190.0,4189.487,4175.897,4183.077,4202.436,4191.282,0,0
761,125,0,3106,4190.513,4193.205,4190.769,4196.538,4207.0509999999995,4200.641,4232.0509999999995,4202.0509999999995,4187.308,4190.128,4181.282,4188.59,4205.897,4190.513,0,0
762,126,0,3514,4181.667,4182.821,4184.231,4188.718,4181.282,4190.769,4228.333,4190.255999999999,4179.487,4182.692,4173.205,4182.564,4193.333,4187.308,0,0
763,127,0,52,4177.179,4175.255999999999,4185.513,4183.205,4168.846,4183.846,4228.077,4181.923,4182.0509999999995,4179.615,4166.282,4178.59,4185.0,4184.872,0,0
764,0,0,3253,4173.462,4172.179,4185.255999999999,4186.795,4186.667,4185.769,4225.897,4183.333,4183.077,4176.41,4167.308,4172.308,4190.769,4173.077,0,0
765,1,0,3131,4172.692,4173.846,4183.846,4188.59,4185.255999999999,4187.436,4224.359,4190.897,4181.667,4180.255999999999,4172.0509999999995,4171.795,4201.282,4173.59,0,0
766,2,0,3442,4177.179,4182.692,4185.385,4187.436,4178.718,4189.872,4230.769,4197.0509999999995,4185.385,4190.128,4172.308,4178.59,4204.103,4186.538,0,0
767,3,0,3501,4172.308,4179.103,4184.103,4180.769,4189.231,4188.718,4232.9490000000005,4192.308,4187.9490000000005,4186.41,4171.154,4173.718,4197.821,4184.103,0,0
