,COUNTER, INTERPOLATED, RAW_CQ, AF3, F7, F3, FC5, T7, P7, O1, O2, P8, T8, FC6, F4, F8, AF4, MARKER_HARDWARE, MARKER
0,35,0,0,4178.846,4181.667,4167.308,4156.282,4203.333,4169.744000000001,4269.359,4167.9490000000005,4171.41,4169.872,4166.282,4163.846,4175.769,4176.538,0,0
1,36,0,0,4179.359,4190.513,4175.255999999999,4158.974,4205.897,4175.897,4257.9490000000005,4176.026,4174.487,4177.9490000000005,4172.9490000000005,4175.255999999999,4184.872,4179.359,0,0
2,37,0,0,4164.872,4180.513,4160.641,4151.282,4190.255999999999,4165.255999999999,4250.385,4168.077,4172.436,4168.077,4166.538,4162.564,4171.538,4165.769,0,0
3,38,0,0,4168.077,4174.103,4157.564,4151.282,4178.846,4156.538,4251.41,4169.615,4184.615,4175.897,4167.692,4156.795,4167.692,4166.41,0,0
4,39,0,0,4177.564,4182.821,4168.205,4157.692,4186.026,4165.385,4242.821,4176.538,4187.692,4187.308,4178.718,4168.59,4175.0,4178.205,0,0
5,40,0,0,4172.308,4185.641,4163.718,4155.0,4193.333,4171.282,4220.0,4170.128,4168.205,4175.897,4177.308,4169.487,4169.872,4173.718,0,0
6,41,0,0,4169.744000000001,4183.205,4159.103,4152.692,4196.923,4170.0,4211.41,4172.436,4166.923,4172.564,4172.436,4164.231,4170.255999999999,4170.385,0,0
7,42,0,0,4174.872,4183.846,4170.128,4153.462,4200.769,4174.744000000001,4220.897,4188.846,4188.077,4185.128,4182.692,4169.231,4184.744000000001,4178.333,0,0
8,43,0,0,4175.385,4181.667,4171.667,4156.795,4195.769,4176.667,4215.641,4189.872,4193.718,4188.205,4190.897,4173.718,4185.897,4178.59,0,0
9,44,0,0,4170.513,4173.974,4158.077,4164.615,4181.923,4167.692,4194.359,4175.255999999999,4187.692,4183.462,4179.231,4170.0,4171.923,4170.0,0,0
10,45,0,0,4168.077,4171.154,4157.821,4173.718,4179.231,4165.641,4188.205,4169.231,4188.077,4187.308,4171.282,4168.846,4171.282,4168.205,0,0
11,46,0,0,4172.0509999999995,4173.205,4164.231,4181.154,4186.026,4169.231,4196.41,4170.255999999999,4184.103,4186.41,4179.231,4169.872,4180.897,4173.333,0,0
12,47,0,0,4172.0509999999995,4170.769,4160.897,4186.026,4184.487,4163.974,4200.385,4169.359,4174.872,4177.436,4179.615,4168.846,4175.385,4172.436,0,0
13,48,0,0,4165.0,4165.513,4151.795,4187.564,4172.0509999999995,4156.282,4196.154,4169.231,4174.359,4167.308,4166.282,4165.641,4160.897,4167.0509999999995,0,0
14,49,0,0,4152.179,4153.462,4141.282,4183.974,4157.9490000000005,4147.692,4181.795,4155.897,4167.436,4144.744000000001,4151.282,4155.255999999999,4144.103,4153.846,0,0
15,50,0,0,4147.179,4146.667,4138.846,4186.795,4156.795,4139.744000000001,4180.641,4138.462,4150.255999999999,4127.564,4148.205,4145.769,4131.154,4145.0,0,0
16,51,0,0,4168.077,4169.359,4158.846,4208.718,4175.255999999999,4155.128,4217.564,4156.282,4162.821,4152.692,4165.385,4161.538,4147.564,4162.821,0,0
17,52,0,0,4197.564,4199.744000000001,4187.308,4235.513,4196.154,4183.974,4251.538,4192.821,4201.026,4195.255999999999,4191.41,4190.513,4181.795,4191.538,0,0
18,53,0,0,4197.564,4198.846,4187.179,4237.0509999999995,4196.667,4183.846,4252.821,4194.231,4199.231,4191.282,4191.923,4190.255999999999,4185.385,4194.872,0,0
19,54,0,0,4171.923,4175.128,4162.179,4214.359,4176.923,4160.769,4247.9490000000005,4169.359,4166.667,4161.026,4171.41,4163.846,4159.872,4168.59,0,0
20,55,0,0,4157.436,4167.308,4149.487,4199.615,4171.282,4157.692,4242.436,4164.231,4163.077,4160.385,4164.872,4159.103,4156.026,4153.077,0,0
21,56,0,0,4158.718,4175.128,4158.59,4202.692,4185.897,4166.923,4229.103,4175.128,4178.974,4173.846,4171.154,4171.026,4169.744000000001,4159.231,0,0
22,57,0,0,4154.872,4171.026,4158.846,4203.077,4184.103,4159.231,4217.0509999999995,4169.103,4171.41,4167.821,4167.308,4160.897,4161.667,4156.923,0,0
23,58,0,0,4153.718,4161.41,4148.205,4193.974,4173.077,4147.179,4213.462,4163.205,4163.333,4159.744000000001,4161.923,4151.282,4152.692,4152.0509999999995,0,0
24,59,0,0,4170.897,4175.255999999999,4160.769,4201.154,4180.255999999999,4158.077,4231.282,4189.359,4187.692,4176.154,4176.154,4173.205,4180.897,4171.026,0,0
25,60,0,0,4191.026,4200.128,4183.718,4219.231,4189.872,4181.282,4262.308,4216.154,4206.026,4195.0,4192.821,4191.795,4208.333,4193.462,0,0
26,61,0,0,4184.744000000001,4198.462,4179.872,4215.641,4190.0,4183.718,4267.179,4203.718,4191.795,4190.385,4184.487,4178.333,4194.231,4184.487,0,0
27,62,0,0,4167.692,4182.0509999999995,4164.744000000001,4200.897,4197.821,4171.795,4256.282,4183.846,4178.333,4180.0,4173.974,4166.923,4178.077,4170.513,0,0
28,63,0,0,4171.795,4181.154,4164.487,4197.436,4205.385,4174.359,4263.077,4189.231,4190.0,4185.641,4183.333,4176.282,4186.282,4178.846,0,0
29,64,0,3233,4186.282,4193.462,4172.0509999999995,4202.0509999999995,4195.255999999999,4186.41,4269.487,4202.179,4201.538,4195.128,4192.0509999999995,4185.128,4192.436,4189.744000000001,0,0
30,65,0,3016,4189.744000000001,4202.564,4177.436,4208.462,4190.513,4184.744000000001,4267.308,4200.769,4193.718,4194.872,4189.487,4183.974,4190.128,4191.538,0,0
31,66,0,3443,4186.667,4197.308,4177.821,4208.974,4197.179,4174.103,4264.872,4185.128,4177.821,4185.641,4183.846,4176.282,4188.974,4188.462,0,0
32,67,0,3510,4183.846,4186.026,4167.308,4199.872,4194.231,4167.179,4249.359,4169.615,4170.0,4171.282,4173.077,4168.205,4178.333,4181.538,0,0
33,68,0,3556,4182.179,4184.615,4158.974,4197.308,4184.872,4159.615,4234.231,4167.821,4171.923,4166.923,4167.564,4167.179,4167.0509999999995,4178.846,0,0
34,69,0,3183,4183.462,4188.59,4164.103,4200.641,4179.872,4158.59,4233.205,4176.154,4172.436,4176.667,4177.564,4173.462,4174.487,4183.718,0,0
35,70,0,3136,4184.231,4184.359,4167.821,4192.179,4174.103,4162.821,4221.667,4181.538,4173.974,4183.59,4183.718,4174.231,4183.205,4184.487,0,0
36,71,0,3488,4185.128,4183.59,4168.333,4185.897,4173.846,4168.59,4209.231,4185.255999999999,4184.615,4185.897,4184.103,4171.795,4183.205,4186.923,0,0
37,72,0,3014,4182.564,4186.41,4166.026,4188.59,4186.154,4169.744000000001,4216.538,4186.795,4184.615,4187.821,4184.487,4172.436,4186.026,4190.769,0,0
38,73,0,3593,4171.795,4177.9490000000005,4156.41,4179.231,4182.564,4161.41,4218.077,4182.179,4175.128,4183.974,4177.179,4166.923,4186.795,4178.718,0,0
39,74,0,3483,4164.103,4163.974,4148.462,4166.282,4168.205,4158.974,4197.308,4178.718,4174.615,4181.538,4171.538,4158.077,4180.897,4165.385,0,0
40,75,0,3476,4167.0509999999995,4164.103,4149.872,4171.538,4174.615,4166.923,4209.359,4175.128,4178.333,4185.128,4175.641,4156.923,4180.769,4169.231,0,0
41,76,0,3046,4172.308,4179.359,4154.487,4185.128,4183.205,4171.154,4269.359,4174.359,4177.0509999999995,4182.308,4176.538,4159.744000000001,4185.769,4171.538,0,0
42,77,0,3098,4164.103,4181.41,4150.769,4181.282,4169.487,4167.436,4285.385,4168.333,4170.255999999999,4167.436,4167.179,4153.59,4176.41,4156.538,0,0
43,78,0,3483,4157.179,4168.974,4148.59,4172.0509999999995,4163.333,4167.692,4233.974,4155.128,4163.59,4162.308,4162.821,4145.897,4164.487,4146.923,0,0
44,79,0,3476,4170.641,4173.718,4160.897,4180.128,4182.179,4171.538,4206.667,4159.103,4166.154,4178.846,4169.487,4156.667,4175.385,4161.026,0,0
45,80,0,3046,4181.667,4189.103,4174.359,4191.154,4190.255999999999,4171.538,4219.359,4170.769,4174.231,4187.0509999999995,4174.359,4168.077,4188.59,4174.359,0,0
46,81,0,3098,4172.9490000000005,4185.385,4171.282,4187.821,4181.923,4170.769,4214.872,4161.795,4169.359,4171.282,4170.128,4161.282,4177.0509999999995,4168.718,0,0
47,82,0,3483,4165.897,4169.872,4162.308,4178.333,4181.026,4166.282,4208.333,4149.615,4161.795,4158.846,4163.205,4154.231,4163.846,4162.179,0,0
48,83,0,3476,4176.538,4173.462,4169.744000000001,4181.795,4180.897,4166.154,4234.359,4161.923,4173.59,4167.9490000000005,4169.231,4167.0509999999995,4171.41,4173.718,0,0
49,84,0,3046,4197.308,4199.103,4188.333,4198.974,4184.615,4180.128,4274.231,4190.128,4188.077,4189.359,4188.59,4190.128,4191.538,4197.179,0,0
50,85,0,3098,4209.359,4209.103,4195.128,4206.282,4190.385,4190.769,4285.897,4204.872,4191.795,4198.846,4195.769,4196.154,4203.077,4207.436,0,0
51,86,0,3483,4193.333,4180.769,4175.769,4188.59,4177.179,4175.513,4245.769,4186.026,4182.564,4183.846,4174.744000000001,4177.179,4186.795,4189.231,0,0
52,87,0,3476,4177.308,4164.487,4164.487,4175.769,4169.744000000001,4165.897,4226.282,4169.744000000001,4179.359,4175.641,4166.282,4170.385,4170.0,4176.923,0,0
53,88,0,3046,4189.487,4185.897,4182.692,4191.026,4188.846,4186.026,4266.026,4190.255999999999,4190.128,4193.718,4187.436,4187.308,4186.795,4194.359,0,0
54,89,0,3098,4189.487,4191.026,4183.333,4195.641,4189.872,4187.9490000000005,4285.128,4191.923,4191.154,4190.0,4186.538,4183.718,4194.231,4194.103,0,0
55,90,0,3483,4172.821,4178.846,4165.769,4182.9490000000005,4171.795,4170.0,4261.026,4168.077,4179.872,4167.9490000000005,4165.255999999999,4164.615,4175.0,4173.205,0,0
56,91,0,3476,4177.179,4188.205,4172.436,4186.667,4177.692,4178.333,4252.9490000000005,4174.872,4173.974,4175.641,4166.282,4168.718,4178.205,4176.538,0,0
57,92,0,3046,4189.103,4198.205,4184.231,4196.026,4193.462,4194.872,4264.615,4186.282,4173.846,4180.897,4175.385,4177.9490000000005,4192.692,4184.744000000001,0,0
58,93,0,3098,4184.103,4189.487,4175.769,4185.769,4184.231,4184.744000000001,4260.385,4172.564,4171.154,4162.308,4170.769,4171.923,4183.974,4176.667,0,0
59,94,0,3483,4168.59,4174.231,4164.872,4168.59,4167.0509999999995,4166.795,4236.282,4158.846,4162.564,4156.026,4156.282,4156.923,4167.564,4164.103,0,0
60,95,0,3476,4156.154,4164.487,4163.077,4168.718,4171.41,4169.615,4216.282,4163.333,4165.255999999999,4166.923,4145.0,4148.846,4161.41,4151.795,0,0
61,96,0,3046,4159.872,4170.641,4163.846,4175.769,4187.308,4181.026,4224.487,4176.667,4186.538,4177.692,4159.231,4158.205,4175.641,4154.359,0,0
62,97,0,3098,4179.487,4188.077,4175.513,4177.821,4192.179,4187.9490000000005,4251.026,4189.103,4199.744000000001,4195.255999999999,4187.821,4173.718,4202.179,4181.538,0,0
63,98,0,3483,4185.128,4185.0,4183.077,4175.0,4180.513,4182.692,4247.436,4192.179,4187.564,4201.795,4193.846,4174.615,4201.154,4193.333,0,0
64,99,0,3476,4174.231,4166.026,4175.641,4169.103,4167.692,4172.436,4209.103,4179.615,4171.795,4183.077,4182.564,4166.923,4177.179,4180.513,0,0
65,100,0,3046,4186.282,4177.821,4181.026,4172.436,4177.692,4176.41,4196.923,4178.205,4180.513,4183.205,4188.462,4176.41,4180.255999999999,4191.282,0,0
66,101,0,3098,4212.308,4203.718,4200.0,4183.718,4199.872,4187.692,4229.872,4195.128,4201.538,4202.692,4202.436,4195.897,4195.385,4216.41,0,0
67,102,0,3483,4216.026,4205.385,4208.59,4191.795,4200.385,4192.436,4242.821,4203.846,4204.231,4204.615,4203.205,4200.641,4193.846,4220.385,0,0
68,103,0,3476,4198.59,4187.564,4196.41,4184.359,4187.436,4187.564,4215.385,4188.846,4187.692,4187.821,4190.385,4186.667,4184.872,4206.282,0,0
69,104,0,3046,4182.9490000000005,4171.795,4180.769,4169.744000000001,4179.487,4175.513,4214.872,4171.923,4176.026,4171.41,4173.462,4171.026,4173.333,4186.795,0,0
70,105,0,3098,4183.59,4174.359,4181.154,4167.436,4171.026,4169.744000000001,4248.462,4171.538,4176.026,4172.692,4173.59,4172.308,4172.564,4183.59,0,0
71,106,0,3483,4190.385,4179.615,4187.564,4171.026,4173.462,4174.487,4240.513,4166.667,4167.692,4176.795,4184.231,4181.667,4178.205,4193.59,0,0
72,107,0,3476,4189.872,4176.026,4188.205,4170.128,4188.205,4183.077,4194.615,4161.923,4164.103,4173.462,4187.179,4186.923,4175.128,4196.538,0,0
73,108,0,3046,4185.255999999999,4173.59,4183.846,4166.282,4181.026,4180.385,4167.436,4167.9490000000005,4171.026,4172.308,4182.564,4184.359,4168.59,4188.462,0,0
74,109,0,3098,4183.333,4177.0509999999995,4182.0509999999995,4166.923,4163.59,4173.333,4155.385,4175.897,4170.128,4178.718,4181.026,4182.179,4167.692,4185.128,0,0
75,110,0,3483,4182.308,4176.795,4180.641,4165.385,4173.462,4171.154,4141.41,4180.769,4169.615,4180.897,4181.538,4182.821,4173.718,4190.897,0,0
76,111,0,3476,4192.308,4184.231,4186.41,4168.205,4191.795,4181.667,4152.308,4196.795,4193.333,4191.154,4190.769,4186.41,4194.103,4203.462,0,0
77,112,0,3046,4203.846,4195.641,4195.385,4177.821,4191.538,4192.436,4176.795,4209.615,4208.333,4208.333,4205.897,4192.0509999999995,4210.0,4213.974,0,0
78,113,0,3098,4189.359,4180.769,4186.026,4168.077,4180.255999999999,4179.615,4176.538,4192.0509999999995,4188.077,4194.359,4194.744000000001,4186.026,4191.282,4200.385,0,0
79,114,0,3483,4178.974,4170.513,4178.462,4154.872,4176.154,4172.436,4173.077,4187.179,4184.615,4179.744000000001,4179.231,4182.179,4179.103,4187.308,0,0
80,115,0,3476,4193.077,4183.333,4192.308,4163.718,4181.538,4186.41,4187.692,4209.359,4207.179,4196.923,4189.359,4189.487,4196.154,4198.974,0,0
81,116,0,3046,4196.154,4188.462,4200.255999999999,4173.205,4186.795,4192.0509999999995,4191.923,4213.077,4203.846,4204.615,4195.769,4191.282,4200.769,4204.872,0,0
82,117,0,3098,4186.667,4183.846,4191.026,4167.692,4185.769,4185.513,4178.205,4197.0509999999995,4187.308,4189.872,4186.282,4187.0509999999995,4190.641,4194.231,0,0
83,118,0,3483,4183.205,4178.718,4183.462,4159.231,4173.974,4177.0509999999995,4168.718,4181.41,4182.692,4177.436,4178.718,4180.0,4187.564,4183.846,0,0
84,119,0,3476,4182.821,4178.205,4185.769,4160.255999999999,4167.436,4176.154,4165.897,4170.769,4180.769,4175.641,4182.692,4174.359,4186.667,4183.59,0,0
85,120,0,3046,4189.615,4184.872,4191.282,4168.205,4181.667,4182.436,4168.846,4169.359,4182.821,4184.231,4193.077,4179.487,4187.179,4193.462,0,0
86,121,0,3098,4197.0509999999995,4191.923,4195.255999999999,4173.205,4195.255999999999,4188.974,4175.897,4173.59,4187.692,4197.308,4195.769,4186.923,4196.795,4199.359,0,0
87,122,0,3483,4191.667,4190.513,4196.538,4170.128,4192.308,4186.026,4174.359,4172.0509999999995,4185.641,4195.0,4187.564,4185.641,4200.255999999999,4192.9490000000005,0,0
88,123,0,3476,4186.795,4187.821,4195.255999999999,4167.308,4184.615,4180.128,4172.564,4170.641,4180.897,4188.846,4185.769,4180.897,4192.821,4190.897,0,0
89,124,0,3046,4186.538,4182.564,4190.128,4162.179,4176.282,4173.974,4180.897,4170.0,4173.333,4187.436,4186.154,4175.128,4181.667,4189.744000000001,0,0
90,125,0,3098,4173.718,4168.462,4177.692,4145.0,4165.769,4166.282,4184.231,4164.487,4164.744000000001,4175.255999999999,4173.846,4167.179,4166.154,4173.205,0,0
91,126,0,3483,4159.872,4158.718,4172.308,4135.769,4165.128,4169.487,4184.231,4168.974,4168.974,4167.179,4167.9490000000005,4167.436,4161.154,4164.103,0,0
92,127,0,52,4155.897,4153.846,4172.179,4140.641,4167.9490000000005,4173.333,4186.795,4178.077,4175.641,4168.59,4170.769,4166.538,4166.795,4167.308,0,0
93,0,0,3238,4157.821,4153.59,4173.462,4144.359,4162.179,4169.359,4181.923,4182.308,4177.0509999999995,4171.538,4170.128,4162.9490000000005,4169.744000000001,4166.667,0,0
94,1,0,3021,4179.359,4175.513,4196.41,4157.821,4171.154,4180.897,4189.615,4202.308,4193.462,4191.923,4185.769,4183.974,4191.41,4187.179,0,0
95,2,0,3450,4207.0509999999995,4201.538,4221.026,4178.205,4191.667,4201.41,4208.718,4221.795,4213.077,4217.564,4207.692,4207.436,4220.769,4218.333,0,0
96,3,0,3521,4201.538,4190.769,4210.385,4172.692,4184.615,4193.59,4196.923,4206.282,4200.513,4203.974,4197.0509999999995,4197.692,4208.077,4209.744000000001,0,0
97,4,0,3566,4180.769,4170.897,4192.564,4154.744000000001,4164.231,4172.564,4173.846,4178.846,4176.795,4175.897,4177.179,4183.333,4178.974,4187.179,0,0
98,5,0,3186,4192.179,4188.205,4204.872,4163.077,4174.744000000001,4177.9490000000005,4187.821,4179.103,4187.564,4187.9490000000005,4190.769,4196.282,4189.103,4202.308,0,0
99,6,0,3153,4214.487,4210.385,4219.103,4181.282,4201.282,4192.9490000000005,4216.795,4191.41,4207.308,4213.974,4212.0509999999995,4211.667,4207.0509999999995,4222.821,0,0
100,7,0,3498,4202.692,4198.077,4205.128,4173.333,4196.795,4186.667,4218.205,4183.59,4193.718,4202.821,4207.821,4202.179,4193.333,4210.0,0,0
101,8,0,3009,4182.564,4180.255999999999,4188.974,4156.154,4174.872,4177.692,4208.59,4173.205,4176.282,4184.103,4193.59,4186.41,4177.564,4191.41,0,0
102,9,0,3605,4185.641,4182.179,4190.255999999999,4160.769,4178.205,4184.487,4212.9490000000005,4180.0,4184.103,4198.205,4190.897,4183.718,4182.9490000000005,4189.744000000001,0,0
103,10,0,3493,4189.615,4187.0509999999995,4191.026,4167.436,4187.564,4189.487,4217.692,4187.308,4189.103,4207.564,4189.231,4186.538,4188.974,4189.359,0,0
104,11,0,3481,4181.154,4182.0509999999995,4188.077,4158.077,4175.385,4186.795,4218.59,4182.692,4184.744000000001,4190.0,4184.615,4181.538,4185.128,4189.744000000001,0,0
105,12,0,3050,4184.487,4180.897,4195.769,4156.154,4174.231,4190.128,4244.103,4181.538,4188.333,4187.9490000000005,4192.179,4180.641,4184.359,4200.128,0,0
106,13,0,3104,4199.231,4194.103,4205.385,4169.231,4198.974,4201.282,4277.0509999999995,4191.154,4190.513,4202.564,4202.0509999999995,4195.385,4190.385,4206.41,0,0
107,14,0,3493,4197.308,4200.385,4204.103,4172.436,4197.308,4204.487,4275.769,4195.128,4185.641,4193.846,4193.718,4201.41,4188.462,4202.308,0,0
108,15,0,3481,4184.103,4186.923,4200.255999999999,4166.282,4165.897,4193.974,4261.667,4189.103,4183.846,4176.538,4186.923,4191.667,4174.487,4200.128,0,0
109,16,0,0,4185.897,4181.795,4200.513,4166.41,4167.308,4189.103,4261.026,4184.231,4181.795,4185.513,4196.538,4191.667,4171.923,4202.9490000000005,0,0
110,17,0,0,4186.026,4181.667,4191.538,4163.846,4186.795,4186.282,4264.744000000001,4177.308,4174.231,4187.692,4190.0,4189.103,4172.821,4192.0509999999995,0,0
111,18,0,0,4165.897,4168.59,4177.308,4161.41,4171.923,4172.436,4280.769,4157.692,4165.255999999999,4160.255999999999,4166.41,4167.0509999999995,4154.872,4170.0,0,0
112,19,0,0,4166.026,4170.0,4181.923,4176.154,4165.255999999999,4171.538,4301.026,4150.128,4165.128,4156.667,4171.026,4167.308,4153.077,4173.974,0,0
113,20,0,0,4198.077,4190.897,4202.9490000000005,4199.103,4195.769,4195.769,4295.255999999999,4174.487,4176.154,4189.744000000001,4196.41,4195.128,4177.179,4201.923,0,0
114,21,0,0,4200.513,4194.615,4207.821,4208.462,4201.795,4206.282,4279.103,4193.333,4189.103,4201.41,4203.333,4200.897,4183.974,4209.487,0,0
115,22,0,0,4165.128,4176.026,4189.615,4199.744000000001,4168.077,4189.487,4266.282,4178.846,4184.615,4175.641,4187.564,4183.846,4164.103,4185.385,0,0
116,23,0,0,4158.59,4163.462,4179.615,4194.872,4153.59,4177.9490000000005,4245.769,4164.872,4168.974,4161.795,4166.667,4181.923,4154.103,4164.872,0,0
117,24,0,0,4171.154,4167.692,4192.564,4205.897,4178.077,4185.641,4244.615,4180.128,4176.667,4181.154,4169.487,4197.821,4165.513,4166.795,0,0
118,25,0,0,4158.846,4175.0,4198.718,4212.564,4190.897,4190.0,4264.103,4189.872,4190.513,4189.487,4184.487,4197.436,4173.077,4174.487,0,0
119,26,0,0,4150.385,4164.487,4175.513,4203.333,4168.333,4178.205,4261.923,4167.821,4170.641,4163.59,4172.436,4174.872,4168.462,4169.872,0,0
120,27,0,0,4167.179,4151.282,4152.692,4195.513,4155.513,4166.667,4244.615,4147.308,4148.333,4147.564,4153.205,4159.231,4165.641,4162.179,0,0
121,28,0,0,4177.0509999999995,4160.769,4158.59,4199.487,4170.385,4168.077,4242.564,4152.692,4160.255999999999,4163.59,4166.282,4166.795,4170.128,4176.282,0,0
122,29,0,0,4168.718,4171.282,4172.692,4203.205,4173.718,4172.179,4256.282,4163.205,4176.41,4171.41,4188.974,4177.179,4171.538,4196.538,0,0
123,30,0,0,4170.897,4170.128,4173.846,4203.333,4165.385,4176.026,4259.872,4166.923,4172.0509999999995,4166.667,4191.667,4178.718,4171.41,4199.615,0,0
124,31,0,0,4184.231,4170.385,4169.359,4203.462,4170.0,4179.615,4248.462,4170.128,4169.872,4175.385,4188.718,4176.154,4170.513,4197.9490000000005,0,0
125,32,0,0,4187.9490000000005,4171.538,4170.385,4200.641,4172.692,4180.513,4253.718,4172.821,4177.436,4188.333,4188.205,4174.487,4167.564,4201.923,0,0
126,33,0,0,4183.846,4173.846,4174.103,4202.0509999999995,4176.538,4181.795,4266.795,4171.282,4177.821,4184.487,4186.41,4177.692,4168.974,4199.744000000001,0,0
127,34,0,0,4184.744000000001,4176.538,4177.308,4202.9490000000005,4185.897,4185.385,4255.897,4168.333,4168.462,4173.718,4183.718,4182.436,4168.846,4195.255999999999,0,0
128,35,0,0,4188.333,4164.231,4184.231,4194.487,4178.974,4185.897,4244.359,4176.41,4173.462,4176.154,4183.974,4188.462,4172.0509999999995,4197.9490000000005,0,0
129,36,0,0,4185.769,4161.667,4184.615,4196.538,4170.385,4187.0509999999995,4249.744000000001,4184.231,4185.769,4180.255999999999,4183.462,4188.718,4181.41,4195.641,0,0
130,37,0,0,4184.103,4177.0509999999995,4171.923,4200.128,4174.103,4185.128,4246.923,4172.436,4175.769,4165.385,4172.308,4174.487,4172.308,4183.846,0,0
131,38,0,0,4185.255999999999,4176.026,4168.462,4189.744000000001,4171.923,4179.744000000001,4244.615,4166.154,4162.308,4155.385,4165.769,4169.487,4157.0509999999995,4179.487,0,0
132,39,0,0,4183.846,4166.538,4181.667,4185.385,4165.513,4182.0509999999995,4249.744000000001,4176.154,4168.462,4166.667,4171.154,4181.538,4162.9490000000005,4184.103,0,0
133,40,0,0,4180.128,4168.974,4183.846,4190.769,4175.769,4185.385,4243.462,4174.359,4172.564,4169.487,4170.769,4180.255999999999,4171.667,4181.667,0,0
134,41,0,0,4183.718,4171.41,4181.923,4190.513,4184.872,4186.282,4249.359,4169.615,4170.128,4164.359,4166.667,4177.0509999999995,4171.41,4181.154,0,0
135,42,0,0,4186.026,4170.897,4186.154,4186.923,4173.718,4187.9490000000005,4268.59,4175.0,4172.0509999999995,4170.128,4168.59,4185.255999999999,4174.872,4186.026,0,0
136,43,0,0,4170.128,4170.769,4175.385,4184.487,4163.205,4184.744000000001,4267.308,4168.718,4167.692,4165.641,4167.308,4177.9490000000005,4173.077,4178.205,0,0
137,44,0,0,4165.0,4164.359,4168.333,4182.564,4168.846,4183.462,4260.385,4169.872,4173.333,4159.103,4165.128,4167.0509999999995,4167.179,4168.846,0,0
138,45,0,0,4182.564,4164.615,4182.179,4186.538,4172.564,4188.205,4265.385,4185.641,4187.692,4168.974,4167.821,4172.9490000000005,4172.564,4173.462,0,0
139,46,0,0,4181.538,4169.872,4184.231,4184.744000000001,4170.128,4187.0509999999995,4266.154,4182.179,4178.462,4170.128,4162.9490000000005,4171.923,4172.0509999999995,4173.59,0,0
140,47,0,0,4165.385,4166.154,4167.9490000000005,4171.41,4171.795,4183.718,4260.385,4173.59,4168.846,4161.923,4158.462,4164.103,4165.897,4165.641,0,0
141,48,0,0,4166.667,4165.641,4166.026,4169.359,4165.641,4184.872,4255.0,4181.667,4183.333,4171.795,4165.0,4175.0,4175.0,4167.821,0,0
142,49,0,0,4173.462,4168.462,4178.846,4179.359,4162.692,4185.128,4246.538,4187.692,4186.41,4181.667,4171.41,4185.897,4186.026,4175.255999999999,0,0
143,50,0,0,4172.9490000000005,4171.41,4183.462,4181.795,4179.872,4190.769,4242.308,4192.692,4180.385,4179.103,4172.308,4185.769,4186.41,4177.9490000000005,0,0
144,51,0,0,4174.487,4177.564,4180.0,4177.9490000000005,4184.744000000001,4196.41,4246.538,4202.179,4194.872,4184.103,4173.59,4185.0,4186.667,4177.308,0,0
145,52,0,0,4168.59,4173.718,4171.282,4181.026,4166.026,4187.692,4243.59,4190.897,4195.255999999999,4182.308,4170.513,4176.923,4185.0,4166.667,0,0
146,53,0,0,4161.41,4165.897,4165.0,4183.974,4169.231,4184.872,4247.692,4177.564,4178.205,4174.359,4165.128,4168.333,4179.744000000001,4157.9490000000005,0,0
147,54,0,0,4175.385,4178.846,4175.513,4184.103,4194.359,4199.487,4278.205,4195.385,4189.744000000001,4183.718,4169.231,4179.744000000001,4187.436,4169.487,0,0
148,55,0,0,4187.692,4195.0,4187.564,4191.41,4199.231,4206.154,4293.077,4211.026,4208.718,4192.436,4174.872,4192.821,4200.641,4182.692,0,0
149,56,0,0,4176.923,4185.0,4182.308,4197.0509999999995,4185.641,4200.0,4283.462,4202.179,4201.41,4186.923,4172.692,4182.436,4198.205,4174.744000000001,0,0
150,57,0,0,4163.718,4170.128,4169.872,4184.359,4173.205,4193.077,4277.564,4191.282,4188.333,4180.897,4163.974,4170.513,4189.744000000001,4160.897,0,0
151,58,0,0,4158.974,4168.974,4163.718,4170.769,4166.282,4186.026,4264.231,4184.744000000001,4182.0509999999995,4176.538,4156.667,4167.0509999999995,4184.359,4157.821,0,0
152,59,0,0,4147.821,4164.744000000001,4153.846,4168.333,4166.538,4178.333,4250.128,4171.923,4170.385,4166.538,4151.795,4155.128,4175.0,4148.718,0,0
153,60,0,0,4141.154,4160.128,4149.103,4169.487,4167.821,4177.692,4273.974,4166.923,4169.231,4167.0509999999995,4149.231,4150.769,4169.103,4140.513,0,0
154,61,0,0,4150.897,4165.769,4162.0509999999995,4174.487,4169.487,4184.744000000001,4312.0509999999995,4179.359,4184.231,4181.154,4157.436,4166.923,4179.744000000001,4150.0,0,0
155,62,0,0,4155.255999999999,4170.385,4170.385,4180.385,4174.744000000001,4188.59,4320.641,4188.462,4190.897,4186.538,4162.564,4172.564,4194.359,4156.667,0,0
156,63,0,0,4156.795,4171.282,4169.872,4185.255999999999,4176.41,4191.538,4307.308,4187.692,4182.821,4182.9490000000005,4157.179,4165.897,4198.077,4154.103,0,0
157,64,0,3235,4160.128,4173.718,4172.436,4185.255999999999,4177.9490000000005,4195.513,4265.128,4182.0509999999995,4177.692,4180.0,4157.821,4170.255999999999,4196.41,4155.769,0,0
158,65,0,3020,4152.179,4171.538,4173.462,4177.0509999999995,4187.0509999999995,4191.154,4206.154,4173.077,4176.282,4174.615,4161.923,4171.538,4191.41,4155.513,0,0
159,66,0,3449,4145.0,4165.255999999999,4170.0,4169.872,4184.103,4184.359,4173.846,4168.077,4170.255999999999,4168.59,4159.103,4162.9490000000005,4179.359,4151.026,0,0
160,67,0,3516,4151.41,4164.487,4168.462,4170.513,4170.255999999999,4186.41,4167.179,4172.564,4172.564,4172.692,4160.769,4163.59,4174.487,4152.821,0,0
161,68,0,3551,4158.462,4169.872,4170.897,4175.255999999999,4169.103,4188.846,4168.974,4176.667,4183.077,4178.846,4168.59,4170.385,4183.077,4156.795,0,0
162,69,0,3183,4159.359,4173.077,4175.641,4176.282,4173.077,4185.641,4165.255999999999,4173.718,4180.769,4177.308,4171.41,4173.077,4185.128,4157.9490000000005,0,0
163,70,0,3131,4153.462,4167.821,4172.9490000000005,4172.692,4166.282,4185.513,4152.9490000000005,4166.026,4163.462,4170.128,4166.667,4168.462,4172.821,4153.205,0,0
164,71,0,3491,4149.872,4170.769,4164.615,4171.795,4169.615,4192.0509999999995,4162.821,4168.462,4165.385,4170.0,4163.333,4164.231,4174.359,4151.026,0,0
165,72,0,3005,4166.538,4193.333,4175.513,4183.462,4194.615,4202.308,4198.462,4191.282,4195.255999999999,4192.9490000000005,4177.821,4177.692,4196.667,4166.923,0,0
166,73,0,3596,4182.179,4206.538,4190.0,4192.9490000000005,4209.744000000001,4207.564,4201.282,4204.615,4207.0509999999995,4208.718,4192.9490000000005,4190.0,4205.513,4180.513,0,0
167,74,0,3480,4170.128,4192.0509999999995,4175.385,4183.205,4197.0509999999995,4200.0,4164.872,4184.103,4187.436,4190.0,4177.436,4175.0,4188.077,4170.128,0,0
168,75,0,3470,4163.718,4183.205,4166.538,4180.385,4183.333,4193.59,4159.103,4169.487,4177.692,4177.436,4168.59,4167.308,4179.872,4164.103,0,0
169,76,0,3041,4174.487,4189.231,4180.641,4186.282,4185.385,4198.077,4185.128,4183.333,4187.692,4187.564,4182.821,4180.255999999999,4190.641,4174.615,0,0
170,77,0,3094,4167.179,4181.538,4179.231,4175.128,4191.026,4199.744000000001,4187.436,4184.103,4182.564,4186.154,4178.59,4179.615,4186.282,4170.513,0,0
171,78,0,3480,4153.974,4174.744000000001,4168.59,4166.923,4182.692,4193.59,4179.872,4168.59,4173.59,4180.513,4169.231,4173.462,4173.718,4162.179,0,0
172,79,0,3470,4162.564,4185.0,4177.436,4175.128,4170.769,4187.9490000000005,4193.077,4170.897,4184.231,4185.385,4182.308,4182.9490000000005,4179.359,4175.0,0,0
173,80,0,3041,4177.564,4187.9490000000005,4182.436,4173.718,4173.333,4185.255999999999,4195.641,4172.9490000000005,4188.462,4182.564,4187.692,4184.744000000001,4185.385,4185.897,0,0
174,81,0,3094,4182.0509999999995,4187.9490000000005,4179.487,4171.795,4182.692,4187.9490000000005,4184.231,4170.385,4184.359,4180.513,4182.179,4180.128,4179.615,4188.333,0,0
175,82,0,3480,4189.487,4205.385,4195.897,4190.0,4188.077,4200.897,4192.0509999999995,4190.513,4191.026,4190.0,4191.41,4191.41,4187.821,4199.103,0,0
176,83,0,3470,4188.205,4204.487,4202.692,4188.077,4185.769,4199.231,4196.026,4198.718,4191.282,4189.231,4195.255999999999,4196.282,4192.821,4197.9490000000005,0,0
177,84,0,3041,4172.308,4179.231,4184.744000000001,4164.487,4182.0509999999995,4182.9490000000005,4176.41,4177.436,4181.667,4179.231,4179.744000000001,4182.821,4173.333,4178.974,0,0
178,85,0,3094,4175.255999999999,4183.462,4187.692,4172.436,4187.0509999999995,4188.846,4165.513,4177.564,4186.41,4184.615,4181.154,4185.513,4170.897,4184.231,0,0
179,86,0,3480,4190.255999999999,4201.667,4205.769,4191.667,4191.923,4204.615,4166.282,4191.923,4192.179,4191.795,4195.641,4198.462,4188.59,4205.0,0,0
180,87,0,3470,4189.872,4193.974,4197.564,4185.769,4186.923,4200.385,4168.205,4183.077,4181.41,4183.846,4191.923,4193.077,4187.308,4199.103,0,0
181,88,0,3041,4186.026,4186.667,4185.385,4178.077,4182.436,4194.872,4171.41,4178.205,4179.744000000001,4181.41,4185.255999999999,4188.462,4180.255999999999,4187.692,0,0
182,89,0,3094,4186.282,4195.0,4191.667,4180.385,4184.872,4203.333,4161.538,4190.255999999999,4192.692,4191.667,4192.821,4193.205,4189.359,4191.282,0,0
183,90,0,3480,4174.103,4191.026,4185.0,4173.974,4183.205,4198.718,4164.487,4181.154,4182.821,4186.923,4183.59,4179.744000000001,4180.128,4182.821,0,0
184,91,0,3470,4166.282,4181.923,4175.513,4166.41,4185.0,4188.077,4208.205,4169.872,4165.128,4176.538,4168.59,4166.41,4164.487,4167.564,0,0
185,92,0,3041,4176.282,4185.897,4184.359,4169.487,4185.513,4193.077,4243.974,4183.077,4176.41,4181.538,4178.462,4175.0,4180.128,4172.308,0,0
186,93,0,3094,4170.128,4183.846,4183.718,4166.026,4173.974,4192.821,4260.128,4184.359,4186.282,4177.436,4179.359,4176.026,4183.974,4174.744000000001,0,0
187,94,0,3480,4155.769,4174.487,4169.615,4157.179,4169.359,4188.333,4279.615,4166.795,4171.282,4162.308,4162.821,4164.872,4158.846,4164.744000000001,0,0
188,95,0,3470,4160.513,4173.333,4170.385,4155.0,4181.154,4198.59,4259.359,4166.41,4163.462,4162.308,4165.769,4164.103,4151.923,4164.872,0,0
189,96,0,3041,4162.436,4169.872,4169.103,4153.974,4181.282,4201.923,4196.026,4170.769,4167.692,4161.538,4166.154,4159.615,4155.769,4161.282,0,0
190,97,0,3094,4147.9490000000005,4163.333,4154.231,4148.333,4162.9490000000005,4184.487,4162.692,4162.179,4165.128,4150.897,4152.179,4148.718,4149.359,4148.205,0,0
191,98,0,3480,4153.59,4173.59,4160.128,4154.103,4161.026,4180.385,4165.641,4168.718,4172.308,4162.692,4162.821,4157.9490000000005,4167.9490000000005,4159.615,0,0
192,99,0,3470,4180.513,4188.59,4182.9490000000005,4170.0,4180.0,4196.538,4175.0,4186.923,4191.154,4193.59,4188.077,4180.385,4202.821,4186.026,0,0
193,100,0,3041,4189.359,4190.513,4188.333,4173.205,4192.9490000000005,4202.9490000000005,4199.359,4189.231,4196.282,4202.692,4190.769,4188.974,4207.308,4189.744000000001,0,0
194,101,0,3094,4183.846,4191.538,4182.0509999999995,4168.462,4187.179,4195.897,4224.615,4184.231,4188.718,4190.255999999999,4184.744000000001,4182.0509999999995,4192.9490000000005,4180.385,0,0
195,102,0,3480,4179.103,4190.0,4182.821,4169.872,4175.128,4188.205,4221.282,4183.077,4181.923,4182.9490000000005,4186.026,4176.41,4188.333,4180.769,0,0
196,103,0,3470,4174.615,4184.744000000001,4184.615,4168.974,4174.872,4183.59,4203.59,4182.0509999999995,4181.795,4185.897,4185.255999999999,4179.744000000001,4187.308,4183.462,0,0
197,104,0,3041,4179.231,4191.154,4186.41,4168.846,4187.692,4188.846,4198.59,4183.462,4185.255999999999,4189.231,4183.974,4184.231,4185.0,4183.974,0,0
198,105,0,3094,4193.846,4206.795,4193.205,4181.154,4196.923,4198.718,4198.718,4189.231,4185.769,4193.59,4189.872,4188.718,4188.974,4190.897,0,0
199,106,0,3480,4187.821,4201.154,4184.615,4180.0,4183.205,4190.128,4173.846,4180.641,4175.0,4186.538,4185.0,4181.538,4184.487,4185.641,0,0
200,107,0,3470,4170.897,4183.846,4171.154,4162.0509999999995,4173.846,4177.692,4148.59,4168.462,4164.872,4173.462,4170.641,4167.9490000000005,4171.026,4170.0,0,0
201,108,0,3041,4180.128,4193.718,4180.897,4167.821,4191.923,4191.154,4157.9490000000005,4179.615,4172.692,4183.333,4177.308,4174.615,4176.795,4177.308,0,0
202,109,0,3094,4193.59,4214.103,4194.231,4188.974,4204.231,4206.41,4171.923,4195.0,4188.077,4201.667,4195.641,4190.769,4197.179,4194.103,0,0
203,110,0,3480,4189.744000000001,4209.615,4189.359,4185.641,4198.462,4201.154,4169.615,4191.41,4194.872,4202.564,4196.282,4189.615,4200.897,4192.436,0,0
204,111,0,3470,4185.255999999999,4198.718,4185.385,4171.026,4194.744000000001,4194.359,4167.9490000000005,4187.0509999999995,4194.103,4202.564,4190.0,4182.564,4193.718,4188.205,0,0
205,112,0,3041,4178.333,4198.974,4183.333,4169.872,4192.308,4190.641,4160.255999999999,4189.487,4190.0,4200.255999999999,4187.692,4181.154,4186.795,4185.769,0,0
206,113,0,3094,4167.692,4192.9490000000005,4173.462,4171.795,4181.538,4183.846,4149.744000000001,4183.718,4179.872,4187.9490000000005,4184.487,4174.487,4177.0509999999995,4176.538,0,0
207,114,0,3480,4168.846,4184.103,4171.026,4169.103,4175.641,4184.231,4153.846,4176.282,4175.769,4185.385,4182.692,4172.0509999999995,4174.487,4174.487,0,0
208,115,0,3470,4166.026,4185.513,4171.538,4164.872,4170.255999999999,4186.282,4156.538,4169.744000000001,4176.795,4183.462,4177.692,4171.795,4171.667,4173.077,0,0
209,116,0,3041,4157.436,4188.333,4167.692,4172.308,4165.769,4184.615,4152.0509999999995,4170.128,4170.897,4171.795,4176.923,4168.59,4165.513,4169.615,0,0
210,117,0,3094,4165.513,4188.462,4170.641,4186.795,4169.231,4184.872,4155.513,4176.41,4168.462,4171.667,4184.231,4171.026,4170.128,4174.744000000001,0,0
211,118,0,3480,4168.974,4185.641,4170.769,4187.564,4173.333,4185.0,4153.333,4169.744000000001,4171.923,4174.231,4181.41,4171.795,4175.0,4175.128,0,0
212,119,0,3470,4156.026,4178.205,4160.385,4183.718,4169.872,4180.641,4149.487,4161.923,4171.923,4168.974,4171.154,4168.59,4166.923,4170.0,0,0
213,120,0,3041,4151.154,4171.154,4153.718,4192.308,4159.103,4173.59,4161.41,4162.564,4170.255999999999,4165.513,4169.872,4165.769,4161.795,4167.564,0,0
214,121,0,3094,4154.615,4168.846,4155.128,4200.513,4157.0509999999995,4169.744000000001,4172.436,4158.974,4173.077,4159.487,4170.897,4160.0,4167.436,4159.744000000001,0,0
215,122,0,3480,4147.692,4169.744000000001,4153.846,4199.231,4163.205,4172.0509999999995,4175.255999999999,4152.179,4167.179,4151.538,4164.872,4152.692,4167.821,4150.0,0,0
216,123,0,3470,4140.0,4168.974,4148.718,4199.231,4156.795,4171.41,4166.282,4153.205,4156.154,4153.333,4157.436,4151.154,4158.974,4150.385,0,0
217,124,0,3041,4140.128,4164.487,4143.974,4197.308,4149.744000000001,4164.359,4130.255999999999,4149.103,4157.0509999999995,4152.179,4151.154,4149.872,4150.255999999999,4149.103,0,0
218,125,0,3094,4151.026,4171.41,4150.0,4200.641,4165.0,4170.128,4105.641,4148.077,4168.205,4149.615,4157.9490000000005,4155.255999999999,4157.821,4150.255999999999,0,0
219,126,0,3480,4164.615,4185.513,4165.641,4212.821,4176.41,4187.564,4126.667,4165.385,4175.897,4161.026,4172.821,4169.487,4175.128,4164.487,0,0
220,127,0,52,4162.0509999999995,4185.897,4170.0,4215.769,4169.231,4189.487,4142.692,4170.255999999999,4168.077,4168.333,4171.795,4168.718,4174.615,4170.897,0,0
221,0,0,3227,4157.436,4180.769,4165.641,4213.077,4170.897,4182.821,4134.615,4164.103,4168.077,4166.282,4168.333,4161.667,4166.923,4167.821,0,0
222,1,0,3009,4168.974,4186.282,4170.897,4215.0,4181.538,4188.846,4155.641,4173.974,4187.9490000000005,4174.872,4177.692,4171.923,4173.59,4176.154,0,0
223,2,0,3436,4178.077,4190.385,4177.308,4210.513,4185.513,4191.923,4188.205,4182.9490000000005,4190.128,4180.255999999999,4181.282,4182.179,4179.872,4184.359,0,0
224,3,0,3502,4169.103,4178.59,4170.255999999999,4200.255999999999,4181.923,4185.128,4180.513,4169.103,4165.513,4163.974,4171.923,4173.718,4172.436,4174.487,0,0
225,4,0,3553,4164.231,4169.487,4164.872,4196.026,4175.0,4182.692,4167.692,4156.795,4159.615,4153.333,4167.692,4169.103,4168.077,4166.41,0,0
226,5,0,3176,4175.0,4176.41,4173.718,4198.077,4162.692,4185.128,4184.615,4163.077,4172.692,4164.231,4171.795,4178.205,4171.667,4176.795,0,0
227,6,0,3135,4188.846,4195.128,4186.538,4212.692,4170.513,4195.769,4197.436,4179.103,4184.103,4182.821,4187.0509999999995,4189.359,4182.564,4195.897,0,0
228,7,0,3483,4193.333,4200.769,4192.692,4222.564,4191.923,4203.718,4181.923,4189.872,4195.641,4193.077,4201.795,4196.154,4193.846,4206.154,0,0
229,8,0,2992,4185.0,4189.359,4186.923,4208.333,4181.923,4194.744000000001,4165.769,4183.205,4190.897,4186.923,4192.692,4187.564,4188.846,4195.128,0,0
230,9,0,3590,4181.154,4190.769,4185.128,4205.385,4171.538,4190.897,4169.231,4181.667,4178.846,4182.308,4181.41,4178.718,4185.641,4182.9490000000005,0,0
231,10,0,3470,4187.179,4199.872,4193.462,4218.462,4195.513,4202.821,4173.718,4195.0,4190.385,4191.41,4190.0,4183.846,4195.0,4188.205,0,0
232,11,0,3469,4191.667,4196.026,4194.231,4212.9490000000005,4207.436,4208.59,4169.103,4196.795,4201.538,4195.897,4193.846,4183.462,4195.255999999999,4191.667,0,0
233,12,0,3043,4182.179,4185.0,4179.872,4199.231,4186.538,4198.333,4172.821,4180.641,4187.436,4182.564,4180.513,4171.154,4185.385,4179.487,0,0
234,13,0,3091,4169.487,4180.641,4166.795,4199.103,4175.769,4189.744000000001,4183.974,4173.59,4178.462,4170.769,4168.333,4165.513,4181.154,4167.308,0,0
235,14,0,3470,4171.538,4183.077,4169.487,4202.564,4180.128,4194.103,4184.359,4182.179,4183.59,4174.487,4168.846,4169.487,4183.077,4166.923,0,0
236,15,0,3469,4177.692,4186.795,4178.205,4200.769,4183.462,4202.308,4181.026,4189.359,4186.923,4184.615,4175.0,4172.9490000000005,4186.667,4172.821,0,0
237,16,0,0,4173.59,4185.897,4180.128,4198.205,4192.436,4201.795,4183.846,4189.487,4197.436,4188.974,4177.821,4176.282,4189.872,4175.641,0,0
238,17,0,0,4168.846,4182.436,4180.255999999999,4197.179,4194.872,4198.59,4184.359,4185.128,4201.026,4183.974,4172.436,4174.615,4186.667,4172.9490000000005,0,0
239,18,0,0,4174.872,4186.923,4183.59,4196.282,4190.513,4199.231,4181.667,4186.026,4188.077,4186.41,4170.641,4172.0509999999995,4185.385,4171.538,0,0
240,19,0,0,4176.538,4188.205,4179.487,4189.359,4182.0509999999995,4193.462,4176.667,4188.205,4181.026,4189.231,4177.564,4173.846,4189.615,4172.308,0,0
241,20,0,0,4164.487,4178.205,4169.103,4182.308,4168.333,4183.462,4163.59,4176.795,4183.333,4176.154,4175.385,4167.308,4180.513,4168.205,0,0
242,21,0,0,4159.231,4169.872,4165.513,4181.026,4161.154,4182.179,4151.538,4165.255999999999,4183.077,4170.0,4166.154,4160.385,4166.282,4165.0,0,0
243,22,0,0,4173.846,4177.692,4171.026,4184.231,4167.179,4183.462,4151.538,4175.513,4183.462,4182.692,4172.821,4170.769,4175.641,4174.615,0,0
244,23,0,0,4187.308,4194.231,4177.179,4192.308,4181.282,4183.333,4156.41,4190.769,4186.795,4190.513,4187.692,4181.41,4193.077,4187.9490000000005,0,0
245,24,0,0,4186.282,4197.564,4176.667,4195.897,4189.487,4192.564,4158.462,4183.462,4190.769,4186.026,4183.462,4177.179,4189.872,4188.718,0,0
246,25,0,0,4182.0509999999995,4188.718,4173.205,4191.923,4188.59,4198.333,4155.769,4169.872,4188.59,4181.923,4171.41,4169.872,4181.026,4180.513,0,0
247,26,0,0,4174.744000000001,4180.769,4169.231,4185.641,4182.821,4187.436,4143.718,4165.0,4174.103,4173.718,4167.0509999999995,4164.359,4179.103,4171.667,0,0
248,27,0,0,4168.718,4179.103,4168.718,4184.359,4183.59,4188.59,4143.974,4170.897,4170.641,4169.359,4168.59,4162.308,4181.282,4168.077,0,0
249,28,0,0,4173.462,4180.513,4179.872,4191.41,4187.9490000000005,4203.59,4173.205,4186.41,4195.513,4183.718,4177.308,4172.0509999999995,4191.154,4175.255999999999,0,0
250,29,0,0,4174.872,4179.231,4183.205,4191.923,4179.231,4195.641,4176.667,4179.103,4199.744000000001,4186.282,4177.308,4171.538,4186.923,4174.103,0,0
251,30,0,0,4167.9490000000005,4182.179,4167.0509999999995,4184.615,4168.974,4178.846,4140.769,4155.641,4173.205,4168.718,4164.744000000001,4154.359,4170.897,4158.974,0,0
252,31,0,0,4167.0509999999995,4193.846,4161.154,4190.255999999999,4173.846,4188.205,4131.41,4163.718,4171.41,4168.462,4162.436,4154.872,4177.308,4156.923,0,0
253,32,0,0,4170.385,4198.974,4175.0,4203.077,4185.0,4200.513,4155.0,4189.744000000001,4193.718,4185.255999999999,4171.795,4171.667,4192.821,4171.282,0,0
254,33,0,0,4171.538,4192.308,4180.128,4198.205,4187.564,4195.385,4159.744000000001,4188.974,4206.282,4192.0509999999995,4174.615,4173.333,4193.974,4173.077,0,0
255,34,0,0,4167.564,4187.308,4171.795,4188.333,4181.026,4185.641,4145.385,4172.308,4199.231,4183.333,4170.385,4159.487,4184.615,4157.692,0,0
256,35,0,0,4158.846,4182.564,4166.667,4185.641,4171.41,4180.255999999999,4134.744000000001,4163.59,4175.513,4171.795,4165.897,4152.564,4172.179,4148.333,0,0
257,36,0,0,4157.564,4181.795,4172.308,4182.821,4172.436,4185.641,4132.436,4165.0,4164.615,4170.641,4166.026,4157.692,4171.026,4155.897,0,0
258,37,0,0,4169.103,4192.821,4184.615,4189.872,4186.282,4198.59,4144.103,4178.205,4188.846,4185.513,4175.385,4170.255999999999,4187.308,4168.333,0,0
259,38,0,0,4182.692,4202.564,4190.385,4198.59,4191.41,4204.231,4155.0,4188.59,4204.615,4197.692,4184.359,4182.9490000000005,4194.359,4174.615,0,0
260,39,0,0,4182.9490000000005,4196.026,4187.821,4190.641,4186.795,4200.641,4155.513,4186.026,4190.641,4191.282,4183.974,4186.282,4183.462,4176.026,0,0
261,40,0,0,4175.513,4186.923,4186.667,4180.128,4186.923,4200.385,4156.282,4184.231,4187.0509999999995,4184.872,4177.308,4182.0509999999995,4181.154,4173.718,0,0
262,41,0,0,4174.615,4188.59,4186.538,4186.538,4180.769,4201.154,4156.41,4186.41,4190.128,4186.538,4172.179,4180.513,4186.154,4171.282,0,0
263,42,0,0,4173.974,4188.462,4180.0,4185.769,4170.385,4191.282,4153.205,4182.9490000000005,4181.795,4182.564,4169.487,4179.487,4177.821,4170.641,0,0
264,43,0,0,4167.0509999999995,4182.308,4170.897,4170.769,4171.795,4180.385,4151.795,4177.0509999999995,4182.564,4172.821,4165.769,4171.795,4165.385,4165.641,0,0
265,44,0,0,4167.692,4185.0,4171.667,4170.0,4176.41,4183.718,4156.282,4178.077,4183.718,4170.641,4167.308,4169.359,4169.103,4161.282,0,0
266,45,0,0,4168.077,4182.179,4169.615,4170.255999999999,4168.59,4185.385,4143.59,4171.795,4170.255999999999,4167.9490000000005,4163.462,4168.59,4166.667,4154.872,0,0
267,46,0,0,4163.205,4176.667,4163.462,4166.026,4167.436,4182.308,4123.974,4168.077,4171.026,4163.846,4158.846,4164.872,4159.359,4152.692,0,0
268,47,0,0,4173.333,4190.897,4175.513,4176.795,4186.026,4192.0509999999995,4128.077,4184.615,4189.872,4180.128,4171.282,4174.615,4176.154,4167.821,0,0
269,48,0,0,4181.538,4199.744000000001,4185.897,4182.9490000000005,4193.974,4201.41,4133.462,4195.255999999999,4190.385,4188.718,4179.872,4183.205,4186.282,4176.795,0,0
270,49,0,0,4170.255999999999,4189.615,4175.385,4177.0509999999995,4181.41,4195.513,4128.974,4185.0,4177.436,4172.179,4170.128,4173.59,4175.255999999999,4166.154,0,0
271,50,0,0,4168.974,4193.974,4172.564,4179.103,4181.026,4192.436,4137.308,4183.718,4184.231,4168.59,4170.0,4170.769,4175.0,4166.026,0,0
272,51,0,0,4178.205,4205.385,4176.282,4178.205,4193.846,4193.846,4147.564,4187.821,4190.385,4177.821,4172.179,4172.436,4179.103,4170.0,0,0
273,52,0,0,4171.667,4190.0,4166.795,4164.872,4179.359,4186.282,4143.59,4176.41,4173.718,4167.308,4155.769,4160.897,4166.667,4156.538,0,0
274,53,0,0,4169.744000000001,4179.615,4167.9490000000005,4166.154,4163.205,4185.385,4149.103,4173.333,4165.385,4159.231,4155.641,4160.385,4163.205,4154.103,0,0
275,54,0,0,4186.154,4196.282,4185.769,4178.59,4192.821,4199.103,4163.205,4186.667,4180.641,4177.564,4178.205,4176.282,4180.0,4169.744000000001,0,0
276,55,0,0,4188.846,4202.179,4188.59,4183.846,4210.897,4203.974,4169.231,4191.154,4189.872,4190.128,4182.821,4178.205,4188.077,4175.0,0,0
277,56,0,0,4174.615,4190.641,4181.154,4179.872,4171.41,4191.154,4179.359,4180.255999999999,4176.41,4178.974,4171.538,4167.821,4176.923,4168.846,0,0
278,57,0,0,4172.436,4188.718,4181.41,4171.795,4155.769,4182.564,4188.846,4171.41,4165.897,4169.744000000001,4168.846,4167.436,4164.872,4170.0,0,0
279,58,0,0,4185.128,4200.513,4185.769,4173.59,4195.513,4193.846,4193.718,4178.462,4172.821,4179.487,4178.077,4178.59,4175.385,4180.0,0,0
280,59,0,0,4192.179,4204.744000000001,4189.231,4179.231,4208.846,4205.769,4200.769,4191.026,4186.026,4192.308,4188.077,4188.59,4189.744000000001,4189.487,0,0
281,60,0,0,4190.255999999999,4197.821,4188.462,4174.615,4189.231,4200.128,4204.744000000001,4187.692,4185.0,4184.487,4186.154,4188.462,4182.692,4189.231,0,0
282,61,0,0,4182.9490000000005,4187.692,4181.923,4166.923,4180.769,4186.795,4198.077,4168.59,4168.462,4165.513,4172.0509999999995,4181.41,4167.179,4177.436,0,0
283,62,0,0,4183.462,4191.282,4184.231,4170.641,4185.769,4188.205,4199.487,4168.077,4167.9490000000005,4170.385,4174.359,4183.462,4172.692,4179.231,0,0
284,63,0,0,4198.462,4213.205,4199.359,4186.538,4196.538,4203.205,4215.128,4191.026,4187.308,4195.513,4195.769,4199.615,4195.0,4200.385,0,0
285,64,0,3228,4205.0,4221.41,4203.718,4190.897,4197.821,4208.077,4208.718,4195.641,4190.769,4198.333,4199.103,4203.846,4193.077,4206.41,0,0
286,65,0,3017,4188.205,4201.026,4187.308,4173.974,4185.128,4193.718,4184.359,4175.128,4167.436,4173.974,4180.255999999999,4186.923,4164.231,4185.513,0,0
287,66,0,3445,4170.513,4176.923,4171.026,4160.128,4175.641,4183.077,4178.846,4163.333,4152.0509999999995,4153.718,4163.718,4169.487,4146.282,4166.282,0,0
288,67,0,3511,4170.769,4172.564,4172.436,4164.231,4171.282,4190.897,4191.795,4168.462,4160.0,4151.026,4159.359,4165.385,4147.9490000000005,4165.641,0,0
289,68,0,3555,4182.308,4182.564,4184.615,4173.333,4170.513,4201.538,4200.0,4180.641,4175.513,4163.205,4168.718,4176.795,4158.205,4176.41,0,0
290,69,0,3181,4193.462,4193.333,4196.538,4177.564,4182.692,4205.385,4206.667,4196.41,4189.103,4183.077,4183.974,4192.436,4178.974,4188.974,0,0
291,70,0,3144,4199.103,4198.333,4201.41,4178.59,4190.897,4203.333,4206.41,4204.872,4195.385,4194.615,4189.359,4192.821,4199.103,4190.128,0,0
292,71,0,3493,4198.205,4198.462,4196.795,4179.487,4185.897,4200.769,4191.923,4204.487,4200.255999999999,4201.282,4187.436,4186.667,4205.513,4186.795,0,0
293,72,0,3015,4193.974,4192.179,4188.333,4176.923,4187.821,4199.359,4180.513,4201.41,4201.923,4205.897,4186.667,4188.846,4202.436,4188.333,0,0
294,73,0,3597,4187.564,4184.103,4182.436,4165.0,4183.846,4196.026,4173.205,4190.897,4188.333,4191.282,4184.359,4185.0,4191.667,4181.282,0,0
295,74,0,3486,4181.538,4184.359,4178.974,4154.744000000001,4164.744000000001,4188.718,4161.795,4176.41,4169.487,4170.513,4179.231,4173.333,4180.385,4169.744000000001,0,0
296,75,0,3473,4172.308,4181.026,4170.769,4156.795,4151.923,4179.487,4146.026,4165.513,4162.9490000000005,4166.154,4168.718,4166.538,4170.255999999999,4163.462,0,0
297,76,0,3044,4169.103,4178.974,4171.667,4163.846,4159.615,4179.487,4146.282,4163.333,4167.436,4173.846,4166.026,4168.846,4165.513,4164.615,0,0
298,77,0,3094,4187.436,4194.103,4185.769,4170.128,4178.333,4192.0509999999995,4172.564,4177.436,4176.667,4184.103,4181.538,4180.513,4176.538,4179.487,0,0
299,78,0,3486,4200.513,4200.897,4189.872,4170.513,4188.205,4199.872,4197.179,4189.103,4184.615,4194.359,4192.9490000000005,4188.077,4187.821,4190.769,0,0
300,79,0,3473,4188.974,4192.692,4183.718,4166.538,4188.846,4196.795,4202.0509999999995,4185.255999999999,4186.026,4200.255999999999,4190.0,4186.026,4186.795,4187.179,0,0
301,80,0,3044,4182.179,4196.026,4181.154,4168.59,4185.769,4196.795,4201.41,4182.821,4184.103,4200.255999999999,4190.0,4182.308,4186.923,4182.564,0,0
302,81,0,3094,4184.744000000001,4200.513,4177.308,4170.513,4184.231,4199.487,4206.41,4183.205,4183.718,4198.333,4191.282,4177.308,4189.103,4180.897,0,0
303,82,0,3486,4175.0,4187.308,4169.872,4166.538,4184.487,4191.538,4206.667,4176.41,4178.462,4190.513,4182.564,4170.255999999999,4183.846,4171.795,0,0
304,83,0,3473,4171.154,4184.744000000001,4169.231,4166.282,4183.333,4187.436,4204.103,4174.359,4173.205,4185.128,4176.538,4171.154,4181.795,4168.718,0,0
305,84,0,3044,4180.255999999999,4196.154,4171.795,4170.641,4181.795,4190.385,4204.744000000001,4176.923,4179.872,4187.179,4181.667,4176.667,4185.128,4176.923,0,0
306,85,0,3094,4177.436,4190.128,4168.846,4169.231,4180.897,4187.692,4200.641,4172.821,4180.769,4184.359,4185.385,4173.333,4180.128,4176.41,0,0
307,86,0,3486,4172.564,4184.487,4170.513,4173.846,4186.41,4191.538,4200.897,4179.615,4175.128,4184.231,4183.077,4171.667,4177.0509999999995,4172.9490000000005,0,0
308,87,0,3473,4173.333,4186.154,4168.846,4182.0509999999995,4185.769,4193.59,4209.872,4187.564,4180.128,4186.923,4175.641,4170.385,4174.231,4166.154,0,0
309,88,0,3044,4167.0509999999995,4178.974,4156.026,4182.692,4173.462,4182.821,4214.744000000001,4171.667,4178.974,4176.026,4168.333,4162.564,4162.308,4152.179,0,0
310,89,0,3094,4166.154,4176.667,4156.667,4190.513,4167.9490000000005,4185.769,4215.769,4161.538,4166.667,4166.154,4168.205,4161.41,4160.769,4151.282,0,0
311,90,0,3486,4171.667,4183.462,4171.795,4204.615,4173.333,4203.205,4214.487,4175.897,4172.308,4168.333,4169.615,4170.0,4172.0509999999995,4164.744000000001,0,0
312,91,0,3473,4169.487,4179.744000000001,4168.333,4205.897,4174.231,4199.487,4206.154,4178.462,4182.179,4168.974,4169.231,4171.538,4172.9490000000005,4168.462,0,0
313,92,0,3044,4168.59,4170.641,4158.846,4201.154,4170.641,4186.667,4196.41,4167.179,4176.026,4174.615,4177.692,4173.462,4172.436,4168.462,0,0
314,93,0,3094,4173.205,4171.795,4164.744000000001,4203.974,4173.846,4189.872,4193.59,4170.641,4176.923,4185.513,4188.59,4181.538,4182.821,4176.795,0,0
315,94,0,3486,4171.282,4165.641,4163.333,4203.846,4167.821,4188.974,4192.821,4172.179,4180.128,4182.308,4187.564,4178.718,4177.9490000000005,4177.564,0,0
316,95,0,3473,4167.692,4154.359,4157.692,4198.718,4152.9490000000005,4183.718,4196.795,4168.205,4171.923,4175.897,4182.821,4171.026,4165.641,4172.0509999999995,0,0
317,96,0,3044,4169.359,4158.718,4167.0509999999995,4203.462,4158.077,4190.641,4210.769,4179.615,4175.897,4181.667,4184.615,4175.128,4175.128,4173.974,0,0
318,97,0,3094,4172.436,4165.0,4171.026,4209.487,4170.641,4194.487,4215.513,4186.538,4183.205,4186.154,4184.359,4178.462,4182.436,4181.026,0,0
319,98,0,3486,4172.821,4165.897,4166.538,4204.103,4158.59,4187.436,4212.0509999999995,4174.103,4176.282,4181.795,4180.897,4173.974,4175.385,4181.026,0,0
320,99,0,3473,4174.359,4171.41,4167.9490000000005,4202.564,4147.9490000000005,4189.103,4217.692,4170.769,4172.821,4177.9490000000005,4185.513,4175.128,4176.538,4176.154,0,0
321,100,0,3044,4169.615,4166.41,4158.718,4200.513,4158.846,4186.154,4214.615,4170.385,4168.205,4167.308,4179.872,4168.59,4169.359,4167.9490000000005,0,0
322,101,0,3094,4163.205,4155.897,4146.795,4190.513,4165.0,4175.897,4203.846,4162.436,4161.154,4159.487,4166.923,4158.333,4154.615,4162.436,0,0
323,102,0,3486,4177.564,4170.897,4164.744000000001,4200.128,4172.179,4187.179,4212.308,4174.103,4176.667,4180.513,4182.179,4171.667,4170.128,4175.641,0,0
324,103,0,3473,4198.846,4192.9490000000005,4186.41,4218.462,4190.128,4208.718,4225.769,4195.897,4194.359,4203.205,4204.872,4192.179,4195.128,4194.359,0,0
325,104,0,3044,4194.872,4186.538,4178.59,4210.128,4186.795,4203.462,4210.128,4186.667,4180.385,4192.179,4193.718,4185.0,4189.487,4187.692,0,0
326,105,0,3094,4177.564,4170.513,4163.59,4195.769,4165.513,4187.179,4191.923,4164.231,4170.385,4174.103,4176.282,4166.667,4176.923,4170.513,0,0
327,106,0,3486,4179.103,4170.385,4169.103,4201.923,4169.872,4194.872,4199.744000000001,4172.564,4186.026,4177.821,4184.359,4169.103,4186.282,4179.615,0,0
328,107,0,3473,4182.179,4172.9490000000005,4172.9490000000005,4201.923,4182.692,4200.0,4203.462,4183.974,4184.359,4174.872,4184.359,4174.103,4187.308,4186.026,0,0
329,108,0,3044,4171.026,4163.974,4161.026,4189.231,4173.462,4186.538,4197.436,4173.974,4175.128,4167.308,4170.128,4171.923,4173.846,4171.41,0,0
330,109,0,3094,4165.0,4155.641,4157.436,4180.641,4161.538,4181.538,4205.128,4173.718,4185.128,4177.564,4171.795,4169.487,4173.462,4169.872,0,0
331,110,0,3486,4173.974,4164.487,4167.179,4185.641,4165.897,4187.179,4213.718,4187.821,4188.205,4185.897,4182.0509999999995,4171.026,4185.255999999999,4182.9490000000005,0,0
332,111,0,3473,4185.385,4175.385,4171.154,4197.821,4175.255999999999,4186.41,4204.744000000001,4190.255999999999,4182.564,4191.795,4186.667,4179.615,4188.462,4188.59,0,0
333,112,0,3044,4180.897,4171.154,4165.255999999999,4194.487,4171.154,4185.513,4198.846,4185.897,4186.667,4194.103,4186.795,4179.615,4184.487,4183.718,0,0
334,113,0,3094,4177.308,4175.769,4166.026,4190.128,4166.795,4190.769,4211.538,4191.282,4191.923,4192.179,4188.205,4175.897,4191.538,4184.103,0,0
335,114,0,3486,4184.103,4182.0509999999995,4170.0,4198.974,4173.462,4188.333,4217.9490000000005,4191.41,4189.615,4190.897,4187.692,4178.59,4201.282,4187.0509999999995,0,0
336,115,0,3473,4186.282,4180.255999999999,4169.872,4199.359,4176.795,4186.538,4211.154,4185.897,4186.538,4191.026,4187.821,4179.872,4199.231,4186.282,0,0
337,116,0,3044,4176.154,4180.897,4168.974,4186.667,4169.744000000001,4189.103,4206.026,4182.308,4183.718,4189.615,4188.205,4172.692,4188.974,4184.359,0,0
338,117,0,3094,4166.154,4176.923,4162.0509999999995,4180.897,4168.59,4184.615,4200.0,4177.821,4183.59,4183.462,4182.692,4166.667,4181.667,4179.872,0,0
339,118,0,3486,4175.255999999999,4176.538,4162.0509999999995,4187.308,4177.436,4189.103,4202.0509999999995,4180.255999999999,4185.128,4185.385,4184.872,4174.744000000001,4186.795,4184.359,0,0
340,119,0,3473,4183.718,4181.41,4169.487,4187.179,4176.795,4197.821,4207.179,4187.9490000000005,4183.333,4191.538,4188.846,4182.0509999999995,4190.769,4193.333,0,0
341,120,0,3044,4174.744000000001,4177.9490000000005,4171.282,4182.436,4170.128,4190.769,4204.487,4185.0,4181.667,4188.077,4185.0,4179.231,4183.846,4190.385,0,0
342,121,0,3094,4178.205,4180.769,4176.41,4189.872,4178.205,4188.846,4207.308,4181.282,4184.487,4187.0509999999995,4190.513,4180.385,4185.255999999999,4189.872,0,0
343,122,0,3486,4201.923,4201.538,4189.359,4203.59,4194.744000000001,4203.205,4217.436,4193.718,4191.667,4203.974,4205.641,4195.128,4199.359,4205.897,0,0
344,123,0,3473,4204.231,4208.462,4189.359,4205.0,4194.487,4205.128,4217.821,4198.59,4193.077,4208.846,4208.59,4200.641,4205.0,4212.564,0,0
345,124,0,3044,4186.795,4196.538,4176.667,4200.641,4183.59,4193.333,4218.077,4187.308,4183.974,4187.821,4198.205,4189.615,4198.59,4197.0509999999995,0,0
346,125,0,3094,4183.462,4190.513,4172.308,4200.255999999999,4181.282,4188.333,4218.462,4176.667,4175.769,4180.0,4189.359,4180.128,4186.923,4186.538,0,0
347,126,0,3486,4184.487,4186.795,4169.872,4197.564,4174.744000000001,4186.41,4203.462,4169.744000000001,4170.513,4185.0,4186.154,4172.692,4175.255999999999,4185.255999999999,0,0
348,127,0,52,4184.359,4185.897,4167.9490000000005,4198.974,4168.974,4186.538,4205.128,4173.974,4176.41,4185.255999999999,4189.872,4175.255999999999,4179.359,4187.179,0,0
349,0,0,3239,4186.795,4186.795,4171.795,4200.128,4179.231,4188.59,4229.487,4187.0509999999995,4183.333,4187.308,4192.179,4185.128,4191.026,4191.154,0,0
350,1,0,3025,4183.205,4183.333,4167.821,4186.795,4180.0,4182.0509999999995,4229.231,4179.487,4172.436,4182.9490000000005,4184.487,4183.718,4179.615,4189.103,0,0
351,2,0,3447,4181.026,4181.667,4167.9490000000005,4183.846,4164.359,4180.769,4220.769,4166.282,4169.744000000001,4183.718,4186.795,4180.0,4170.769,4194.487,0,0
352,3,0,3516,4184.872,4185.0,4177.436,4193.333,4161.538,4185.897,4228.974,4177.308,4183.462,4194.615,4198.462,4186.026,4183.974,4205.255999999999,0,0
353,4,0,3567,4189.103,4190.255999999999,4179.359,4192.308,4174.487,4186.154,4236.538,4188.974,4184.615,4196.41,4201.795,4190.0,4193.205,4206.154,0,0
354,5,0,3181,4187.9490000000005,4184.231,4176.667,4187.564,4180.641,4189.744000000001,4239.615,4191.154,4183.718,4193.718,4199.359,4187.692,4193.59,4201.282,0,0
355,6,0,3137,4185.641,4178.59,4183.462,4193.462,4177.308,4198.718,4248.333,4198.718,4198.59,4198.846,4198.59,4187.179,4198.205,4201.282,0,0
356,7,0,3497,4196.923,4200.255999999999,4197.308,4210.255999999999,4181.41,4202.564,4256.41,4208.974,4206.41,4202.564,4202.308,4193.59,4206.026,4212.821,0,0
357,8,0,3025,4210.897,4223.59,4204.615,4220.897,4195.385,4201.026,4252.9490000000005,4203.974,4193.718,4198.077,4205.513,4203.462,4200.128,4225.513,0,0
358,9,0,3608,4208.462,4218.846,4203.59,4212.179,4202.0509999999995,4203.846,4250.897,4187.9490000000005,4186.154,4189.872,4200.255999999999,4204.231,4189.359,4224.872,0,0
359,10,0,3488,4195.641,4200.385,4191.026,4194.615,4186.282,4201.282,4250.255999999999,4170.769,4180.897,4177.9490000000005,4189.487,4190.641,4181.538,4210.769,0,0
360,11,0,3481,4181.667,4182.821,4171.538,4181.41,4169.359,4184.359,4236.538,4151.538,4161.41,4162.0509999999995,4178.333,4171.282,4165.513,4192.821,0,0
361,12,0,3050,4182.821,4186.41,4174.359,4184.872,4178.718,4182.179,4229.872,4151.795,4153.59,4165.0,4179.744000000001,4175.128,4162.436,4192.692,0,0
362,13,0,3100,4200.385,4211.795,4197.308,4198.974,4188.462,4203.846,4248.59,4176.667,4169.103,4188.205,4195.0,4197.436,4182.821,4213.462,0,0
363,14,0,3488,4203.974,4212.821,4199.359,4202.9490000000005,4180.128,4204.103,4262.436,4189.615,4177.179,4196.795,4197.179,4198.462,4188.333,4217.821,0,0
364,15,0,3481,4193.333,4193.59,4183.974,4194.744000000001,4178.462,4182.436,4252.9490000000005,4180.897,4171.795,4181.667,4187.179,4184.359,4174.744000000001,4204.231,0,0
365,16,0,0,4197.821,4203.59,4188.974,4192.308,4190.641,4187.308,4247.0509999999995,4181.923,4178.846,4185.128,4194.487,4191.41,4180.641,4209.487,0,0
366,17,0,0,4206.154,4222.564,4196.41,4197.564,4194.872,4202.0509999999995,4249.487,4191.538,4189.744000000001,4200.769,4207.9490000000005,4206.667,4193.59,4222.179,0,0
367,18,0,0,4202.179,4215.769,4186.795,4197.564,4191.026,4193.59,4248.077,4190.128,4183.846,4194.744000000001,4203.846,4200.255999999999,4186.538,4215.769,0,0
368,19,0,0,4194.103,4201.154,4182.0509999999995,4189.103,4185.769,4183.846,4238.974,4182.821,4171.795,4181.282,4196.282,4186.667,4176.026,4205.385,0,0
369,20,0,0,4193.974,4203.333,4188.205,4183.077,4183.205,4184.615,4231.026,4183.59,4172.692,4184.615,4199.359,4187.821,4180.769,4204.231,0,0
370,21,0,0,4198.59,4211.538,4189.487,4190.641,4187.0509999999995,4185.897,4230.255999999999,4195.0,4187.0509999999995,4195.255999999999,4202.179,4192.9490000000005,4184.103,4205.0,0,0
371,22,0,0,4194.615,4206.923,4184.487,4193.59,4179.615,4184.231,4220.128,4194.744000000001,4189.231,4192.692,4193.718,4186.154,4175.385,4199.744000000001,0,0
372,23,0,0,4193.718,4206.41,4189.872,4188.59,4177.692,4186.795,4210.0,4185.513,4182.308,4186.538,4189.103,4184.103,4176.538,4199.487,0,0
373,24,0,0,4204.487,4216.41,4199.744000000001,4192.9490000000005,4190.897,4190.0,4214.487,4187.308,4181.923,4189.359,4197.821,4195.128,4189.103,4208.462,0,0
374,25,0,0,4203.077,4210.255999999999,4192.692,4191.795,4183.333,4184.359,4211.282,4186.538,4176.795,4187.564,4195.641,4192.0509999999995,4181.667,4204.872,0,0
375,26,0,0,4193.462,4199.103,4183.462,4183.846,4174.103,4179.231,4194.103,4177.436,4170.385,4183.205,4185.0,4182.821,4167.436,4192.564,0,0
376,27,0,0,4187.564,4203.462,4183.59,4181.026,4181.41,4180.128,4185.0,4172.692,4168.205,4180.385,4185.897,4181.795,4171.026,4187.564,0,0
377,28,1,0,4187.564,4203.205,4182.821,4179.359,4180.385,4180.513,4184.744000000001,4173.077,4170.0,4181.667,4186.026,4181.795,4173.59,4187.9490000000005,0,0
378,29,1,0,4187.564,4202.9490000000005,4182.0509999999995,4177.692,4179.359,4180.897,4184.487,4173.462,4171.795,4182.9490000000005,4186.154,4181.795,4176.154,4188.333,0,0
379,30,1,0,4187.564,4202.692,4181.282,4176.026,4178.333,4181.282,4184.231,4173.846,4173.59,4184.231,4186.282,4181.795,4178.718,4188.718,0,0
380,31,1,0,4187.564,4202.436,4180.513,4174.359,4177.308,4181.667,4183.974,4174.231,4175.385,4185.513,4186.41,4181.795,4181.282,4189.103,0,0
381,32,1,0,4187.564,4202.179,4179.744000000001,4172.692,4176.282,4182.0509999999995,4183.718,4174.615,4177.179,4186.795,4186.538,4181.795,4183.846,4189.487,0,0
382,33,1,0,4187.564,4201.923,4178.974,4171.026,4175.255999999999,4182.436,4183.462,4175.0,4178.974,4188.077,4186.667,4181.795,4186.41,4189.872,0,0
383,34,0,0,4187.692,4201.154,4177.821,4168.846,4174.231,4182.821,4182.564,4175.897,4181.538,4189.487,4187.308,4181.282,4189.744000000001,4190.255999999999,0,0
384,35,0,0,4181.282,4192.821,4171.538,4167.821,4167.821,4177.692,4180.128,4172.692,4174.872,4181.923,4183.846,4177.0509999999995,4184.103,4185.769,0,0
385,36,0,0,4176.667,4189.359,4169.615,4170.0,4171.538,4173.59,4185.0,4166.026,4165.385,4170.0,4183.462,4171.795,4175.255999999999,4183.205,0,0
386,37,0,0,4184.744000000001,4200.769,4179.359,4174.615,4180.0,4184.103,4197.436,4168.59,4171.667,4176.154,4188.205,4181.795,4184.103,4191.795,0,0
387,38,0,0,4190.385,4205.513,4185.897,4175.128,4179.359,4190.385,4197.0509999999995,4172.564,4175.769,4188.205,4192.692,4188.846,4189.744000000001,4200.769,0,0
388,39,0,0,4186.538,4200.641,4182.564,4176.538,4181.282,4186.923,4193.333,4173.205,4172.692,4188.846,4194.231,4185.128,4183.846,4199.487,0,0
389,40,0,0,4187.692,4202.9490000000005,4177.9490000000005,4181.154,4186.923,4188.077,4200.255999999999,4174.359,4181.538,4187.0509999999995,4193.846,4184.359,4183.59,4199.103,0,0
390,41,0,0,4186.795,4201.667,4172.564,4177.0509999999995,4176.41,4183.718,4192.9490000000005,4168.846,4180.897,4178.974,4187.0509999999995,4179.744000000001,4179.872,4195.0,0,0
391,42,0,0,4171.282,4186.282,4162.179,4164.744000000001,4165.641,4176.41,4170.385,4157.179,4157.0509999999995,4159.231,4171.154,4164.615,4159.359,4174.872,0,0
392,43,0,0,4152.436,4169.231,4151.41,4154.231,4167.692,4171.154,4164.231,4141.923,4134.487,4138.718,4152.564,4151.154,4139.359,4151.795,0,0
393,44,0,0,4152.9490000000005,4168.846,4152.0509999999995,4152.9490000000005,4164.615,4166.154,4176.282,4139.615,4141.923,4140.897,4152.821,4152.692,4146.026,4153.59,0,0
394,45,0,0,4173.718,4189.615,4167.436,4165.0,4167.564,4174.103,4185.385,4158.205,4167.821,4170.0,4176.282,4166.41,4175.255999999999,4177.436,0,0
395,46,0,0,4188.846,4206.154,4181.41,4173.974,4183.077,4187.308,4186.154,4176.154,4177.9490000000005,4192.179,4193.59,4179.615,4194.744000000001,4195.0,0,0
396,47,0,0,4185.769,4197.0509999999995,4177.0509999999995,4168.462,4188.205,4186.667,4184.231,4177.308,4175.769,4189.872,4190.513,4185.128,4191.923,4194.872,0,0
397,48,0,0,4180.513,4187.179,4170.897,4167.692,4183.974,4181.026,4181.923,4171.154,4176.923,4185.769,4187.179,4184.872,4187.564,4190.385,0,0
398,49,0,0,4183.846,4196.154,4178.205,4170.641,4185.255999999999,4186.41,4184.103,4176.538,4174.231,4188.59,4190.513,4183.077,4189.103,4188.333,0,0
399,50,0,0,4183.333,4202.821,4184.487,4170.897,4188.462,4191.154,4196.282,4184.872,4172.692,4188.462,4190.641,4185.641,4189.872,4188.846,0,0
400,51,0,0,4175.0,4191.923,4177.308,4171.154,4181.282,4182.692,4197.0509999999995,4178.718,4175.255999999999,4186.41,4186.026,4183.462,4182.821,4188.077,0,0
401,52,0,0,4168.462,4183.205,4168.462,4166.795,4170.128,4175.769,4184.615,4166.538,4169.231,4183.718,4181.41,4171.667,4171.154,4181.538,0,0
402,53,0,0,4171.282,4193.718,4169.359,4160.769,4169.231,4183.205,4186.154,4170.513,4169.103,4185.641,4182.0509999999995,4168.077,4174.615,4179.487,0,0
403,54,0,0,4174.103,4200.769,4172.308,4158.846,4173.205,4187.821,4197.821,4179.231,4179.487,4187.179,4187.9490000000005,4173.205,4186.282,4186.026,0,0
404,55,0,0,4170.641,4190.0,4170.641,4156.923,4169.359,4176.026,4188.59,4172.0509999999995,4177.821,4175.641,4183.974,4173.846,4178.59,4182.564,0,0
405,56,0,0,4168.462,4179.615,4167.308,4149.615,4162.308,4164.231,4170.0,4160.897,4164.615,4164.872,4173.59,4167.436,4164.103,4172.821,0,0
406,57,0,0,4169.744000000001,4185.513,4168.718,4150.0,4167.692,4168.59,4174.231,4163.077,4165.385,4172.821,4176.795,4167.9490000000005,4172.436,4176.923,0,0
407,58,0,0,4172.308,4194.487,4173.333,4163.59,4177.179,4178.205,4185.641,4173.846,4181.41,4188.462,4189.231,4176.538,4187.692,4188.205,0,0
408,59,0,0,4174.359,4190.641,4173.333,4167.436,4176.538,4178.077,4183.333,4173.974,4180.897,4185.385,4185.897,4178.462,4182.821,4187.0509999999995,0,0
409,60,0,0,4174.872,4184.872,4168.462,4156.538,4168.077,4171.538,4180.897,4165.0,4165.128,4170.897,4175.0,4172.0509999999995,4171.795,4178.59,0,0
410,61,0,0,4168.077,4181.41,4165.255999999999,4150.385,4163.077,4169.231,4183.462,4161.923,4164.615,4167.821,4171.795,4163.333,4165.0,4173.462,0,0
411,62,0,0,4157.564,4175.0,4163.59,4156.026,4163.846,4165.385,4173.846,4160.513,4168.974,4166.026,4168.205,4158.59,4156.154,4167.821,0,0
412,63,0,0,4163.974,4178.077,4170.255999999999,4170.255999999999,4166.154,4165.255999999999,4170.385,4165.385,4163.718,4164.231,4171.923,4169.103,4158.205,4173.59,0,0
413,64,0,3239,4181.026,4194.231,4184.744000000001,4188.077,4168.974,4175.385,4194.359,4180.513,4169.487,4179.744000000001,4189.359,4187.9490000000005,4178.077,4192.821,0,0
414,65,0,3019,4178.846,4190.513,4182.0509999999995,4189.615,4170.255999999999,4176.41,4203.333,4181.41,4177.308,4188.59,4191.282,4184.744000000001,4181.282,4193.205,0,0
415,66,0,3447,4161.026,4169.872,4161.923,4184.231,4168.59,4165.769,4186.154,4163.59,4167.179,4169.744000000001,4174.744000000001,4167.9490000000005,4160.0,4174.103,0,0
416,67,0,3507,4159.872,4172.821,4157.9490000000005,4194.487,4165.513,4166.154,4178.718,4156.667,4161.154,4154.231,4169.103,4167.436,4156.154,4171.923,0,0
417,68,0,3564,4171.026,4184.872,4167.564,4205.0,4162.0509999999995,4170.385,4187.0509999999995,4163.462,4164.103,4157.692,4174.744000000001,4170.897,4169.487,4184.487,0,0
418,69,0,3182,4172.821,4183.974,4168.718,4208.718,4166.154,4169.487,4194.744000000001,4167.564,4165.255999999999,4165.769,4174.872,4169.231,4170.128,4182.692,0,0
419,70,0,3135,4172.179,4186.41,4165.641,4214.103,4174.103,4171.923,4198.846,4166.667,4165.385,4169.103,4174.487,4170.641,4169.231,4177.0509999999995,0,0
420,71,0,3497,4170.255999999999,4185.897,4158.462,4210.641,4173.59,4168.974,4192.9490000000005,4160.513,4162.9490000000005,4161.026,4170.128,4167.436,4171.026,4172.308,0,0
421,72,0,3018,4156.41,4171.41,4143.205,4193.974,4161.026,4154.744000000001,4176.154,4144.359,4154.744000000001,4148.974,4157.9490000000005,4154.487,4157.692,4158.333,0,0
422,73,0,3606,4147.308,4164.359,4138.333,4189.744000000001,4150.255999999999,4150.513,4172.9490000000005,4138.333,4150.0,4148.718,4154.231,4148.974,4145.128,4148.974,0,0
423,74,0,3486,4150.255999999999,4169.615,4142.179,4198.59,4157.308,4161.923,4179.872,4148.974,4154.487,4152.564,4160.385,4153.205,4152.0509999999995,4154.231,0,0
424,75,0,3481,4152.0509999999995,4170.255999999999,4143.333,4202.0509999999995,4168.333,4171.538,4178.077,4156.026,4158.333,4152.692,4163.846,4155.0,4160.128,4161.41,0,0
425,76,0,3050,4153.333,4168.59,4146.923,4197.308,4161.026,4167.436,4180.0,4155.128,4158.59,4155.128,4165.769,4153.205,4160.0,4165.0,0,0
426,77,0,3100,4156.154,4168.205,4148.59,4188.846,4145.769,4158.846,4185.128,4153.462,4155.641,4155.513,4167.692,4153.846,4160.513,4166.154,0,0
427,78,0,3486,4157.692,4167.436,4143.974,4184.359,4153.077,4162.0509999999995,4180.897,4152.9490000000005,4152.564,4154.487,4165.641,4159.615,4160.769,4165.255999999999,0,0
428,79,0,3481,4167.692,4180.0,4154.872,4190.769,4178.846,4179.487,4187.308,4161.282,4160.128,4165.128,4171.667,4169.872,4171.026,4177.0509999999995,0,0
429,80,0,3050,4176.154,4190.255999999999,4167.308,4200.255999999999,4187.308,4184.359,4200.385,4169.487,4172.0509999999995,4175.513,4179.744000000001,4174.103,4181.667,4186.538,0,0
430,81,0,3100,4169.103,4177.821,4160.0,4198.462,4173.846,4172.179,4190.769,4167.436,4174.615,4172.692,4171.154,4169.359,4176.026,4173.846,0,0
431,82,0,3486,4166.41,4174.231,4159.359,4193.077,4166.026,4169.359,4183.718,4166.41,4169.359,4169.487,4171.667,4169.744000000001,4171.026,4169.359,0,0
432,83,0,3481,4173.462,4184.359,4167.179,4192.436,4172.308,4170.255999999999,4193.462,4165.0,4164.744000000001,4174.487,4185.513,4174.615,4174.231,4181.41,0,0
433,84,0,3050,4168.205,4178.718,4159.231,4187.179,4169.872,4159.487,4188.718,4153.205,4158.462,4170.769,4177.821,4168.846,4167.179,4177.436,0,0
434,85,0,3100,4163.462,4169.103,4156.538,4183.205,4162.9490000000005,4158.077,4181.282,4153.718,4157.692,4163.462,4165.769,4164.231,4161.538,4168.718,0,0
435,86,0,3486,4179.231,4182.179,4179.359,4195.641,4173.462,4178.59,4199.103,4179.615,4178.077,4182.564,4187.308,4182.308,4180.255999999999,4190.641,0,0
436,87,0,3481,4189.615,4194.103,4190.513,4208.718,4189.231,4188.077,4211.923,4194.359,4195.128,4204.231,4206.154,4194.487,4196.667,4207.821,0,0
437,88,0,3050,4175.128,4181.923,4172.692,4198.974,4178.59,4175.513,4195.513,4175.255999999999,4184.231,4190.897,4185.128,4176.026,4183.077,4189.103,0,0
438,89,0,3100,4165.128,4170.0,4165.385,4185.255999999999,4153.59,4163.846,4182.436,4157.9490000000005,4167.308,4167.0509999999995,4168.205,4162.308,4170.641,4173.718,0,0
439,90,0,3486,4173.718,4177.692,4173.974,4186.923,4158.718,4166.923,4190.0,4164.103,4168.974,4169.231,4182.436,4171.667,4175.513,4183.077,0,0
440,91,0,3481,4177.179,4189.359,4173.59,4188.333,4181.282,4179.487,4201.026,4172.308,4174.615,4181.282,4188.59,4176.538,4178.59,4191.282,0,0
441,92,0,3050,4169.103,4181.795,4163.846,4182.0509999999995,4186.41,4181.538,4198.59,4168.846,4170.897,4179.872,4174.744000000001,4167.436,4172.436,4180.128,0,0
442,93,0,3100,4166.282,4171.282,4165.897,4181.41,4179.615,4175.641,4191.282,4167.436,4172.0509999999995,4176.667,4172.564,4167.0509999999995,4171.538,4171.667,0,0
443,94,0,3486,4166.282,4172.436,4168.974,4180.0,4175.897,4173.333,4186.667,4170.255999999999,4173.59,4176.41,4178.718,4172.9490000000005,4173.462,4174.487,0,0
444,95,0,3481,4164.103,4172.0509999999995,4160.897,4176.282,4171.026,4170.897,4183.974,4168.333,4164.744000000001,4171.41,4171.41,4168.462,4168.205,4175.255999999999,0,0
445,96,0,3050,4165.769,4171.923,4160.769,4179.872,4165.513,4171.538,4189.231,4169.872,4166.282,4170.897,4170.0,4164.359,4168.333,4176.154,0,0
446,97,0,3100,4175.769,4184.231,4176.026,4187.821,4175.255999999999,4184.872,4204.231,4186.41,4187.436,4184.744000000001,4187.179,4176.538,4182.9490000000005,4187.0509999999995,0,0
447,98,0,3486,4176.538,4187.821,4176.282,4183.333,4180.513,4188.846,4208.205,4194.744000000001,4191.026,4189.615,4188.205,4178.333,4184.615,4189.359,0,0
448,99,0,3481,4160.769,4169.359,4153.974,4170.0,4173.077,4170.0,4191.026,4176.026,4166.41,4169.231,4164.231,4155.255999999999,4163.718,4169.103,0,0
449,100,0,3050,4157.9490000000005,4165.255999999999,4149.103,4171.41,4173.077,4167.0509999999995,4186.282,4164.615,4161.795,4162.0509999999995,4158.205,4146.538,4161.41,4159.231,0,0
450,101,0,3100,4175.513,4184.359,4168.846,4186.667,4176.538,4184.872,4202.308,4179.872,4187.564,4182.179,4177.179,4163.59,4184.744000000001,4177.821,0,0
451,102,0,3486,4181.154,4191.795,4172.9490000000005,4192.179,4176.667,4189.487,4199.615,4188.333,4195.385,4192.692,4182.0509999999995,4170.128,4194.231,4188.077,0,0
452,103,0,3481,4168.205,4184.359,4159.872,4185.897,4181.282,4181.026,4186.667,4180.128,4180.513,4181.667,4170.255999999999,4162.9490000000005,4186.026,4179.359,0,0
453,104,0,3050,4166.154,4183.077,4161.795,4185.897,4188.718,4181.538,4191.41,4177.564,4180.385,4178.333,4171.923,4166.154,4186.026,4178.333,0,0
454,105,0,3100,4173.205,4185.641,4170.0,4188.333,4180.769,4184.231,4196.538,4177.9490000000005,4185.385,4184.359,4176.667,4170.641,4189.487,4180.128,0,0
455,106,0,3486,4169.231,4184.103,4166.923,4184.615,4163.974,4175.385,4187.436,4170.897,4172.564,4178.462,4171.026,4166.154,4179.103,4172.179,0,0
456,107,0,3481,4165.641,4184.615,4167.308,4183.718,4164.487,4168.077,4183.462,4168.333,4163.205,4168.846,4169.872,4165.641,4172.436,4171.795,0,0
457,108,0,3050,4169.487,4184.359,4171.538,4184.359,4179.231,4173.846,4191.923,4171.538,4176.41,4168.974,4171.154,4168.846,4179.744000000001,4175.255999999999,0,0
458,109,0,3100,4171.795,4183.462,4169.872,4183.077,4183.59,4183.333,4200.513,4174.872,4185.769,4171.667,4170.769,4166.923,4181.282,4171.667,0,0
459,110,0,3486,4169.615,4185.0,4170.641,4183.077,4172.564,4184.103,4200.513,4183.846,4180.255999999999,4176.026,4175.128,4167.308,4177.821,4174.231,0,0
460,111,0,3481,4167.692,4184.103,4173.59,4183.718,4169.872,4181.282,4196.41,4183.077,4170.128,4175.0,4175.128,4169.615,4176.795,4179.615,0,0
461,112,0,3050,4174.487,4184.615,4175.641,4182.179,4183.333,4184.487,4199.103,4173.205,4171.282,4174.615,4173.846,4169.872,4178.462,4181.154,0,0
462,113,0,3100,4185.769,4193.333,4182.436,4182.0509999999995,4186.667,4186.923,4204.103,4177.179,4180.128,4180.385,4178.077,4173.846,4182.0509999999995,4185.769,0,0
463,114,0,3486,4188.462,4201.026,4187.0509999999995,4185.0,4173.462,4184.103,4204.231,4179.615,4170.641,4178.59,4177.564,4175.897,4181.154,4187.692,0,0
464,115,0,3481,4185.0,4199.487,4180.385,4187.564,4175.769,4182.9490000000005,4203.462,4168.333,4157.564,4170.128,4173.59,4174.744000000001,4176.795,4185.769,0,0
465,116,0,3050,4186.795,4196.667,4177.9490000000005,4186.923,4192.179,4184.615,4201.795,4164.872,4166.026,4168.333,4177.179,4177.692,4178.974,4186.795,0,0
466,117,0,3100,4188.846,4201.41,4182.308,4185.769,4184.103,4185.128,4198.718,4169.359,4175.769,4174.872,4182.308,4180.0,4185.128,4186.795,0,0
467,118,0,3486,4184.872,4200.255999999999,4179.231,4186.795,4166.538,4181.667,4194.103,4170.255999999999,4172.436,4183.205,4180.513,4175.128,4183.077,4187.0509999999995,0,0
468,119,0,3481,4181.41,4188.333,4170.255999999999,4181.667,4175.255999999999,4174.359,4181.154,4168.333,4172.692,4183.846,4176.923,4171.026,4176.41,4187.564,0,0
469,120,0,3050,4177.308,4182.9490000000005,4166.538,4170.128,4184.103,4167.0509999999995,4165.897,4158.974,4165.128,4169.744000000001,4171.667,4169.615,4167.692,4178.846,0,0
470,121,0,3100,4172.821,4189.615,4164.872,4168.333,4176.923,4171.795,4170.641,4150.128,4158.59,4163.846,4169.744000000001,4164.615,4164.744000000001,4172.564,0,0
471,122,0,3486,4170.0,4189.103,4156.795,4170.897,4175.0,4179.872,4184.231,4153.077,4169.103,4171.923,4169.487,4159.615,4170.255999999999,4174.103,0,0
472,123,0,3481,4166.923,4181.154,4151.154,4166.41,4173.333,4176.923,4184.359,4152.436,4163.462,4166.154,4167.564,4157.9490000000005,4170.385,4170.769,0,0
473,124,0,3050,4169.103,4182.564,4155.769,4165.897,4170.641,4174.103,4180.769,4152.564,4150.0,4157.308,4169.231,4156.923,4172.692,4168.718,0,0
474,125,0,3100,4166.923,4180.897,4154.872,4162.179,4168.974,4172.9490000000005,4180.255999999999,4153.205,4153.333,4156.667,4163.718,4152.308,4170.0,4168.205,0,0
475,126,0,3486,4160.513,4175.255999999999,4149.231,4150.897,4168.077,4167.821,4178.462,4149.231,4157.692,4159.103,4157.564,4151.795,4162.9490000000005,4164.487,0,0
476,127,0,52,4169.744000000001,4182.564,4160.513,4156.538,4172.0509999999995,4169.103,4180.897,4157.564,4160.769,4170.513,4167.564,4164.103,4172.9490000000005,4169.487,0,0
477,0,0,3238,4185.897,4195.769,4176.41,4171.026,4177.821,4180.385,4192.692,4171.538,4177.0509999999995,4183.205,4180.513,4173.846,4185.641,4181.282,0,0
478,1,0,3021,4188.462,4198.974,4176.41,4170.255999999999,4185.128,4188.205,4203.462,4173.462,4188.718,4188.59,4184.359,4174.231,4185.385,4187.436,0,0
479,2,0,3447,4178.333,4192.0509999999995,4172.0509999999995,4164.744000000001,4190.0,4186.026,4205.513,4170.513,4181.667,4184.103,4183.205,4171.795,4185.897,4184.872,0,0
480,3,0,3512,4171.282,4185.769,4172.308,4168.077,4186.923,4183.462,4200.897,4168.846,4171.538,4173.974,4177.179,4170.255999999999,4186.026,4176.41,0,0
481,4,0,3565,4170.385,4186.923,4166.923,4167.9490000000005,4179.487,4184.359,4201.154,4163.462,4168.462,4174.359,4171.026,4170.128,4176.282,4170.255999999999,0,0
482,5,0,3188,4168.333,4185.0,4156.795,4158.333,4174.615,4182.9490000000005,4204.103,4157.0509999999995,4173.718,4182.436,4172.436,4169.615,4172.692,4170.513,0,0
483,6,0,3143,4164.487,4173.718,4152.692,4151.026,4171.795,4179.231,4196.923,4153.974,4171.795,4176.154,4171.923,4163.718,4175.513,4168.333,0,0
484,7,0,3494,4165.385,4170.513,4153.333,4151.282,4172.436,4175.897,4196.41,4153.462,4166.41,4166.538,4168.462,4161.282,4171.538,4163.718,0,0
485,8,0,3008,4171.026,4175.385,4155.897,4155.513,4179.103,4174.744000000001,4205.897,4157.692,4171.41,4172.9490000000005,4169.487,4168.59,4171.795,4166.41,0,0
486,9,0,3600,4170.897,4174.231,4155.513,4154.615,4178.077,4174.231,4196.923,4154.487,4165.513,4167.564,4168.077,4165.897,4172.564,4169.487,0,0
487,10,0,3484,4165.897,4168.846,4151.795,4145.641,4166.667,4171.282,4182.308,4143.077,4152.179,4151.41,4163.205,4153.077,4162.308,4165.0,0,0
488,11,0,3478,4165.897,4168.718,4152.308,4144.103,4164.872,4169.359,4189.103,4147.308,4161.154,4158.718,4165.897,4155.897,4163.846,4165.255999999999,0,0
489,12,0,3047,4167.436,4175.513,4155.769,4151.154,4175.513,4169.487,4192.692,4161.667,4173.462,4173.205,4170.513,4169.487,4182.308,4169.487,0,0
490,13,0,3098,4166.923,4181.538,4153.718,4152.308,4174.744000000001,4172.0509999999995,4182.179,4166.282,4171.026,4177.9490000000005,4171.154,4167.692,4183.462,4166.795,0,0
491,14,0,3484,4171.795,4183.59,4157.692,4148.59,4164.487,4172.821,4186.795,4165.128,4174.615,4181.026,4173.846,4162.436,4173.205,4167.692,0,0
492,15,0,3478,4188.846,4194.231,4175.641,4154.872,4177.821,4173.077,4203.077,4169.744000000001,4180.128,4185.385,4183.462,4175.769,4179.231,4187.692,0,0
493,16,0,0,4206.41,4209.744000000001,4184.615,4163.846,4186.667,4176.282,4204.872,4172.564,4173.59,4191.026,4193.974,4189.231,4186.923,4209.103,0,0
494,17,0,0,4219.487,4220.641,4184.487,4167.308,4170.769,4181.923,4198.974,4172.0509999999995,4174.487,4196.667,4198.718,4189.744000000001,4181.026,4220.897,0,0
495,18,0,0,4240.769,4238.462,4191.41,4177.692,4171.282,4185.513,4195.897,4171.538,4179.487,4194.359,4202.308,4195.128,4174.103,4240.385,0,0
496,19,0,0,4267.436,4258.462,4200.897,4192.179,4184.872,4181.538,4196.154,4168.462,4170.385,4184.872,4209.103,4208.333,4169.872,4265.0,0,0
497,20,0,0,4289.872,4270.897,4213.077,4203.718,4183.333,4184.487,4208.077,4176.667,4172.821,4188.205,4220.641,4223.462,4169.359,4288.333,0,0
498,21,0,0,4289.744000000001,4273.205,4216.795,4204.744000000001,4183.59,4186.282,4215.128,4184.487,4181.282,4187.821,4222.564,4229.359,4163.462,4296.923,0,0
499,22,0,0,4282.821,4269.359,4210.769,4198.846,4199.615,4182.179,4217.179,4183.462,4173.846,4178.333,4215.255999999999,4226.923,4156.154,4289.231,0,0
500,23,0,0,4294.487,4267.436,4217.821,4199.359,4206.667,4190.897,4229.744000000001,4193.333,4171.538,4188.59,4220.769,4230.255999999999,4174.359,4289.487,0,0
501,24,0,0,4294.487,4265.128,4228.846,4202.436,4197.436,4197.436,4238.59,4206.795,4187.179,4208.974,4233.974,4237.308,4200.769,4295.128,0,0
502,25,0,0,4273.205,4258.718,4223.462,4202.564,4193.846,4192.179,4234.487,4207.564,4201.282,4212.436,4235.897,4233.846,4204.744000000001,4284.744000000001,0,0
503,26,0,0,4255.255999999999,4242.436,4212.692,4196.282,4189.872,4188.59,4228.077,4196.923,4196.538,4205.0,4221.923,4220.641,4197.9490000000005,4260.255999999999,0,0
504,27,0,0,4241.538,4228.205,4204.872,4185.385,4185.128,4190.128,4227.0509999999995,4188.718,4190.641,4201.41,4208.846,4208.205,4195.897,4238.846,0,0
505,28,0,0,4221.923,4217.564,4192.821,4176.282,4187.179,4188.718,4229.744000000001,4181.795,4185.0,4191.282,4199.872,4193.59,4185.385,4218.205,0,0
506,29,0,0,4201.282,4200.255999999999,4179.615,4164.872,4191.154,4186.282,4230.641,4174.359,4172.564,4178.333,4185.385,4182.179,4170.513,4193.077,0,0
507,30,0,0,4186.282,4188.59,4170.641,4155.255999999999,4190.897,4189.103,4227.0509999999995,4175.513,4169.359,4180.641,4177.9490000000005,4180.769,4171.41,4179.487,0,0
508,31,0,0,4182.9490000000005,4191.282,4172.0509999999995,4161.026,4189.231,4192.308,4227.821,4179.872,4180.0,4188.846,4184.231,4181.667,4183.462,4183.333,0,0
509,32,0,0,4187.564,4193.205,4173.718,4169.744000000001,4188.333,4193.205,4230.641,4176.795,4188.718,4189.744000000001,4187.692,4178.846,4190.641,4187.0509999999995,0,0
510,33,0,0,4171.923,4176.923,4157.308,4153.846,4182.9490000000005,4186.538,4218.205,4166.538,4176.538,4178.718,4172.436,4165.128,4181.41,4169.744000000001,0,0
511,34,0,0,4150.0,4164.359,4144.487,4136.41,4182.179,4180.0,4204.103,4163.077,4166.538,4167.821,4155.769,4150.641,4167.821,4151.795,0,0
512,35,0,0,4155.513,4174.359,4152.436,4144.231,4186.795,4184.231,4215.128,4169.872,4173.205,4169.103,4155.769,4155.385,4173.333,4154.872,0,0
513,36,0,0,4168.718,4186.026,4160.769,4155.128,4182.692,4189.359,4235.0,4177.308,4179.103,4176.923,4162.564,4167.692,4184.487,4160.897,0,0
514,37,0,0,4159.615,4179.487,4155.897,4153.333,4171.667,4181.41,4225.897,4172.9490000000005,4171.282,4175.0,4158.846,4159.231,4176.923,4150.641,0,0
515,38,0,0,4148.333,4165.0,4151.026,4147.179,4169.872,4172.308,4199.487,4164.359,4161.923,4162.564,4150.641,4147.9490000000005,4170.513,4141.026,0,0
516,39,0,0,4157.0509999999995,4169.359,4157.821,4146.026,4181.667,4180.385,4194.615,4176.41,4176.538,4168.846,4159.744000000001,4161.667,4180.897,4151.41,0,0
517,40,0,0,4166.923,4181.795,4166.538,4154.872,4189.744000000001,4191.538,4209.872,4192.692,4195.769,4189.872,4175.128,4173.333,4181.667,4166.538,0,0
518,41,0,0,4157.821,4176.795,4161.282,4160.641,4188.333,4187.564,4212.308,4184.103,4184.231,4179.231,4167.9490000000005,4161.667,4169.487,4159.487,0,0
519,42,0,0,4142.9490000000005,4160.385,4146.282,4152.692,4181.282,4179.872,4200.255999999999,4166.538,4160.769,4151.026,4148.718,4143.718,4164.744000000001,4138.077,0,0
520,43,0,0,4143.846,4154.231,4139.872,4152.564,4168.974,4183.718,4196.923,4167.692,4170.385,4152.308,4148.333,4143.205,4168.333,4133.205,0,0
521,44,0,0,4150.385,4158.974,4143.205,4167.692,4167.9490000000005,4186.795,4199.359,4176.795,4190.897,4165.128,4155.513,4148.974,4172.692,4140.513,0,0
522,45,0,0,4140.513,4155.0,4139.615,4173.718,4171.667,4176.538,4192.436,4170.641,4177.436,4153.205,4144.103,4142.0509999999995,4171.282,4130.255999999999,0,0
523,46,0,0,4134.744000000001,4151.282,4133.462,4175.255999999999,4159.103,4168.974,4185.641,4163.718,4169.615,4145.769,4138.077,4140.255999999999,4166.282,4123.59,0,0
524,47,0,0,4148.59,4160.128,4141.795,4183.077,4149.103,4172.308,4189.231,4170.641,4189.103,4162.179,4153.077,4153.205,4167.0509999999995,4144.103,0,0
525,48,0,0,4155.641,4162.821,4154.231,4194.744000000001,4161.282,4174.744000000001,4189.872,4173.846,4185.769,4167.9490000000005,4159.359,4162.9490000000005,4170.128,4158.59,0,0
526,49,0,0,4150.0,4154.872,4155.0,4200.128,4177.179,4178.205,4188.077,4170.513,4170.897,4163.846,4151.667,4162.308,4169.359,4152.821,0,0
527,50,0,0,4151.154,4151.154,4152.179,4191.41,4173.077,4182.0509999999995,4188.462,4171.026,4175.641,4163.846,4152.308,4162.436,4167.436,4150.769,0,0
528,51,0,0,4157.0509999999995,4156.282,4154.615,4189.872,4168.462,4174.744000000001,4188.59,4172.0509999999995,4180.0,4163.205,4159.487,4166.795,4168.59,4158.205,0,0
529,52,0,0,4157.564,4160.641,4155.513,4199.487,4170.897,4168.205,4187.821,4171.154,4168.846,4156.154,4158.077,4171.923,4166.667,4151.667,0,0
530,53,0,0,4153.462,4152.564,4151.795,4192.308,4161.923,4167.564,4179.231,4165.0,4158.462,4148.974,4149.744000000001,4165.513,4158.59,4139.103,0,0
531,54,0,0,4159.359,4152.0509999999995,4157.9490000000005,4180.0,4157.821,4167.9490000000005,4184.487,4163.846,4165.769,4158.846,4153.974,4161.538,4161.026,4155.385,0,0
532,55,0,0,4172.436,4167.436,4166.538,4187.821,4168.846,4177.436,4217.9490000000005,4179.872,4183.718,4175.897,4169.487,4173.974,4176.154,4181.795,0,0
533,56,0,0,4172.692,4169.872,4160.769,4190.0,4173.718,4180.769,4235.513,4186.026,4187.692,4178.718,4172.308,4176.154,4177.9490000000005,4178.077,0,0
534,57,0,0,4166.795,4156.154,4152.821,4183.718,4172.821,4172.179,4223.974,4172.179,4171.41,4166.667,4164.103,4167.692,4170.769,4165.255999999999,0,0
535,58,0,0,4164.744000000001,4154.487,4153.205,4183.462,4173.333,4170.0,4213.974,4165.255999999999,4160.385,4158.077,4160.0,4167.308,4170.128,4168.974,0,0
536,59,0,0,4161.923,4161.923,4152.0509999999995,4180.641,4170.0,4171.026,4210.385,4168.205,4161.795,4158.718,4157.692,4166.667,4166.795,4168.333,0,0
537,60,0,0,4165.641,4167.308,4158.59,4188.077,4176.538,4177.0509999999995,4217.308,4177.9490000000005,4174.359,4172.564,4164.231,4167.179,4176.538,4165.513,0,0
538,61,0,0,4176.154,4176.41,4174.487,4200.385,4191.795,4194.487,4231.41,4197.0509999999995,4194.615,4191.282,4181.154,4178.205,4196.667,4173.333,0,0
539,62,0,0,4177.179,4185.513,4175.769,4198.846,4186.795,4198.846,4223.846,4206.282,4197.821,4190.641,4187.692,4182.564,4195.128,4178.59,0,0
540,63,0,0,4170.769,4182.9490000000005,4169.872,4193.974,4176.923,4184.487,4208.077,4195.128,4186.154,4183.205,4178.205,4175.641,4183.077,4176.282,0,0
541,64,0,3237,4169.487,4178.462,4172.564,4195.513,4190.0,4185.255999999999,4217.308,4189.744000000001,4181.538,4184.231,4171.538,4172.9490000000005,4189.487,4174.487,0,0
542,65,0,3015,4169.744000000001,4176.026,4167.0509999999995,4189.487,4183.205,4187.436,4225.0,4187.9490000000005,4186.795,4178.974,4168.718,4172.9490000000005,4189.103,4169.744000000001,0,0
543,66,0,3442,4165.128,4171.923,4156.538,4182.179,4147.308,4173.846,4214.487,4173.974,4181.538,4165.255999999999,4157.821,4167.308,4170.897,4161.923,0,0
544,67,0,3507,4165.385,4176.154,4163.59,4194.103,4157.436,4178.974,4220.128,4171.667,4172.564,4168.462,4156.667,4165.897,4174.487,4163.974,0,0
545,68,0,3565,4176.538,4189.744000000001,4179.487,4207.436,4209.744000000001,4198.59,4235.0,4188.974,4184.103,4187.821,4173.333,4175.641,4193.846,4172.692,0,0
546,69,0,3187,4170.897,4180.769,4171.795,4192.564,4208.077,4192.9490000000005,4227.692,4185.641,4187.9490000000005,4182.436,4169.872,4171.538,4184.359,4164.487,0,0
547,70,0,3140,4147.9490000000005,4155.513,4151.282,4166.154,4166.41,4176.923,4208.846,4163.462,4165.769,4155.385,4146.923,4152.821,4161.282,4147.0509999999995,0,0
548,71,0,3492,4154.487,4163.077,4156.923,4170.513,4176.538,4183.846,4203.333,4170.128,4163.333,4155.128,4151.923,4157.179,4168.718,4152.564,0,0
549,72,0,3008,4179.615,4191.923,4173.718,4190.385,4207.436,4192.821,4212.436,4191.282,4187.179,4183.077,4173.462,4179.103,4190.769,4172.179,0,0
550,73,0,3598,4174.872,4187.821,4173.077,4186.795,4187.564,4183.205,4224.231,4188.077,4186.154,4187.179,4172.9490000000005,4177.0509999999995,4188.462,4170.641,0,0
551,74,0,3484,4161.282,4167.0509999999995,4166.282,4170.513,4164.487,4181.667,4228.718,4180.255999999999,4175.128,4169.487,4166.538,4165.769,4178.974,4158.205,0,0
552,75,0,3475,4165.0,4169.615,4164.103,4167.692,4180.641,4193.846,4221.667,4185.769,4191.282,4176.026,4169.103,4169.615,4183.846,4160.897,0,0
553,76,0,3047,4161.026,4170.897,4156.538,4172.179,4180.255999999999,4191.667,4214.487,4184.359,4196.923,4187.308,4163.462,4166.923,4185.128,4161.667,0,0
554,77,0,3100,4149.487,4156.026,4148.333,4165.641,4150.769,4175.513,4214.359,4172.821,4173.846,4171.667,4151.538,4154.231,4175.255999999999,4145.0,0,0
555,78,0,3484,4149.359,4153.846,4147.436,4160.128,4154.615,4169.231,4216.282,4166.795,4163.718,4159.231,4148.974,4149.744000000001,4170.641,4137.692,0,0
556,79,0,3475,4150.641,4158.077,4147.179,4164.744000000001,4177.0509999999995,4170.769,4214.231,4166.923,4176.795,4166.795,4151.154,4152.564,4171.795,4146.795,0,0
557,80,0,3047,4155.128,4159.103,4151.026,4170.385,4174.487,4175.641,4213.333,4175.769,4186.923,4171.41,4154.231,4161.923,4176.795,4154.103,0,0
558,81,0,3100,4167.436,4166.154,4156.026,4168.077,4168.59,4184.872,4215.128,4183.718,4187.692,4171.282,4157.692,4166.538,4181.795,4156.667,0,0
559,82,0,3484,4168.846,4167.436,4154.103,4166.282,4173.462,4185.897,4215.641,4178.333,4182.308,4171.795,4154.615,4158.205,4180.769,4153.462,0,0
560,83,0,3475,4159.487,4163.974,4151.282,4171.282,4174.487,4177.564,4217.308,4170.513,4174.103,4168.205,4151.795,4152.692,4177.308,4150.897,0,0
561,84,0,3047,4153.974,4167.0509999999995,4149.103,4166.026,4167.564,4170.769,4216.154,4170.385,4171.538,4167.308,4153.077,4154.487,4174.487,4151.538,0,0
562,85,0,3100,4155.641,4166.41,4149.359,4159.744000000001,4162.821,4171.795,4219.615,4173.974,4175.769,4172.0509999999995,4152.436,4156.41,4174.615,4150.255999999999,0,0
563,86,0,3484,4168.974,4171.795,4159.872,4173.59,4178.077,4182.564,4233.846,4184.103,4187.308,4183.718,4160.769,4165.641,4184.231,4159.359,0,0
564,87,0,3475,4179.359,4184.615,4169.872,4183.846,4190.897,4190.0,4234.231,4187.692,4191.154,4187.9490000000005,4174.359,4173.974,4190.513,4172.9490000000005,0,0
565,88,0,3047,4172.821,4178.462,4167.692,4172.436,4177.179,4183.718,4215.769,4173.333,4176.026,4175.897,4169.487,4168.077,4181.538,4167.179,0,0
566,89,0,3100,4169.359,4167.821,4166.667,4166.795,4164.359,4178.974,4216.795,4166.154,4167.179,4167.692,4155.385,4164.359,4177.308,4154.487,0,0
567,90,0,3484,4175.513,4172.436,4172.821,4171.795,4175.0,4186.026,4222.564,4170.897,4177.564,4172.0509999999995,4155.513,4167.564,4182.308,4158.59,0,0
568,91,0,3475,4170.0,4173.59,4167.821,4167.436,4178.462,4188.462,4198.59,4169.872,4177.436,4170.128,4155.897,4162.692,4181.795,4157.436,0,0
569,92,0,3047,4164.231,4171.41,4161.026,4165.128,4169.872,4183.333,4185.513,4166.795,4168.59,4167.308,4153.59,4161.026,4184.744000000001,4151.667,0,0
570,93,0,3100,4169.615,4173.077,4166.538,4170.128,4174.872,4182.436,4193.59,4165.385,4175.0,4172.179,4162.0509999999995,4166.026,4183.333,4161.538,0,0
571,94,0,3484,4174.231,4173.718,4171.538,4171.795,4187.179,4186.923,4190.769,4170.769,4186.41,4174.872,4169.359,4170.0,4176.538,4170.897,0,0
572,95,0,3475,4171.538,4175.897,4170.513,4164.359,4188.974,4187.564,4183.974,4183.974,4189.231,4176.667,4167.436,4175.641,4180.897,4170.641,0,0
573,96,0,3047,4170.0,4179.487,4169.103,4157.308,4182.9490000000005,4184.744000000001,4185.128,4189.231,4187.0509999999995,4178.59,4166.667,4178.462,4188.205,4170.255999999999,0,0
574,97,0,3100,4176.667,4179.487,4170.255999999999,4164.487,4174.487,4185.255999999999,4191.026,4186.282,4183.846,4177.564,4170.385,4176.154,4187.821,4170.641,0,0
575,98,0,3484,4180.255999999999,4174.103,4168.333,4166.026,4164.615,4185.0,4206.923,4185.0,4178.974,4170.128,4168.718,4171.41,4181.538,4167.436,0,0
576,99,0,3475,4177.179,4170.0,4167.436,4157.692,4173.333,4182.692,4220.641,4185.128,4178.846,4167.179,4164.615,4170.0,4175.769,4167.564,0,0
577,100,0,3047,4181.923,4177.821,4171.026,4164.615,4187.179,4183.333,4208.974,4182.821,4187.179,4176.026,4168.205,4175.0,4176.923,4174.231,0,0
578,101,0,3100,4188.846,4187.179,4173.077,4174.615,4172.692,4184.744000000001,4197.821,4176.795,4185.385,4177.436,4172.0509999999995,4177.308,4180.641,4174.615,0,0
579,102,0,3484,4186.667,4184.744000000001,4176.667,4168.205,4164.872,4184.103,4209.103,4167.9490000000005,4173.846,4166.667,4169.615,4171.795,4180.513,4173.846,0,0
580,103,0,3475,4186.538,4182.9490000000005,4183.59,4164.744000000001,4183.846,4183.974,4218.974,4168.718,4173.718,4164.872,4166.41,4172.308,4182.564,4179.615,0,0
581,104,0,3047,4190.128,4186.923,4183.846,4169.744000000001,4189.359,4185.897,4220.255999999999,4177.436,4180.769,4175.641,4169.487,4180.128,4185.641,4180.897,0,0
582,105,0,3100,4186.41,4186.795,4174.872,4169.872,4179.231,4186.923,4223.205,4174.744000000001,4176.795,4175.897,4171.538,4176.795,4181.923,4173.718,0,0
583,106,0,3484,4182.0509999999995,4182.821,4170.385,4166.154,4182.9490000000005,4184.487,4219.615,4167.179,4174.487,4169.359,4168.59,4167.436,4178.974,4167.308,0,0
584,107,0,3475,4182.692,4181.538,4176.154,4163.333,4185.641,4184.231,4214.103,4174.487,4182.0509999999995,4176.154,4166.41,4168.462,4179.744000000001,4170.128,0,0
585,108,0,3047,4185.513,4185.641,4182.0509999999995,4166.026,4182.0509999999995,4185.255999999999,4227.692,4184.872,4186.026,4185.255999999999,4171.923,4177.564,4184.872,4178.462,0,0
586,109,0,3100,4189.744000000001,4188.205,4184.359,4170.0,4185.513,4185.897,4247.308,4185.641,4184.872,4185.641,4180.769,4184.615,4191.538,4186.923,0,0
587,110,0,3484,4192.692,4187.9490000000005,4189.615,4168.59,4188.846,4192.9490000000005,4254.615,4191.026,4184.103,4188.462,4185.897,4189.487,4190.897,4193.077,0,0
588,111,0,3475,4197.0509999999995,4193.077,4194.231,4168.59,4188.846,4198.59,4260.385,4203.974,4192.564,4197.179,4192.821,4194.872,4193.846,4199.359,0,0
589,112,0,3047,4201.538,4197.179,4190.897,4172.564,4189.231,4194.872,4270.0,4203.846,4202.692,4201.923,4197.436,4195.0,4199.872,4200.513,0,0
590,113,0,3100,4195.513,4189.744000000001,4180.385,4167.821,4187.308,4189.615,4268.718,4191.795,4196.667,4199.744000000001,4190.513,4185.897,4193.205,4190.385,0,0
591,114,0,3484,4183.846,4182.564,4176.41,4158.846,4177.821,4187.179,4257.0509999999995,4185.769,4180.513,4190.641,4177.436,4179.487,4181.795,4181.538,0,0
592,115,0,3475,4182.0509999999995,4183.333,4180.0,4155.641,4172.436,4182.179,4246.538,4185.513,4180.385,4180.641,4174.615,4180.641,4180.769,4182.821,0,0
593,116,0,3047,4193.718,4185.513,4186.282,4161.282,4180.769,4183.077,4248.59,4187.9490000000005,4195.385,4185.385,4183.846,4190.513,4186.41,4191.026,0,0
594,117,0,3100,4203.205,4189.359,4190.385,4168.974,4191.282,4188.205,4261.538,4193.846,4193.718,4194.359,4189.615,4199.487,4187.692,4198.846,0,0
595,118,0,3484,4199.615,4190.0,4186.41,4167.0509999999995,4186.154,4186.282,4265.385,4197.436,4180.897,4188.205,4185.513,4193.333,4186.282,4197.821,0,0
596,119,0,3475,4198.974,4193.077,4190.0,4166.026,4182.564,4191.41,4262.179,4201.667,4190.128,4191.538,4189.103,4191.154,4194.615,4198.333,0,0
597,120,0,3047,4204.744000000001,4202.179,4199.359,4172.0509999999995,4193.718,4198.205,4263.718,4202.308,4203.974,4209.872,4201.41,4198.974,4203.077,4204.744000000001,0,0
598,121,0,3100,4200.769,4200.0,4196.282,4169.359,4192.179,4191.923,4256.923,4191.154,4194.615,4205.255999999999,4193.333,4192.436,4191.923,4202.0509999999995,0,0
599,122,0,3484,4182.564,4177.308,4178.718,4156.154,4174.744000000001,4179.103,4232.436,4169.103,4179.103,4175.513,4168.205,4172.692,4167.0509999999995,4180.641,0,0
600,123,0,3475,4163.462,4157.0509999999995,4166.154,4145.513,4167.821,4172.308,4218.718,4156.795,4167.821,4154.872,4152.179,4162.564,4150.0,4155.897,0,0
601,124,0,3047,4156.026,4156.41,4164.872,4138.077,4169.872,4168.974,4227.564,4160.513,4156.667,4155.897,4150.769,4160.513,4154.744000000001,4147.0509999999995,0,0
602,125,0,3100,4165.0,4163.974,4166.538,4140.897,4169.872,4168.974,4233.846,4167.179,4165.128,4168.974,4161.667,4163.462,4177.179,4157.179,0,0
603,126,0,3484,4179.359,4174.359,4174.615,4152.308,4175.769,4178.205,4231.026,4176.282,4187.9490000000005,4186.41,4176.154,4175.641,4196.282,4174.103,0,0
604,127,0,52,4186.026,4181.795,4184.231,4155.513,4184.615,4184.103,4230.128,4186.41,4198.974,4200.641,4185.0,4184.487,4201.795,4184.103,0,0
605,0,0,3237,4191.41,4188.59,4191.795,4161.795,4190.769,4189.872,4234.872,4195.769,4204.615,4212.821,4195.255999999999,4189.744000000001,4206.538,4190.897,0,0
606,1,0,3019,4191.667,4191.41,4187.436,4167.436,4184.487,4187.821,4231.795,4187.692,4201.026,4207.692,4195.769,4187.821,4200.897,4188.59,0,0
607,2,0,3444,4182.308,4181.923,4172.0509999999995,4157.436,4168.333,4174.359,4224.103,4170.641,4179.744000000001,4183.077,4177.308,4173.205,4182.308,4172.821,0,0
608,3,0,3507,4180.641,4178.077,4169.231,4153.462,4171.923,4175.255999999999,4229.487,4173.077,4173.974,4178.718,4171.41,4167.564,4178.205,4166.667,0,0
609,4,0,3564,4182.692,4184.872,4173.846,4159.487,4185.769,4186.795,4237.0509999999995,4176.667,4184.359,4190.641,4181.026,4173.462,4185.255999999999,4173.974,0,0
610,5,0,3187,4178.846,4185.255999999999,4172.179,4155.897,4183.077,4185.513,4232.308,4169.615,4178.846,4183.462,4178.718,4171.282,4182.821,4176.026,0,0
611,6,0,3142,4182.308,4182.564,4175.128,4152.564,4183.718,4182.179,4233.718,4176.41,4173.974,4175.641,4177.821,4175.128,4182.692,4179.359,0,0
612,7,0,3492,4188.59,4186.795,4180.897,4157.179,4190.385,4189.744000000001,4237.179,4188.974,4190.0,4188.846,4188.462,4187.308,4192.0509999999995,4189.359,0,0
613,8,0,3006,4176.41,4175.385,4171.538,4152.9490000000005,4173.974,4182.0509999999995,4221.282,4176.41,4186.154,4191.41,4184.103,4176.154,4186.795,4181.41,0,0
614,9,0,3598,4171.154,4166.154,4171.282,4148.974,4166.154,4173.333,4216.538,4165.513,4169.487,4184.103,4176.538,4167.0509999999995,4179.487,4171.667,0,0
615,10,0,3487,4186.923,4182.0509999999995,4185.385,4155.513,4184.103,4185.128,4230.769,4172.692,4175.769,4191.41,4184.231,4184.359,4188.333,4184.103,0,0
616,11,0,3477,4187.179,4183.846,4179.744000000001,4156.282,4175.385,4183.718,4227.179,4171.923,4182.308,4195.641,4184.615,4186.41,4187.179,4186.923,0,0
617,12,0,3048,4171.026,4168.333,4165.513,4144.744000000001,4150.0,4168.333,4211.795,4164.744000000001,4177.179,4185.641,4174.744000000001,4171.026,4173.077,4172.179,0,0
618,13,0,3100,4164.359,4162.0509999999995,4163.077,4134.487,4155.128,4163.974,4213.333,4156.41,4168.462,4172.821,4168.205,4170.0,4166.282,4163.077,0,0
619,14,0,3487,4170.513,4165.255999999999,4167.692,4143.077,4171.41,4167.9490000000005,4224.103,4155.641,4161.923,4168.333,4169.872,4176.667,4165.128,4166.795,0,0
620,15,0,3477,4181.41,4175.769,4178.333,4164.487,4175.513,4172.436,4235.641,4170.513,4170.513,4175.0,4179.359,4182.564,4168.205,4181.41,0,0
621,16,0,0,4198.205,4193.59,4189.744000000001,4181.538,4183.205,4182.0509999999995,4248.333,4187.564,4185.128,4187.436,4192.179,4194.231,4177.9490000000005,4197.564,0,0
622,17,0,0,4203.974,4191.667,4190.641,4189.103,4184.487,4188.333,4244.744000000001,4189.359,4187.9490000000005,4191.667,4193.462,4196.154,4178.077,4194.487,0,0
623,18,0,0,4188.59,4168.077,4182.0509999999995,4186.41,4174.615,4180.641,4230.385,4178.974,4183.59,4181.282,4180.385,4183.462,4166.923,4180.0,0,0
624,19,0,0,4180.0,4170.255999999999,4175.255999999999,4187.821,4168.974,4174.103,4233.205,4175.769,4177.821,4172.0509999999995,4177.564,4181.538,4168.462,4182.308,0,0
625,20,0,0,4188.846,4188.333,4175.513,4201.667,4163.846,4177.436,4242.564,4182.0509999999995,4173.59,4175.0,4185.0,4190.128,4175.769,4189.103,0,0
626,21,0,0,4183.333,4171.923,4167.179,4201.923,4154.615,4171.923,4223.077,4173.205,4169.872,4172.308,4175.385,4179.231,4162.821,4175.641,0,0
627,22,0,0,4163.205,4149.744000000001,4150.255999999999,4188.205,4153.462,4156.538,4200.128,4150.513,4158.333,4156.795,4160.0,4161.154,4144.231,4157.9490000000005,0,0
628,23,0,0,4171.923,4169.487,4156.795,4193.333,4161.41,4160.128,4212.564,4154.872,4158.718,4160.641,4170.641,4170.128,4154.487,4169.487,0,0
629,24,0,0,4198.077,4194.231,4182.308,4211.667,4168.077,4179.744000000001,4233.333,4181.026,4183.333,4184.231,4188.718,4187.692,4176.667,4195.385,0,0
630,25,0,0,4203.718,4194.359,4188.974,4216.795,4176.538,4182.436,4234.359,4184.487,4194.872,4187.564,4189.872,4187.564,4178.846,4202.9490000000005,0,0
631,26,0,0,4202.9490000000005,4203.333,4180.641,4213.718,4176.667,4172.9490000000005,4223.077,4170.385,4177.308,4170.641,4185.0,4183.59,4165.385,4202.564,0,0
632,27,0,0,4219.872,4222.0509999999995,4183.718,4215.385,4157.179,4169.103,4216.538,4166.026,4164.744000000001,4164.231,4185.769,4189.744000000001,4156.41,4215.897,0,0
633,28,0,0,4245.513,4234.744000000001,4197.308,4224.103,4150.513,4172.308,4223.077,4173.59,4174.359,4173.974,4196.795,4199.615,4159.872,4240.255999999999,0,0
634,29,0,0,4265.0,4245.769,4204.872,4234.615,4177.9490000000005,4180.385,4235.255999999999,4180.897,4183.59,4182.0509999999995,4206.282,4209.231,4170.128,4263.205,0,0
635,30,0,0,4278.077,4257.821,4205.513,4235.385,4199.872,4185.385,4233.718,4183.462,4183.205,4182.564,4204.744000000001,4215.897,4172.308,4277.0509999999995,0,0
636,31,0,0,4282.692,4263.333,4208.846,4233.333,4189.103,4183.718,4228.333,4184.872,4191.282,4184.872,4208.333,4218.974,4171.026,4279.359,0,0
637,32,0,0,4277.564,4258.846,4212.821,4233.974,4183.205,4185.769,4238.846,4189.359,4197.692,4190.385,4218.846,4219.744000000001,4178.718,4276.923,0,0
638,33,0,0,4265.513,4247.821,4207.308,4228.205,4190.769,4191.538,4249.872,4192.0509999999995,4188.333,4191.923,4217.564,4216.282,4187.692,4268.59,0,0
639,34,0,0,4242.308,4225.769,4189.872,4212.564,4178.077,4182.436,4245.513,4181.923,4179.744000000001,4186.795,4202.9490000000005,4202.0509999999995,4182.308,4244.231,0,0
640,35,0,0,4217.308,4202.821,4178.077,4200.513,4165.128,4173.077,4245.641,4175.769,4184.231,4182.0509999999995,4190.255999999999,4186.282,4175.769,4217.436,0,0
641,36,0,0,4204.744000000001,4193.718,4177.436,4200.128,4171.154,4179.744000000001,4261.795,4183.846,4189.615,4184.744000000001,4186.667,4185.0,4180.385,4205.385,0,0
642,37,0,0,4201.667,4187.9490000000005,4179.359,4200.385,4171.795,4186.923,4278.974,4188.333,4186.923,4184.103,4185.897,4186.795,4184.615,4198.205,0,0
643,38,0,0,4198.462,4184.744000000001,4181.538,4198.59,4171.41,4191.923,4289.615,4190.255999999999,4192.821,4183.59,4182.0509999999995,4184.103,4184.231,4188.333,0,0
644,39,0,0,4192.9490000000005,4185.255999999999,4186.667,4198.333,4176.795,4197.9490000000005,4293.333,4198.974,4202.564,4191.41,4183.59,4185.641,4186.667,4186.538,0,0
645,40,0,0,4187.308,4177.9490000000005,4185.255999999999,4191.667,4176.154,4195.0,4282.308,4204.615,4197.179,4193.718,4187.0509999999995,4188.718,4190.513,4189.615,0,0
646,41,0,0,4180.385,4168.462,4174.231,4185.641,4176.282,4185.385,4270.769,4196.923,4184.872,4187.179,4180.255999999999,4187.436,4189.615,4181.795,0,0
647,42,0,0,4176.538,4166.538,4169.872,4185.255999999999,4180.513,4185.128,4274.615,4189.487,4187.436,4186.923,4173.59,4183.462,4183.333,4172.436,0,0
648,43,0,0,4171.154,4159.615,4168.333,4177.692,4172.821,4189.231,4275.769,4189.744000000001,4192.308,4191.923,4171.026,4178.333,4175.641,4168.462,0,0
649,44,0,0,4155.128,4145.0,4161.282,4167.0509999999995,4161.282,4184.872,4266.154,4182.0509999999995,4183.333,4183.974,4159.103,4167.821,4172.308,4152.564,0,0
650,45,0,0,4142.9490000000005,4138.077,4153.846,4166.667,4159.744000000001,4175.897,4260.897,4168.077,4171.538,4168.974,4148.59,4156.41,4168.333,4134.487,0,0
651,46,0,0,4147.821,4140.641,4153.846,4164.872,4161.282,4174.231,4263.59,4170.0,4167.436,4168.462,4156.923,4157.436,4166.026,4142.308,0,0
652,47,0,0,4159.615,4152.179,4162.692,4165.513,4170.0,4184.487,4265.769,4189.744000000001,4179.359,4186.667,4172.9490000000005,4172.564,4179.744000000001,4163.846,0,0
653,48,0,0,4159.615,4161.282,4166.282,4172.9490000000005,4173.462,4189.872,4257.9490000000005,4193.974,4184.744000000001,4186.923,4169.872,4173.846,4184.744000000001,4159.744000000001,0,0
654,49,0,0,4150.513,4152.179,4158.205,4168.205,4167.564,4183.974,4247.179,4182.436,4177.9490000000005,4163.718,4155.0,4156.923,4170.769,4140.255999999999,0,0
655,50,0,0,4141.667,4140.128,4144.872,4154.872,4166.538,4178.462,4244.359,4181.795,4179.103,4160.641,4150.128,4148.974,4165.0,4134.744000000001,0,0
656,51,0,0,4137.308,4144.103,4139.231,4155.385,4163.718,4180.513,4248.846,4184.487,4177.179,4171.282,4151.41,4151.923,4170.769,4137.564,0,0
657,52,0,0,4141.41,4154.615,4142.821,4164.487,4168.205,4184.231,4251.41,4186.538,4170.385,4170.641,4154.359,4155.255999999999,4175.769,4140.255999999999,0,0
658,53,0,0,4137.9490000000005,4143.974,4140.255999999999,4159.231,4170.255999999999,4175.513,4240.0,4187.0509999999995,4172.692,4165.769,4153.846,4154.103,4173.077,4136.667,0,0
659,54,0,0,4130.897,4129.103,4136.41,4150.385,4154.487,4163.718,4228.333,4183.462,4183.59,4167.564,4149.744000000001,4150.513,4168.59,4131.026,0,0
660,55,0,0,4142.9490000000005,4143.205,4153.333,4160.897,4151.795,4175.255999999999,4235.641,4189.103,4188.846,4178.205,4159.615,4160.385,4177.9490000000005,4144.615,0,0
661,56,0,0,4161.795,4161.41,4175.513,4173.205,4171.154,4187.308,4243.205,4198.205,4189.872,4190.128,4176.026,4176.41,4189.487,4165.385,0,0
662,57,0,0,4162.308,4155.641,4169.487,4170.641,4177.821,4173.333,4231.41,4190.255999999999,4187.308,4184.359,4166.795,4173.333,4176.538,4161.795,0,0
663,58,0,0,4154.615,4148.718,4156.026,4165.128,4168.846,4162.821,4223.333,4177.692,4178.59,4172.564,4153.333,4163.718,4163.59,4151.795,0,0
664,59,0,0,4162.564,4162.9490000000005,4165.513,4169.872,4170.641,4178.718,4233.077,4184.487,4177.692,4182.308,4166.154,4176.282,4178.59,4164.872,0,0
665,60,0,0,4172.9490000000005,4174.359,4176.795,4179.359,4179.615,4190.0,4235.385,4190.385,4183.59,4191.282,4177.179,4188.59,4191.41,4176.795,0,0
666,61,0,0,4169.359,4168.974,4173.462,4182.0509999999995,4184.615,4182.821,4228.333,4184.231,4189.103,4184.103,4172.821,4181.667,4185.897,4172.179,0,0
667,62,0,0,4168.462,4168.205,4172.0509999999995,4176.538,4188.205,4182.308,4232.0509999999995,4185.641,4189.231,4185.0,4174.231,4180.769,4182.821,4172.692,0,0
668,63,0,0,4172.0509999999995,4172.692,4175.641,4170.641,4181.282,4181.538,4232.821,4184.872,4182.179,4185.769,4174.744000000001,4185.385,4182.436,4171.154,0,0
669,64,0,3238,4166.154,4170.128,4174.231,4170.513,4168.205,4170.513,4219.103,4172.436,4171.667,4172.692,4167.436,4175.255999999999,4173.59,4160.641,0,0
670,65,0,3021,4161.41,4166.667,4171.667,4170.641,4167.436,4166.667,4216.026,4167.821,4165.513,4170.0,4165.897,4165.0,4164.872,4160.897,0,0
671,66,0,3457,4167.821,4169.359,4171.154,4169.359,4171.154,4171.923,4228.718,4178.462,4175.897,4183.462,4168.205,4170.0,4171.667,4169.103,0,0
672,67,0,3513,4170.513,4169.744000000001,4171.795,4169.231,4169.487,4171.667,4229.359,4183.846,4184.487,4183.846,4165.897,4173.846,4183.462,4170.0,0,0
673,68,0,3563,4171.282,4172.9490000000005,4175.385,4172.308,4178.333,4172.821,4226.667,4184.744000000001,4179.487,4177.308,4166.41,4174.487,4186.41,4169.744000000001,0,0
674,69,0,3187,4171.41,4173.077,4172.0509999999995,4168.205,4181.41,4174.231,4232.0509999999995,4186.538,4170.385,4175.128,4165.897,4172.308,4177.179,4165.128,0,0
675,70,0,3145,4163.462,4165.513,4165.513,4157.308,4166.923,4171.667,4235.513,4183.59,4168.59,4171.41,4159.487,4165.769,4165.513,4158.077,0,0
676,71,0,3496,4174.103,4179.359,4180.0,4168.974,4172.692,4186.154,4251.41,4189.872,4180.128,4183.462,4170.255999999999,4177.692,4174.103,4170.385,0,0
677,72,0,3010,4197.821,4203.846,4199.103,4186.923,4190.513,4201.41,4268.077,4204.487,4190.769,4202.821,4191.41,4197.692,4194.744000000001,4189.615,0,0
678,73,0,3610,4191.795,4197.564,4194.744000000001,4178.077,4187.308,4193.077,4254.231,4201.026,4187.308,4197.692,4186.41,4189.359,4196.41,4185.769,0,0
679,74,0,3490,4168.077,4174.231,4178.59,4163.59,4181.282,4178.205,4232.436,4183.205,4173.077,4177.0509999999995,4166.154,4167.308,4176.154,4170.769,0,0
680,75,0,3483,4164.872,4173.333,4172.692,4164.872,4184.103,4175.769,4227.308,4178.333,4163.974,4172.0509999999995,4163.59,4165.513,4167.0509999999995,4164.487,0,0
681,76,0,3052,4179.487,4186.795,4179.231,4171.41,4183.718,4182.436,4234.231,4190.513,4173.462,4186.41,4177.9490000000005,4178.59,4181.923,4173.846,0,0
682,77,0,3106,4187.692,4189.487,4187.564,4173.718,4187.692,4188.077,4245.255999999999,4200.255999999999,4186.282,4197.0509999999995,4188.077,4185.0,4192.436,4186.41,0,0
683,78,0,3490,4183.333,4183.077,4186.795,4170.0,4188.333,4184.231,4243.846,4194.615,4180.513,4187.308,4180.897,4182.0509999999995,4179.103,4182.179,0,0
684,79,0,3483,4181.41,4181.795,4184.103,4166.538,4180.0,4181.667,4237.436,4193.462,4177.179,4179.744000000001,4175.0,4182.821,4172.692,4178.077,0,0
685,80,0,3052,4189.359,4189.231,4190.255999999999,4171.538,4183.846,4188.59,4240.641,4202.821,4187.564,4189.872,4183.974,4189.103,4186.026,4188.077,0,0
686,81,0,3106,4186.282,4183.974,4189.103,4165.385,4186.282,4184.359,4231.41,4195.897,4180.385,4188.846,4184.487,4183.974,4180.897,4186.282,0,0
687,82,0,3490,4176.538,4170.641,4181.026,4150.385,4173.333,4175.255999999999,4215.641,4180.897,4168.077,4179.744000000001,4174.359,4177.179,4165.385,4172.821,0,0
688,83,0,3483,4182.0509999999995,4177.821,4182.564,4154.744000000001,4167.692,4181.667,4225.769,4181.538,4173.462,4183.59,4174.744000000001,4180.0,4175.255999999999,4173.205,0,0
689,84,0,3052,4187.692,4192.9490000000005,4185.641,4171.667,4182.564,4190.0,4247.308,4188.333,4176.154,4186.41,4181.154,4179.103,4187.9490000000005,4179.231,0,0
690,85,0,3106,4181.667,4189.872,4180.128,4168.846,4190.641,4186.923,4245.385,4185.513,4175.128,4181.41,4177.821,4171.41,4183.59,4173.462,0,0
691,86,0,3490,4181.667,4180.385,4177.564,4153.59,4178.077,4184.487,4237.308,4182.308,4183.077,4183.205,4173.974,4171.026,4183.59,4171.41,0,0
692,87,0,3483,4188.333,4185.641,4185.0,4157.692,4171.41,4185.385,4242.821,4184.103,4185.513,4185.769,4179.359,4176.538,4187.564,4179.615,0,0
693,88,0,3052,4186.795,4195.0,4187.308,4171.154,4182.692,4183.846,4251.538,4184.231,4183.462,4186.538,4184.615,4178.846,4181.282,4186.41,0,0
694,89,0,3106,4190.0,4199.872,4186.026,4171.41,4195.0,4189.359,4250.641,4187.308,4186.795,4194.487,4183.846,4181.41,4182.179,4187.821,0,0
695,90,0,3490,4202.308,4206.282,4195.769,4172.9490000000005,4196.923,4197.9490000000005,4248.59,4198.205,4188.846,4202.436,4187.564,4189.615,4198.718,4193.077,0,0
696,91,0,3483,4196.154,4202.179,4195.385,4173.846,4189.487,4188.462,4245.128,4198.333,4183.462,4196.154,4190.769,4189.615,4198.462,4189.615,0,0
697,92,0,3052,4167.179,4179.231,4165.897,4153.462,4172.179,4168.205,4227.0509999999995,4171.795,4167.692,4171.026,4171.026,4166.923,4170.0,4162.692,0,0
698,93,0,3106,4160.255999999999,4168.462,4155.769,4141.282,4162.692,4170.255999999999,4220.385,4161.795,4163.077,4164.103,4159.103,4158.718,4166.282,4155.255999999999,0,0
699,94,0,3490,4181.41,4182.821,4177.0509999999995,4156.41,4176.282,4185.385,4232.0509999999995,4186.41,4181.41,4187.308,4179.103,4177.0509999999995,4197.179,4178.974,0,0
700,95,0,3483,4185.513,4193.333,4181.154,4163.59,4189.487,4189.103,4234.744000000001,4198.333,4193.205,4197.692,4189.359,4180.255999999999,4202.308,4184.359,0,0
701,96,0,3052,4171.538,4182.436,4168.333,4150.0,4180.0,4181.923,4228.718,4181.667,4178.59,4174.744000000001,4169.231,4161.282,4175.897,4163.846,0,0
702,97,0,3106,4162.9490000000005,4168.59,4162.821,4139.487,4164.359,4170.0,4227.564,4161.41,4159.103,4150.513,4149.359,4149.359,4159.615,4148.077,0,0
703,98,0,3490,4168.077,4171.923,4166.282,4148.462,4170.128,4170.255999999999,4230.769,4164.744000000001,4158.077,4155.0,4155.513,4156.154,4165.897,4152.564,0,0
704,99,0,3483,4183.333,4188.462,4180.769,4164.103,4185.0,4180.641,4235.255999999999,4181.154,4170.897,4173.077,4173.077,4171.667,4178.462,4170.0,0,0
705,100,0,3052,4186.795,4189.487,4188.59,4163.462,4183.333,4178.333,4228.59,4180.0,4176.026,4176.538,4174.359,4175.769,4176.154,4175.641,0,0
706,101,0,3106,4165.385,4166.795,4168.333,4144.103,4161.41,4164.103,4198.59,4164.359,4159.487,4155.641,4155.897,4158.718,4154.231,4155.128,0,0
707,102,0,3490,4154.231,4155.255999999999,4154.359,4134.872,4148.974,4165.128,4186.026,4165.255999999999,4156.667,4147.0509999999995,4146.41,4151.154,4144.231,4143.077,0,0
708,103,0,3483,4167.179,4164.359,4166.923,4142.564,4162.692,4176.795,4203.462,4179.487,4186.154,4168.59,4160.641,4165.0,4162.564,4159.359,0,0
709,104,0,3052,4180.128,4178.59,4179.359,4152.9490000000005,4179.487,4182.308,4213.974,4188.846,4203.718,4189.872,4179.231,4177.564,4190.897,4177.692,0,0
710,105,0,3106,4195.0,4192.0509999999995,4189.103,4164.359,4185.255999999999,4189.103,4222.9490000000005,4201.154,4202.821,4205.513,4190.641,4187.692,4217.0509999999995,4189.231,0,0
711,106,0,3490,4201.795,4194.615,4191.667,4164.615,4185.513,4188.59,4230.0,4205.897,4202.692,4211.923,4192.179,4191.154,4221.154,4192.179,0,0
712,107,0,3483,4188.333,4186.538,4177.308,4154.872,4182.179,4174.231,4212.564,4189.359,4192.821,4200.385,4181.41,4179.359,4202.179,4181.538,0,0
713,108,0,3052,4177.436,4181.667,4168.077,4149.872,4175.128,4166.538,4193.59,4174.615,4182.9490000000005,4187.308,4170.897,4168.718,4190.128,4173.718,0,0
714,109,0,3106,4176.667,4179.744000000001,4171.667,4145.769,4169.359,4170.255999999999,4192.9490000000005,4171.667,4182.179,4181.026,4165.897,4174.615,4182.436,4170.385,0,0
715,110,0,3490,4170.128,4169.359,4167.308,4139.872,4167.0509999999995,4168.333,4195.128,4168.333,4174.103,4171.026,4161.795,4181.154,4167.308,4160.769,0,0
716,111,0,3483,4168.205,4167.692,4161.026,4145.385,4165.641,4164.872,4192.0509999999995,4169.231,4174.103,4169.744000000001,4163.205,4182.436,4167.308,4158.846,0,0
717,112,0,3052,4181.923,4180.641,4173.846,4155.513,4169.487,4172.436,4189.872,4182.308,4189.231,4184.359,4171.667,4187.0509999999995,4184.231,4171.154,0,0
718,113,0,3106,4189.744000000001,4187.0509999999995,4185.0,4152.564,4179.615,4176.41,4193.974,4191.154,4186.026,4188.205,4173.846,4189.103,4190.385,4175.128,0,0
719,114,0,3490,4181.538,4182.308,4175.897,4152.821,4183.59,4173.59,4199.615,4182.0509999999995,4172.564,4178.077,4169.103,4184.872,4185.255999999999,4165.513,0,0
720,115,0,3483,4172.692,4174.744000000001,4169.231,4155.641,4176.026,4175.897,4193.974,4173.205,4173.462,4173.846,4171.154,4182.179,4178.462,4159.487,0,0
721,116,0,3052,4167.9490000000005,4170.385,4169.872,4146.795,4167.9490000000005,4172.9490000000005,4179.487,4167.0509999999995,4170.128,4168.205,4166.026,4175.897,4171.41,4156.282,0,0
722,117,0,3106,4158.718,4165.769,4161.026,4135.385,4166.667,4160.769,4173.462,4153.59,4162.0509999999995,4155.385,4153.333,4166.923,4164.103,4151.667,0,0
723,118,0,3490,4153.205,4167.308,4157.436,4136.667,4169.872,4159.744000000001,4177.179,4153.718,4166.667,4156.026,4159.615,4173.846,4163.846,4152.308,0,0
724,119,0,3483,4158.846,4171.282,4169.872,4149.231,4168.59,4172.0509999999995,4183.333,4168.846,4172.692,4169.487,4169.359,4186.026,4170.255999999999,4156.41,0,0
725,120,0,3052,4160.128,4163.333,4166.795,4149.744000000001,4156.923,4169.103,4180.255999999999,4169.359,4168.077,4171.026,4160.255999999999,4179.103,4171.154,4156.923,0,0
726,121,0,3106,4154.872,4157.692,4150.641,4144.103,4151.41,4156.154,4169.487,4159.487,4163.846,4163.333,4157.308,4167.9490000000005,4167.179,4153.718,0,0
727,122,0,3490,4156.026,4168.205,4154.487,4157.308,4165.255999999999,4163.077,4178.333,4167.692,4171.282,4169.615,4169.744000000001,4172.179,4166.41,4156.795,0,0
728,123,0,3483,4157.436,4171.026,4161.154,4171.795,4168.205,4170.255999999999,4192.179,4172.0509999999995,4174.615,4169.615,4164.359,4174.615,4161.667,4154.872,0,0
729,124,0,3052,4152.9490000000005,4155.897,4154.103,4168.974,4155.128,4159.615,4184.359,4157.0509999999995,4170.385,4150.0,4146.538,4166.026,4153.718,4141.795,0,0
730,125,0,3106,4149.872,4149.872,4150.641,4170.513,4153.333,4153.205,4171.154,4150.0,4164.615,4136.795,4146.026,4162.308,4153.077,4135.385,0,0
731,126,0,3490,4152.179,4159.615,4154.615,4185.641,4161.41,4160.513,4164.487,4157.821,4159.231,4140.513,4151.923,4165.513,4152.0509999999995,4143.077,0,0
732,127,0,52,4162.436,4169.872,4157.179,4195.897,4167.436,4168.462,4162.9490000000005,4168.462,4164.231,4150.769,4155.128,4168.974,4157.0509999999995,4153.333,0,0
733,0,0,3235,4171.795,4175.513,4160.641,4200.897,4171.026,4171.41,4173.462,4171.026,4175.128,4157.308,4159.487,4171.923,4166.923,4158.59,0,0
734,1,0,3010,4166.667,4171.795,4159.744000000001,4203.333,4166.923,4169.231,4179.487,4160.641,4169.872,4152.9490000000005,4156.667,4170.897,4160.255999999999,4157.179,0,0
735,2,0,3450,4153.718,4161.282,4146.538,4196.026,4155.0,4164.103,4177.308,4148.462,4151.41,4139.231,4142.9490000000005,4160.641,4148.59,4146.795,0,0
736,3,0,3509,4150.128,4155.0,4142.821,4191.41,4153.333,4167.9490000000005,4197.9490000000005,4154.615,4153.462,4135.641,4142.308,4156.154,4150.255999999999,4143.718,0,0
737,4,0,3565,4154.615,4152.436,4150.385,4196.923,4160.513,4170.128,4227.692,4168.333,4168.59,4145.255999999999,4154.359,4163.974,4153.077,4151.026,0,0
738,5,0,3180,4161.923,4155.897,4153.59,4200.769,4167.692,4167.0509999999995,4241.667,4168.077,4168.077,4148.077,4154.744000000001,4170.385,4155.255999999999,4153.59,0,0
739,6,0,3141,4169.231,4167.821,4162.692,4200.513,4176.41,4178.205,4249.744000000001,4169.744000000001,4165.641,4151.923,4159.487,4175.641,4167.9490000000005,4161.026,0,0
740,7,0,3490,4162.179,4168.077,4168.718,4198.718,4166.41,4186.026,4237.436,4176.026,4174.487,4158.205,4165.385,4176.026,4170.897,4167.308,0,0
741,8,0,3001,4152.0509999999995,4154.615,4160.897,4197.308,4147.308,4170.897,4212.179,4168.59,4172.564,4151.026,4156.923,4166.026,4160.385,4156.282,0,0
742,9,0,3605,4160.255999999999,4158.077,4162.308,4198.718,4153.846,4163.718,4218.333,4164.103,4165.385,4148.846,4157.436,4166.538,4162.692,4153.846,0,0
743,10,0,3485,4176.282,4176.795,4179.359,4203.077,4173.205,4181.154,4234.615,4179.744000000001,4178.59,4165.255999999999,4171.795,4182.179,4177.179,4175.128,0,0
744,11,0,3477,4191.795,4187.179,4188.59,4205.897,4179.359,4190.769,4232.821,4191.282,4190.897,4180.255999999999,4180.255999999999,4191.41,4187.0509999999995,4188.846,0,0
745,12,0,3048,4201.282,4189.231,4188.205,4206.154,4180.513,4186.282,4234.231,4187.179,4187.0509999999995,4182.821,4180.769,4191.026,4187.564,4187.308,0,0
746,13,0,3099,4192.179,4183.462,4181.154,4203.974,4178.333,4181.538,4226.923,4183.205,4183.718,4178.462,4178.846,4189.359,4186.667,4180.769,0,0
747,14,0,3485,4179.872,4171.282,4172.436,4198.974,4168.974,4173.077,4205.513,4183.974,4180.128,4171.923,4176.667,4186.538,4184.872,4175.255999999999,0,0
748,15,0,3477,4182.692,4170.897,4180.769,4200.641,4172.821,4169.872,4197.821,4187.9490000000005,4183.974,4177.692,4181.154,4188.205,4183.59,4181.538,0,0
749,16,0,0,4191.154,4176.923,4188.205,4207.436,4174.744000000001,4174.487,4201.538,4189.615,4197.9490000000005,4186.282,4185.769,4191.795,4186.667,4191.667,0,0
750,17,0,0,4185.641,4173.205,4176.41,4200.255999999999,4157.821,4172.692,4195.641,4179.487,4190.385,4174.103,4179.487,4189.103,4183.718,4187.9490000000005,0,0
751,18,0,0,4175.897,4166.282,4167.179,4187.821,4156.026,4167.179,4185.255999999999,4168.718,4169.103,4163.462,4172.179,4184.744000000001,4176.923,4178.333,0,0
752,19,0,0,4177.308,4166.923,4166.923,4190.255999999999,4169.872,4168.846,4183.205,4170.897,4173.59,4170.128,4168.462,4179.231,4174.615,4171.923,0,0
753,20,0,0,4183.718,4176.282,4170.255999999999,4201.538,4173.205,4173.205,4188.59,4177.9490000000005,4183.333,4173.462,4167.0509999999995,4178.846,4173.974,4172.692,0,0
754,21,0,0,4188.205,4188.077,4181.667,4206.923,4174.231,4179.359,4201.538,4186.026,4184.744000000001,4173.205,4172.564,4190.0,4180.255999999999,4185.0,0,0
755,22,0,0,4191.667,4192.179,4189.744000000001,4205.513,4189.872,4188.462,4210.769,4190.0,4186.41,4178.462,4179.487,4195.641,4186.538,4190.641,0,0
756,23,0,0,4190.641,4187.564,4184.359,4202.179,4192.308,4182.821,4198.205,4178.333,4176.795,4176.154,4176.41,4186.923,4179.231,4180.513,0,0
757,24,0,0,4184.615,4180.255999999999,4182.436,4199.744000000001,4173.59,4172.179,4178.846,4170.769,4171.026,4169.103,4167.308,4181.538,4174.103,4174.872,0,0
758,25,0,0,4182.0509999999995,4176.667,4185.641,4196.795,4167.821,4176.538,4181.282,4178.59,4181.667,4175.255999999999,4170.769,4185.385,4180.513,4179.487,0,0
759,26,0,0,4174.744000000001,4174.872,4175.385,4183.974,4172.564,4178.59,4185.128,4178.077,4175.513,4171.154,4170.385,4178.59,4175.513,4172.308,0,0
760,27,0,0,4162.0509999999995,4168.718,4163.462,4173.077,4171.538,4166.795,4168.462,4165.255999999999,4161.41,4153.974,4156.026,4164.744000000001,4162.436,4156.795,0,0
761,28,0,0,4169.231,4169.615,4167.308,4179.487,4168.846,4165.897,4165.513,4166.923,4175.385,4158.718,4157.179,4167.821,4167.436,4163.333,0,0
762,29,0,0,4182.9490000000005,4177.692,4174.487,4187.9490000000005,4172.564,4181.538,4205.513,4180.385,4183.205,4174.615,4170.769,4181.795,4180.255999999999,4177.564,0,0
763,30,0,0,4180.513,4176.795,4175.128,4185.128,4177.308,4184.744000000001,4247.692,4183.462,4168.974,4172.821,4171.282,4186.282,4181.026,4174.744000000001,0,0
764,31,0,0,4171.667,4171.795,4172.692,4183.077,4176.667,4173.462,4236.538,4181.795,4171.41,4168.205,4166.026,4183.333,4173.077,4169.231,0,0
765,32,0,0,4168.59,4168.333,4172.564,4186.795,4171.538,4168.333,4210.385,4179.615,4182.308,4169.359,4167.692,4182.0509999999995,4168.718,4170.641,0,0
766,33,0,0,4174.359,4167.692,4178.846,4187.0509999999995,4169.872,4170.769,4240.513,4173.59,4175.385,4166.154,4170.769,4182.179,4173.718,4170.897,0,0
767,34,0,0,4183.718,4177.692,4186.154,4187.0509999999995,4179.359,4174.231,4286.795,4168.846,4165.897,4168.077,4172.0509999999995,4184.103,4179.103,4174.231,0,0
768,35,0,0,4189.487,4190.385,4189.231,4193.846,4183.718,4178.333,4289.744000000001,4171.154,4177.9490000000005,4179.487,4174.615,4186.538,4181.923,4182.564,0,0
769,36,0,0,4187.9490000000005,4188.333,4185.0,4194.615,4174.615,4176.538,4274.487,4172.179,4185.897,4177.436,4173.718,4185.385,4177.821,4182.436,0,0
770,37,0,0,4183.846,4180.769,4177.308,4186.538,4167.179,4169.103,4274.487,4163.846,4172.692,4167.436,4170.385,4181.667,4170.769,4175.641,0,0
771,38,0,0,4188.846,4185.897,4180.641,4190.641,4171.795,4174.615,4285.0,4168.846,4170.128,4175.769,4175.128,4187.692,4178.333,4183.205,0,0
772,39,0,0,4201.667,4196.154,4193.333,4200.128,4186.923,4187.436,4299.103,4187.179,4188.077,4193.462,4187.692,4200.897,4191.795,4198.205,0,0
773,40,0,0,4196.795,4192.308,4186.282,4190.897,4190.513,4181.026,4295.769,4185.255999999999,4192.308,4190.897,4186.282,4197.436,4189.615,4191.667,0,0
774,41,0,0,4174.103,4180.0,4168.846,4180.641,4174.872,4166.795,4276.282,4169.103,4178.333,4177.821,4170.769,4181.154,4181.282,4177.308,0,0
775,42,0,0,4176.538,4183.846,4173.077,4187.179,4171.154,4175.255999999999,4276.026,4171.538,4183.846,4183.077,4170.0,4181.667,4185.128,4181.795,0,0
776,43,0,0,4187.821,4187.0509999999995,4178.462,4183.974,4179.744000000001,4185.255999999999,4278.333,4177.821,4193.846,4186.282,4175.769,4185.513,4186.795,4181.923,0,0
