,COUNTER, INTERPOLATED, RAW_CQ, AF3, F7, F3, FC5, T7, P7, O1, O2, P8, T8, FC6, F4, F8, AF4, MARKER_HARDWARE, MARKER
0,94,0,3439,4167.692,4182.564,4160.0,4167.9490000000005,4150.128,4157.179,4144.744000000001,4158.205,4174.872,4158.333,4160.513,4161.41,4153.59,4155.0,0,0
1,95,0,3459,4170.897,4184.103,4155.897,4169.103,4152.821,4151.026,4136.026,4156.538,4172.0509999999995,4166.154,4156.026,4157.692,4157.0509999999995,4158.59,0,0
2,96,0,3043,4163.718,4183.077,4149.744000000001,4166.026,4161.41,4157.821,4140.255999999999,4157.0509999999995,4163.974,4166.41,4160.0,4154.359,4160.513,4149.872,0,0
3,97,0,3129,4167.179,4185.255999999999,4154.744000000001,4168.718,4162.9490000000005,4167.821,4143.974,4159.231,4169.487,4168.077,4169.231,4161.538,4163.974,4152.564,0,0
4,98,0,3439,4171.667,4186.026,4156.282,4169.487,4155.513,4161.41,4141.026,4158.205,4177.179,4168.205,4172.0509999999995,4164.744000000001,4166.154,4161.282,0,0
5,99,0,3459,4163.718,4176.923,4149.872,4167.308,4151.795,4149.872,4142.564,4154.744000000001,4174.103,4166.538,4168.462,4158.462,4165.255999999999,4157.821,0,0
6,100,0,3043,4159.615,4170.641,4152.692,4170.897,4158.718,4154.103,4145.897,4157.564,4168.846,4169.744000000001,4170.128,4157.9490000000005,4163.718,4156.795,0,0
7,101,0,3129,4156.795,4170.128,4155.769,4165.769,4153.974,4159.615,4140.385,4158.462,4165.385,4167.436,4168.205,4156.795,4158.462,4153.59,0,0
8,102,0,3439,4151.538,4168.59,4151.667,4155.641,4147.0509999999995,4152.179,4137.0509999999995,4151.795,4163.462,4158.59,4159.359,4150.769,4156.667,4143.462,0,0
9,103,0,3459,4163.718,4175.897,4159.359,4165.641,4160.897,4155.128,4147.308,4160.128,4179.615,4168.333,4165.255999999999,4159.359,4171.795,4152.821,0,0
10,104,0,3043,4187.436,4189.744000000001,4176.795,4180.769,4170.128,4172.179,4158.462,4185.255999999999,4201.538,4194.872,4184.872,4176.154,4188.974,4175.255999999999,0,0
11,105,0,3129,4188.333,4191.154,4175.897,4175.385,4165.641,4173.205,4158.974,4188.59,4193.718,4198.462,4188.077,4172.9490000000005,4188.333,4176.538,0,0
12,106,0,3439,4171.154,4183.846,4167.564,4168.718,4164.359,4158.205,4157.9490000000005,4172.9490000000005,4180.128,4177.692,4181.41,4169.487,4180.641,4171.026,0,0
13,107,0,3459,4166.41,4177.692,4169.487,4167.564,4156.026,4156.667,4153.077,4167.821,4184.359,4169.231,4178.974,4171.923,4176.41,4170.385,0,0
14,108,0,3043,4166.795,4166.667,4164.103,4157.9490000000005,4142.692,4163.718,4140.0,4162.9490000000005,4175.897,4171.154,4163.205,4159.872,4167.692,4157.821,0,0
15,109,0,3129,4166.795,4169.359,4161.026,4158.846,4159.872,4160.769,4141.154,4154.615,4163.205,4167.692,4156.667,4156.282,4167.564,4151.41,0,0
16,110,0,3439,4172.692,4182.9490000000005,4164.103,4167.436,4177.692,4155.641,4149.359,4153.59,4166.282,4158.462,4165.128,4164.615,4166.026,4157.692,0,0
17,111,0,3459,4168.205,4173.718,4155.897,4159.103,4159.487,4158.077,4142.308,4155.128,4168.333,4146.026,4155.128,4158.077,4147.564,4151.41,0,0
18,112,0,3043,4151.667,4151.667,4145.128,4147.692,4144.744000000001,4162.308,4136.795,4150.897,4165.0,4138.077,4140.0,4144.359,4136.538,4136.154,0,0
19,113,0,3129,4153.59,4150.897,4153.205,4157.692,4152.692,4166.282,4146.538,4150.897,4165.255999999999,4139.744000000001,4148.846,4149.872,4149.231,4136.282,0,0
20,114,0,3439,4177.9490000000005,4171.282,4173.205,4175.897,4164.872,4177.179,4161.282,4168.846,4176.41,4157.564,4170.769,4170.128,4175.513,4158.59,0,0
21,115,0,3459,4197.821,4187.692,4186.923,4185.128,4177.436,4187.179,4177.9490000000005,4195.641,4198.846,4189.103,4188.718,4187.179,4199.872,4184.359,0,0
22,116,0,3043,4205.513,4194.744000000001,4194.231,4191.026,4180.385,4184.487,4188.59,4205.769,4210.255999999999,4205.769,4199.615,4197.436,4208.333,4193.846,0,0
23,117,0,3129,4195.897,4184.359,4192.9490000000005,4187.0509999999995,4160.641,4173.974,4175.513,4191.154,4200.897,4196.538,4192.564,4191.026,4191.667,4182.0509999999995,0,0
24,118,0,3439,4174.615,4165.255999999999,4182.179,4173.718,4154.615,4167.308,4154.744000000001,4173.846,4192.436,4180.641,4178.333,4175.513,4172.308,4166.923,0,0
25,119,0,3459,4169.744000000001,4172.821,4171.795,4169.872,4183.718,4168.846,4153.59,4170.641,4184.487,4170.385,4178.846,4171.538,4177.308,4167.821,0,0
26,120,0,3043,4173.462,4183.846,4169.231,4171.795,4193.462,4169.103,4157.308,4171.667,4172.564,4166.154,4174.872,4172.308,4181.923,4168.718,0,0
27,121,0,3129,4166.923,4174.103,4170.769,4166.923,4171.538,4168.59,4149.872,4166.795,4169.359,4171.154,4165.769,4167.692,4168.718,4158.333,0,0
28,122,0,3439,4169.231,4168.718,4170.385,4167.821,4167.692,4171.923,4150.128,4166.41,4176.795,4183.846,4173.205,4169.487,4162.9490000000005,4158.077,0,0
29,123,0,3459,4176.41,4174.231,4170.641,4174.872,4174.103,4172.9490000000005,4155.769,4170.769,4183.974,4186.41,4184.615,4176.282,4170.0,4166.667,0,0
30,124,0,3043,4176.154,4175.385,4173.59,4175.255999999999,4169.231,4169.231,4153.462,4167.179,4180.385,4174.872,4178.077,4176.538,4167.821,4169.744000000001,0,0
31,125,0,3129,4190.0,4183.205,4183.59,4179.615,4178.462,4174.231,4159.103,4169.744000000001,4178.077,4174.231,4178.333,4181.923,4170.128,4178.333,0,0
32,126,0,3439,4204.231,4192.9490000000005,4191.538,4188.077,4184.103,4184.231,4171.282,4184.872,4183.462,4185.255999999999,4195.385,4190.769,4185.641,4190.255999999999,0,0
33,127,0,52,4194.231,4186.282,4186.41,4187.564,4173.974,4185.385,4171.41,4186.667,4186.282,4186.667,4198.077,4190.385,4185.0,4190.255999999999,0,0
34,0,0,3200,4180.0,4176.026,4176.538,4181.282,4179.872,4180.769,4163.59,4173.462,4187.821,4178.59,4187.9490000000005,4181.795,4171.923,4180.255999999999,0,0
35,1,0,2953,4173.974,4170.769,4170.385,4173.077,4186.026,4174.359,4157.9490000000005,4167.179,4184.615,4174.103,4184.103,4170.641,4166.795,4172.308,0,0
36,2,0,3449,4172.0509999999995,4175.769,4168.333,4173.59,4175.255999999999,4167.564,4158.974,4170.0,4174.103,4171.154,4185.255999999999,4168.077,4170.385,4175.641,0,0
37,3,0,3500,4175.897,4184.872,4170.385,4184.103,4172.564,4174.487,4167.179,4170.769,4169.872,4168.974,4187.436,4173.333,4173.974,4182.0509999999995,0,0
38,4,0,3543,4175.897,4176.154,4170.385,4185.385,4171.026,4183.974,4168.462,4167.0509999999995,4173.333,4171.026,4184.487,4170.641,4168.846,4174.744000000001,0,0
39,5,0,3136,4170.897,4164.872,4169.103,4182.9490000000005,4165.128,4176.795,4160.128,4165.897,4172.564,4165.897,4177.0509999999995,4165.769,4158.846,4168.077,0,0
40,6,0,3088,4172.436,4170.641,4167.821,4188.846,4176.923,4167.308,4157.692,4166.538,4174.744000000001,4158.205,4171.795,4166.538,4154.359,4168.718,0,0
41,7,0,3480,4165.385,4169.487,4159.487,4185.641,4167.0509999999995,4168.59,4155.513,4159.615,4173.59,4149.359,4166.282,4157.9490000000005,4152.821,4156.282,0,0
42,8,0,2957,4152.179,4155.0,4152.9490000000005,4181.923,4138.59,4168.333,4151.154,4152.9490000000005,4166.923,4145.769,4164.744000000001,4149.103,4150.0,4147.308,0,0
43,9,0,3597,4157.0509999999995,4150.0,4155.255999999999,4190.255999999999,4145.255999999999,4160.255999999999,4151.795,4156.795,4167.9490000000005,4148.974,4170.128,4158.333,4151.667,4153.59,0,0
44,10,0,3439,4167.308,4152.821,4157.9490000000005,4193.077,4160.255999999999,4152.821,4148.974,4162.179,4167.0509999999995,4142.821,4169.359,4166.923,4153.205,4155.897,0,0
45,11,0,3459,4167.436,4159.744000000001,4162.821,4193.974,4158.077,4152.436,4150.641,4165.769,4168.974,4137.436,4170.897,4167.436,4154.744000000001,4160.385,0,0
46,12,0,3040,4171.41,4172.308,4175.0,4205.255999999999,4169.487,4161.026,4166.282,4175.0,4187.692,4152.179,4184.487,4175.513,4165.385,4174.744000000001,0,0
47,13,0,3127,4173.462,4169.615,4172.436,4204.231,4178.718,4171.154,4173.462,4176.154,4189.231,4161.282,4183.718,4180.641,4169.359,4174.487,0,0
48,14,0,3439,4160.641,4151.41,4152.9490000000005,4185.513,4157.436,4167.0509999999995,4159.103,4160.0,4161.795,4145.128,4163.077,4164.103,4156.795,4156.667,0,0
49,15,0,3459,4152.436,4148.333,4149.103,4178.205,4149.103,4157.0509999999995,4148.974,4151.154,4156.795,4132.821,4159.487,4153.846,4152.821,4151.41,0,0
50,16,0,0,4154.744000000001,4156.282,4155.513,4183.462,4158.077,4152.692,4146.026,4154.231,4173.974,4137.564,4170.385,4159.615,4156.026,4156.282,0,0
51,17,0,0,4157.179,4152.692,4154.872,4183.59,4138.59,4152.564,4139.103,4152.179,4172.821,4145.255999999999,4166.923,4158.59,4152.564,4154.487,0,0
52,18,0,0,4165.769,4148.974,4160.255999999999,4182.179,4130.128,4160.641,4143.846,4157.692,4166.282,4150.641,4163.333,4161.026,4161.538,4158.205,0,0
53,19,0,0,4172.308,4155.128,4169.744000000001,4182.692,4160.769,4168.462,4151.282,4168.333,4173.205,4154.487,4173.718,4169.744000000001,4171.41,4168.077,0,0
54,20,0,0,4165.128,4156.282,4164.615,4185.641,4174.615,4160.513,4142.9490000000005,4160.769,4176.026,4157.692,4172.179,4163.077,4160.513,4164.359,0,0
55,21,0,0,4155.897,4150.513,4151.795,4183.462,4150.769,4150.128,4135.385,4150.513,4168.846,4155.0,4158.333,4151.026,4152.179,4152.821,0,0
56,22,0,0,4159.872,4156.538,4159.487,4182.564,4150.897,4158.974,4146.154,4163.846,4174.231,4157.692,4167.436,4162.9490000000005,4164.487,4158.462,0,0
57,23,0,0,4175.385,4172.821,4179.744000000001,4191.154,4180.513,4175.0,4158.077,4184.103,4185.385,4173.077,4189.359,4181.41,4183.077,4176.026,0,0
58,24,0,0,4185.0,4174.744000000001,4183.205,4194.487,4177.564,4174.872,4150.128,4184.872,4187.179,4180.769,4187.0509999999995,4176.41,4187.564,4181.154,0,0
59,25,0,0,4173.846,4161.667,4166.923,4186.282,4144.615,4163.718,4137.9490000000005,4173.462,4186.282,4167.9490000000005,4170.0,4159.487,4174.615,4167.0509999999995,0,0
60,26,0,0,4157.179,4152.692,4154.615,4178.077,4137.821,4161.41,4136.538,4167.436,4181.538,4154.231,4159.872,4149.359,4164.359,4151.923,0,0
61,27,0,0,4160.255999999999,4153.462,4153.59,4172.9490000000005,4163.59,4168.077,4138.333,4167.9490000000005,4172.821,4151.282,4156.154,4150.0,4167.308,4148.974,0,0
62,28,0,0,4178.077,4161.538,4155.255999999999,4173.462,4177.9490000000005,4168.333,4136.282,4167.821,4170.385,4160.128,4162.821,4153.077,4168.846,4155.255999999999,0,0
63,29,0,0,4185.128,4170.385,4161.154,4186.667,4170.641,4166.923,4139.872,4170.769,4176.923,4166.923,4169.744000000001,4157.0509999999995,4171.41,4164.744000000001,0,0
64,30,0,0,4174.744000000001,4171.923,4160.255999999999,4187.308,4168.077,4167.9490000000005,4136.667,4172.692,4177.436,4157.564,4162.564,4156.154,4174.615,4163.205,0,0
65,31,0,0,4164.872,4169.744000000001,4152.0509999999995,4171.282,4169.359,4165.897,4123.462,4163.077,4168.59,4153.333,4158.59,4151.923,4168.462,4149.872,0,0
66,32,0,0,4170.385,4172.564,4162.9490000000005,4176.795,4172.308,4170.128,4131.538,4167.308,4170.128,4168.974,4168.077,4158.974,4170.897,4154.231,0,0
67,33,0,0,4176.795,4177.436,4181.41,4191.154,4176.154,4176.667,4148.846,4185.641,4183.846,4172.564,4174.744000000001,4170.128,4178.59,4171.154,0,0
68,34,0,0,4171.026,4176.026,4178.59,4187.0509999999995,4165.0,4171.41,4142.9490000000005,4183.462,4187.821,4160.128,4171.282,4170.128,4172.308,4170.385,0,0
69,35,0,0,4167.564,4172.308,4171.538,4181.41,4156.923,4169.744000000001,4135.128,4167.179,4175.769,4164.872,4170.0,4167.308,4168.846,4164.487,0,0
70,36,0,0,4173.974,4172.564,4175.769,4187.0509999999995,4169.231,4170.513,4141.923,4165.128,4168.718,4173.718,4172.436,4170.128,4171.795,4170.128,0,0
71,37,0,0,4175.641,4170.513,4173.205,4185.0,4171.795,4158.974,4134.359,4166.41,4167.436,4160.513,4170.513,4168.974,4165.128,4170.255999999999,0,0
72,38,0,0,4172.821,4163.846,4169.744000000001,4178.718,4159.615,4152.564,4120.897,4162.0509999999995,4165.769,4147.308,4165.769,4165.128,4155.897,4163.462,0,0
73,39,0,0,4188.205,4175.0,4184.231,4189.744000000001,4164.487,4167.308,4136.923,4171.282,4178.846,4163.205,4172.821,4175.0,4163.205,4175.641,0,0
74,40,0,0,4208.974,4198.462,4198.974,4204.103,4186.538,4183.846,4159.231,4189.872,4193.846,4184.872,4189.744000000001,4192.308,4183.077,4200.513,0,0
75,41,0,0,4198.077,4195.641,4189.359,4197.9490000000005,4189.359,4179.359,4152.436,4188.333,4184.744000000001,4180.513,4188.59,4188.974,4187.821,4195.0,0,0
76,42,0,0,4172.692,4171.026,4170.128,4177.308,4164.487,4168.718,4137.179,4171.41,4168.59,4167.821,4170.897,4163.333,4168.718,4167.9490000000005,0,0
77,43,0,0,4170.0,4164.615,4166.026,4173.974,4153.974,4171.154,4141.41,4166.41,4169.231,4163.718,4163.462,4153.333,4155.255999999999,4165.128,0,0
78,44,0,0,4170.385,4169.615,4170.255999999999,4182.436,4163.846,4169.231,4147.564,4171.026,4173.333,4156.538,4166.538,4161.795,4158.846,4169.872,0,0
79,45,0,0,4158.718,4161.538,4165.897,4176.538,4158.462,4154.231,4138.333,4168.846,4167.9490000000005,4149.615,4165.897,4159.231,4158.846,4155.513,0,0
80,46,0,0,4156.538,4158.59,4165.255999999999,4167.0509999999995,4150.255999999999,4154.744000000001,4134.231,4166.026,4166.795,4151.667,4165.769,4155.255999999999,4158.718,4156.538,0,0
81,47,0,0,4170.385,4168.718,4175.0,4172.436,4171.795,4175.128,4150.255999999999,4175.385,4176.282,4157.9490000000005,4175.128,4169.231,4171.795,4171.795,0,0
82,48,0,0,4171.282,4164.615,4173.846,4177.692,4176.538,4170.513,4156.026,4173.718,4176.795,4161.282,4172.308,4172.0509999999995,4168.846,4157.692,0,0
83,49,0,0,4156.154,4148.333,4165.255999999999,4171.282,4151.154,4150.385,4146.154,4155.897,4167.564,4160.385,4154.231,4153.974,4149.872,4141.026,0,0
84,50,0,0,4156.538,4148.205,4167.0509999999995,4169.744000000001,4155.385,4157.821,4152.821,4159.359,4168.974,4160.897,4153.718,4151.538,4155.769,4154.231,0,0
85,51,0,0,4172.9490000000005,4159.615,4173.077,4172.821,4173.333,4175.128,4165.385,4178.077,4184.359,4171.538,4168.333,4164.615,4171.538,4166.282,0,0
86,52,0,0,4175.255999999999,4158.462,4176.667,4173.077,4163.077,4173.333,4159.103,4179.487,4189.231,4172.179,4170.255999999999,4170.128,4162.692,4160.769,0,0
87,53,0,0,4165.897,4154.103,4177.692,4171.538,4147.9490000000005,4164.231,4145.641,4165.385,4171.538,4155.641,4163.462,4167.9490000000005,4153.077,4152.692,0,0
88,54,0,0,4174.487,4162.564,4178.205,4169.359,4155.513,4165.255999999999,4145.513,4165.0,4165.255999999999,4158.974,4165.769,4168.718,4166.923,4157.0509999999995,0,0
89,55,0,0,4186.282,4175.0,4180.385,4172.436,4174.744000000001,4174.615,4155.897,4180.897,4184.744000000001,4178.59,4178.205,4171.795,4178.333,4168.205,0,0
90,56,0,0,4171.923,4172.179,4183.718,4174.103,4167.821,4173.846,4154.487,4183.205,4188.333,4170.128,4182.9490000000005,4169.359,4171.282,4167.0509999999995,0,0
91,57,0,0,4159.487,4162.0509999999995,4181.795,4169.359,4147.692,4162.436,4144.359,4167.0509999999995,4168.205,4152.0509999999995,4170.385,4165.897,4165.385,4157.821,0,0
92,58,0,0,4173.974,4167.436,4181.282,4172.564,4163.205,4171.667,4156.667,4169.615,4171.41,4166.667,4168.846,4166.538,4169.231,4164.487,0,0
93,59,0,0,4185.385,4185.255999999999,4191.154,4185.255999999999,4189.487,4190.0,4173.59,4192.179,4192.436,4190.0,4184.103,4172.692,4176.026,4177.564,0,0
94,60,0,0,4176.667,4193.333,4199.359,4188.846,4176.41,4176.923,4162.821,4187.308,4187.436,4185.513,4185.255999999999,4179.744000000001,4179.744000000001,4169.231,0,0
95,61,0,0,4186.538,4194.359,4199.615,4192.821,4166.667,4169.359,4161.667,4179.487,4181.923,4184.487,4190.769,4186.923,4183.59,4170.128,0,0
96,62,0,0,4207.0509999999995,4208.462,4201.923,4208.077,4191.923,4188.59,4177.9490000000005,4196.282,4197.564,4202.9490000000005,4215.0,4191.026,4189.615,4191.795,0,0
97,63,0,0,4201.41,4220.513,4206.026,4214.231,4202.692,4188.462,4174.359,4196.282,4204.487,4201.026,4221.026,4186.026,4191.026,4198.077,0,0
98,64,0,3206,4184.231,4208.462,4196.667,4201.282,4179.359,4171.282,4160.385,4177.564,4183.333,4170.513,4212.308,4180.0,4176.923,4184.359,0,0
99,65,0,2962,4173.333,4193.718,4176.795,4188.59,4159.615,4160.513,4148.333,4158.974,4154.231,4155.0,4210.255999999999,4170.385,4157.564,4172.821,0,0
100,66,0,3453,4168.205,4202.9490000000005,4170.0,4191.923,4164.487,4154.103,4140.897,4147.179,4144.615,4165.128,4207.179,4158.974,4152.0509999999995,4174.231,0,0
101,67,0,3503,4165.385,4209.744000000001,4168.077,4192.0509999999995,4162.308,4150.385,4145.255999999999,4145.128,4146.026,4167.9490000000005,4204.103,4155.769,4143.205,4174.872,0,0
102,68,0,3552,4150.128,4185.385,4153.205,4171.41,4140.255999999999,4141.41,4139.103,4139.231,4136.667,4145.255999999999,4196.538,4149.487,4121.923,4157.9490000000005,0,0
103,69,0,3130,4131.41,4162.436,4142.436,4157.179,4137.564,4132.564,4119.231,4126.026,4127.436,4119.231,4176.154,4139.872,4111.026,4136.154,0,0
104,70,0,3087,4141.026,4165.255999999999,4154.231,4164.359,4153.718,4142.436,4121.795,4131.923,4140.255999999999,4121.795,4164.872,4145.0,4123.718,4138.333,0,0
105,71,0,3478,4169.487,4176.667,4178.205,4176.282,4161.154,4160.641,4147.0509999999995,4157.692,4161.667,4155.128,4174.872,4164.872,4148.59,4159.872,0,0
106,72,0,2954,4177.179,4175.0,4183.718,4175.641,4157.308,4165.128,4160.128,4166.026,4160.385,4173.59,4172.179,4168.718,4158.59,4162.564,0,0
107,73,0,3603,4160.128,4159.744000000001,4165.385,4159.615,4148.205,4156.41,4152.821,4156.923,4150.385,4149.872,4143.59,4150.513,4146.282,4140.769,0,0
108,74,0,3443,4142.308,4138.59,4151.282,4140.897,4133.718,4142.308,4140.128,4145.641,4153.077,4127.0509999999995,4119.615,4134.231,4130.641,4121.154,0,0
109,75,0,3461,4138.205,4124.103,4152.436,4131.41,4127.308,4138.59,4135.128,4139.231,4153.59,4127.436,4111.41,4128.333,4126.667,4115.0,0,0
110,76,0,3038,4135.128,4119.231,4147.692,4124.744000000001,4122.564,4142.308,4135.769,4136.282,4138.59,4118.974,4096.538,4124.231,4122.821,4108.59,0,0
111,77,0,3128,4131.795,4120.0,4136.282,4118.974,4121.667,4137.179,4138.462,4131.282,4131.282,4103.974,4077.051,4121.667,4120.255999999999,4103.077,0,0
112,78,0,3443,4134.872,4125.769,4138.974,4123.333,4131.154,4135.641,4142.9490000000005,4127.821,4138.59,4099.487,4075.6409999999996,4120.513,4122.692,4105.128,0,0
113,79,0,3461,4129.744000000001,4125.513,4140.385,4123.974,4124.872,4135.128,4140.641,4122.9490000000005,4138.59,4094.3590000000004,4076.1540000000005,4112.9490000000005,4120.641,4100.385,0,0
114,80,0,3038,4124.487,4127.179,4135.897,4119.615,4119.744000000001,4128.974,4140.128,4126.41,4130.128,4094.744,4072.692,4111.538,4121.026,4093.462,0,0
115,81,0,3128,4136.667,4139.487,4144.359,4126.154,4137.179,4133.205,4147.9490000000005,4139.231,4143.205,4109.359,4078.333,4122.692,4124.872,4103.333,0,0
116,82,0,3443,4142.436,4145.0,4150.255999999999,4127.179,4141.41,4133.59,4140.769,4134.872,4160.255999999999,4105.0,4078.59,4124.744000000001,4125.128,4110.0,0,0
117,83,0,3461,4134.872,4143.59,4145.128,4119.872,4117.0509999999995,4127.308,4121.667,4121.795,4137.9490000000005,4085.256,4074.3590000000004,4123.077,4124.487,4103.205,0,0
118,84,0,3038,4143.846,4149.615,4149.487,4127.0509999999995,4116.41,4134.103,4116.923,4129.487,4117.564,4094.487,4085.6409999999996,4134.487,4127.308,4110.128,0,0
119,85,0,3128,4155.0,4159.231,4158.59,4136.923,4141.667,4136.41,4120.641,4141.923,4143.205,4113.205,4098.205,4142.179,4128.333,4130.385,0,0
120,86,0,3443,4145.0,4157.9490000000005,4154.872,4128.846,4140.128,4124.744000000001,4119.615,4134.231,4154.615,4099.872,4090.7690000000002,4136.923,4124.487,4130.128,0,0
121,87,0,3461,4139.744000000001,4152.308,4149.615,4123.333,4129.359,4125.513,4122.308,4130.385,4131.282,4083.462,4083.205,4134.487,4120.897,4117.179,0,0
122,88,0,3038,4153.077,4160.513,4154.615,4142.821,4133.59,4137.9490000000005,4130.513,4146.538,4131.795,4096.154,4091.538,4139.231,4120.769,4129.615,0,0
123,89,0,3128,4157.692,4170.385,4160.0,4161.923,4136.026,4141.795,4130.128,4158.205,4145.769,4106.538,4096.41,4143.59,4128.205,4143.59,0,0
124,90,0,3443,4144.359,4160.641,4152.308,4157.692,4135.255999999999,4136.282,4127.821,4146.667,4139.103,4085.7690000000002,4082.692,4134.359,4121.026,4118.462,0,0
125,91,0,3461,4130.385,4146.41,4136.667,4147.179,4137.692,4126.923,4133.974,4136.154,4133.718,4059.487,4066.667,4119.487,4102.692,4091.667,0,0
126,92,0,3038,4131.923,4148.333,4138.59,4153.59,4136.795,4124.487,4133.974,4144.359,4138.077,4066.1540000000005,4075.256,4124.103,4115.513,4106.667,0,0
127,93,0,3128,4156.282,4165.769,4153.846,4172.9490000000005,4136.026,4127.692,4124.359,4147.436,4144.872,4099.744000000001,4103.333,4142.692,4141.538,4135.897,0,0
128,94,0,3443,4171.795,4179.359,4150.0,4183.205,4137.821,4122.179,4117.179,4130.513,4143.333,4104.231,4116.282,4140.897,4133.462,4142.436,0,0
129,95,0,3461,4159.103,4176.538,4136.282,4183.333,4137.436,4120.513,4117.436,4117.179,4125.128,4072.4359999999997,4103.846,4122.692,4107.9490000000005,4133.974,0,0
130,96,0,3038,4158.462,4177.308,4141.795,4187.564,4136.667,4135.897,4128.846,4130.769,4117.9490000000005,4067.051,4108.205,4124.103,4110.769,4138.59,0,0
131,97,0,3128,4182.308,4197.692,4160.769,4198.974,4134.744000000001,4145.513,4142.821,4154.487,4137.564,4099.872,4142.821,4145.897,4134.615,4161.026,0,0
132,98,0,3443,4186.923,4206.538,4168.846,4209.744000000001,4142.564,4138.205,4142.0509999999995,4158.59,4149.615,4118.59,4158.718,4156.538,4143.846,4173.59,0,0
133,99,0,3461,4174.359,4195.769,4164.359,4213.974,4158.205,4140.128,4138.974,4153.077,4148.974,4119.615,4151.795,4152.821,4139.487,4166.154,0,0
134,100,0,3038,4176.923,4195.0,4159.359,4216.795,4159.872,4150.0,4141.538,4156.667,4155.385,4125.769,4159.231,4151.41,4138.718,4163.333,0,0
135,101,0,3128,4186.41,4200.769,4156.538,4219.359,4152.179,4146.538,4136.538,4155.513,4152.179,4121.026,4170.641,4153.974,4138.59,4174.487,0,0
136,102,0,3443,4195.769,4205.769,4161.795,4222.436,4160.513,4147.9490000000005,4140.641,4154.744000000001,4146.154,4128.846,4179.231,4162.436,4141.667,4187.308,0,0
137,103,0,3461,4199.872,4205.641,4169.103,4218.846,4161.923,4159.359,4156.154,4163.205,4153.205,4160.128,4189.744000000001,4170.513,4154.231,4189.744000000001,0,0
138,104,0,3038,4191.667,4200.641,4165.641,4215.641,4151.667,4157.436,4158.077,4161.795,4160.385,4164.359,4186.154,4165.641,4158.077,4185.255999999999,0,0
139,105,0,3128,4186.923,4202.308,4161.154,4223.846,4161.41,4156.41,4156.923,4159.359,4168.205,4150.255999999999,4179.744000000001,4161.41,4156.795,4185.641,0,0
140,106,0,3443,4183.077,4193.974,4159.231,4218.718,4162.692,4157.821,4156.923,4163.462,4167.179,4148.333,4181.154,4159.872,4159.103,4179.872,0,0
141,107,0,3461,4171.538,4171.795,4151.667,4200.385,4138.846,4141.667,4148.846,4152.308,4152.0509999999995,4145.385,4175.128,4150.128,4146.667,4166.538,0,0
142,108,0,3038,4167.9490000000005,4161.923,4148.59,4198.59,4125.769,4134.744000000001,4147.308,4137.308,4143.846,4138.846,4169.231,4146.538,4131.538,4166.41,0,0
143,109,0,3128,4171.923,4162.0509999999995,4156.282,4203.718,4129.872,4145.0,4157.0509999999995,4145.0,4144.231,4131.795,4172.692,4153.333,4138.59,4170.255999999999,0,0
144,110,0,3443,4168.718,4156.154,4158.59,4197.821,4136.282,4142.821,4160.128,4155.897,4139.103,4125.128,4172.9490000000005,4156.795,4149.359,4167.564,0,0
145,111,0,3461,4161.923,4149.615,4154.615,4199.744000000001,4140.385,4134.744000000001,4156.026,4150.0,4142.0509999999995,4131.154,4173.59,4154.103,4146.154,4165.128,0,0
146,112,0,3038,4160.769,4148.077,4154.359,4201.154,4132.821,4138.077,4153.59,4141.667,4148.59,4135.128,4168.846,4147.179,4138.077,4159.872,0,0
147,113,0,3128,4161.41,4146.667,4155.897,4188.846,4126.923,4140.255999999999,4154.615,4139.103,4139.487,4123.718,4153.59,4144.487,4135.385,4153.205,0,0
148,114,0,3443,4163.333,4148.974,4155.0,4191.538,4145.0,4138.462,4155.513,4139.744000000001,4136.026,4121.795,4155.0,4151.538,4138.205,4154.872,0,0
149,115,0,3461,4168.077,4155.0,4155.769,4201.154,4157.692,4143.59,4155.255999999999,4140.128,4146.026,4128.205,4168.59,4153.333,4139.487,4157.692,0,0
150,116,0,3038,4171.538,4154.872,4158.718,4193.462,4145.0,4145.769,4155.128,4140.385,4146.795,4129.103,4167.179,4146.282,4138.333,4156.026,0,0
151,117,0,3128,4161.923,4142.308,4156.154,4181.154,4126.923,4141.667,4148.718,4136.41,4136.667,4125.0,4154.231,4140.897,4137.564,4153.333,0,0
152,118,0,3443,4147.692,4131.667,4151.154,4175.128,4126.026,4136.026,4136.667,4133.205,4132.308,4115.513,4147.9490000000005,4138.462,4134.231,4150.128,0,0
153,119,0,3461,4151.282,4137.179,4150.128,4170.0,4140.513,4130.641,4135.0,4137.821,4136.154,4112.692,4154.359,4138.462,4135.385,4147.9490000000005,0,0
154,120,0,3038,4155.769,4136.795,4146.538,4169.744000000001,4135.255999999999,4130.0,4137.821,4136.282,4135.641,4111.923,4152.179,4139.744000000001,4140.897,4145.897,0,0
155,121,0,3128,4146.667,4124.744000000001,4140.255999999999,4173.205,4121.026,4134.103,4131.282,4125.897,4134.615,4105.385,4138.974,4137.9490000000005,4139.231,4143.077,0,0
156,122,0,3443,4143.846,4120.128,4142.692,4167.179,4127.692,4133.718,4127.436,4125.769,4137.692,4113.59,4142.308,4138.462,4133.333,4141.923,0,0
157,123,0,3461,4150.385,4126.41,4150.769,4165.255999999999,4139.615,4134.359,4134.872,4137.308,4140.385,4122.0509999999995,4157.692,4145.128,4138.205,4147.179,0,0
158,124,0,3038,4155.0,4137.436,4155.641,4178.205,4147.9490000000005,4141.667,4140.255999999999,4142.308,4141.282,4107.308,4157.821,4148.077,4148.333,4154.872,0,0
159,125,0,3128,4153.077,4141.282,4152.692,4179.487,4146.667,4138.718,4135.385,4138.462,4137.9490000000005,4106.795,4149.231,4140.641,4142.179,4150.0,0,0
160,126,0,3443,4157.692,4138.846,4151.154,4173.974,4139.744000000001,4140.385,4135.128,4145.128,4146.154,4139.359,4153.333,4142.179,4137.821,4152.436,0,0
161,127,0,52,4168.462,4139.872,4156.667,4183.974,4139.487,4155.255999999999,4142.308,4158.59,4160.128,4150.0,4158.077,4156.026,4152.9490000000005,4169.231,0,0
162,0,0,3199,4168.846,4139.231,4153.205,4187.436,4134.103,4150.255999999999,4140.255999999999,4155.513,4150.641,4125.513,4151.667,4153.205,4156.538,4166.41,0,0
163,1,0,2956,4158.077,4131.795,4143.077,4172.436,4123.718,4136.795,4135.769,4143.333,4136.667,4113.846,4143.974,4138.846,4141.667,4150.641,0,0
164,2,0,3447,4142.0509999999995,4122.821,4139.872,4159.744000000001,4133.462,4142.308,4132.436,4140.513,4140.0,4111.923,4135.513,4133.846,4136.282,4141.667,0,0
165,3,0,3502,4132.821,4117.0509999999995,4135.385,4157.0509999999995,4143.59,4141.41,4123.718,4136.026,4136.41,4102.821,4125.255999999999,4126.923,4137.308,4126.667,0,0
166,4,0,3559,4141.667,4121.282,4132.564,4160.0,4139.615,4134.487,4126.026,4136.795,4136.538,4119.231,4133.974,4124.615,4139.744000000001,4127.0509999999995,0,0
167,5,0,3132,4157.692,4138.846,4142.436,4170.897,4152.0509999999995,4150.0,4143.462,4154.872,4158.718,4148.333,4162.821,4138.333,4152.564,4156.923,0,0
168,6,0,3084,4156.538,4138.205,4145.255999999999,4172.308,4154.359,4154.359,4143.846,4154.359,4153.846,4134.872,4163.974,4140.0,4151.026,4158.846,0,0
169,7,0,3478,4149.872,4121.154,4141.667,4166.923,4133.205,4141.154,4135.897,4140.513,4136.667,4118.462,4148.205,4137.564,4143.59,4142.821,0,0
170,8,0,2953,4156.923,4126.154,4151.923,4171.923,4133.59,4146.538,4141.538,4149.359,4150.897,4133.846,4155.255999999999,4150.0,4153.333,4153.718,0,0
171,9,0,3585,4159.872,4141.667,4158.077,4175.385,4148.077,4155.255999999999,4142.821,4159.872,4155.255999999999,4135.0,4157.308,4148.846,4150.0,4153.974,0,0
172,10,0,3452,4153.59,4141.026,4151.41,4171.026,4148.205,4150.0,4143.077,4149.615,4139.872,4122.564,4144.103,4134.487,4138.59,4137.9490000000005,0,0
173,11,0,3458,4152.821,4132.436,4154.103,4170.513,4157.179,4152.692,4156.795,4148.846,4149.872,4134.359,4145.897,4137.692,4151.282,4147.179,0,0
174,12,0,3037,4157.564,4127.692,4156.026,4172.308,4171.795,4162.692,4165.255999999999,4160.0,4167.564,4148.333,4157.0509999999995,4141.41,4163.59,4161.154,0,0
175,13,0,3130,4151.923,4123.462,4142.692,4162.821,4156.41,4157.821,4157.436,4151.923,4148.59,4129.359,4147.9490000000005,4129.872,4152.436,4148.333,0,0
176,14,0,3452,4141.282,4122.564,4141.026,4151.538,4140.255999999999,4152.179,4149.615,4141.41,4135.897,4118.846,4137.821,4129.872,4150.641,4137.564,0,0
177,15,0,3458,4143.462,4125.255999999999,4151.538,4154.744000000001,4147.692,4156.795,4150.385,4150.255999999999,4151.282,4139.744000000001,4145.769,4139.872,4162.821,4136.026,0,0
178,16,0,0,4151.795,4127.0509999999995,4151.795,4161.154,4148.846,4156.923,4158.077,4163.59,4156.795,4156.667,4159.231,4138.462,4167.0509999999995,4134.231,0,0
179,17,0,0,4162.564,4135.255999999999,4152.564,4166.154,4153.462,4159.872,4176.923,4169.231,4161.41,4165.128,4170.128,4142.179,4171.41,4153.077,0,0
180,18,0,0,4168.59,4142.564,4158.59,4167.179,4169.103,4165.0,4184.872,4170.897,4174.103,4166.41,4170.385,4150.128,4173.333,4170.641,0,0
181,19,0,0,4155.513,4130.513,4152.308,4155.641,4165.255999999999,4157.564,4165.255999999999,4165.769,4164.744000000001,4153.846,4160.255999999999,4140.513,4160.513,4157.692,0,0
182,20,0,0,4151.923,4127.0509999999995,4154.615,4155.897,4162.179,4155.897,4154.744000000001,4165.769,4153.718,4153.462,4169.231,4142.308,4158.846,4151.282,0,0
183,21,0,0,4178.205,4157.0509999999995,4180.0,4180.255999999999,4182.564,4178.846,4177.308,4187.179,4181.282,4180.897,4195.385,4167.821,4181.667,4177.436,0,0
184,22,0,0,4197.179,4177.821,4192.692,4191.923,4188.974,4191.795,4194.103,4202.692,4201.667,4193.077,4199.359,4177.308,4194.872,4198.974,0,0
185,23,0,0,4193.59,4167.436,4185.897,4185.641,4180.641,4177.692,4186.026,4201.026,4192.564,4190.641,4192.692,4172.692,4190.255999999999,4198.974,0,0
186,24,0,0,4195.385,4165.769,4188.205,4185.897,4177.436,4173.077,4180.128,4199.103,4191.026,4202.821,4205.385,4180.385,4190.769,4201.538,0,0
187,25,0,0,4195.385,4170.897,4191.154,4182.0509999999995,4152.821,4169.872,4172.564,4190.769,4185.641,4193.077,4207.692,4179.103,4186.41,4203.718,0,0
188,26,0,0,4172.564,4146.538,4171.538,4161.538,4125.513,4150.128,4147.436,4162.821,4164.359,4157.436,4182.436,4159.487,4159.103,4186.923,0,0
189,27,0,0,4149.103,4117.821,4148.974,4142.821,4139.744000000001,4140.641,4130.128,4139.231,4148.077,4143.333,4160.641,4146.923,4131.026,4158.59,0,0
190,28,0,0,4151.026,4122.0509999999995,4150.255999999999,4141.282,4169.744000000001,4150.769,4140.0,4144.359,4151.795,4157.9490000000005,4164.359,4149.487,4139.359,4149.103,0,0
191,29,0,0,4164.487,4144.231,4163.462,4151.41,4172.564,4160.641,4157.564,4162.436,4168.846,4173.846,4182.692,4160.897,4175.641,4167.692,0,0
192,30,0,0,4177.436,4158.462,4173.205,4163.59,4160.769,4164.744000000001,4164.231,4178.846,4186.538,4190.769,4197.9490000000005,4171.795,4199.872,4194.231,0,0
193,31,0,0,4193.718,4165.513,4185.255999999999,4174.359,4171.282,4175.769,4171.795,4190.0,4194.744000000001,4211.154,4208.077,4179.872,4209.231,4208.333,0,0
194,32,0,0,4205.128,4179.487,4199.487,4183.462,4189.231,4185.0,4186.667,4194.231,4192.0509999999995,4215.255999999999,4212.436,4186.41,4216.41,4208.718,0,0
195,33,0,0,4205.128,4191.667,4207.308,4189.231,4191.282,4186.538,4193.462,4193.077,4187.179,4205.897,4206.154,4188.077,4208.077,4208.462,0,0
196,34,0,0,4201.026,4183.846,4201.795,4183.462,4186.538,4179.231,4187.179,4189.103,4183.333,4202.821,4201.923,4184.487,4188.974,4206.923,0,0
197,35,0,0,4192.308,4171.538,4191.667,4171.41,4179.872,4175.0,4182.308,4186.538,4180.385,4199.615,4200.0,4179.231,4181.667,4200.385,0,0
198,36,0,0,4187.9490000000005,4179.744000000001,4191.923,4170.641,4176.41,4185.897,4185.641,4184.872,4178.59,4192.436,4194.487,4176.923,4185.385,4196.795,0,0
199,37,0,0,4186.41,4187.821,4189.744000000001,4172.821,4182.436,4183.077,4178.846,4175.0,4171.41,4180.769,4186.538,4172.821,4180.641,4190.255999999999,0,0
200,38,0,0,4176.923,4185.255999999999,4182.692,4167.179,4187.179,4172.0509999999995,4167.436,4166.282,4166.41,4175.385,4183.333,4168.462,4173.59,4180.641,0,0
201,39,0,0,4175.255999999999,4193.974,4186.026,4166.795,4183.205,4179.231,4167.436,4176.026,4174.744000000001,4192.692,4190.385,4167.564,4179.359,4186.41,0,0
202,40,0,0,4188.462,4206.41,4193.846,4175.255999999999,4193.205,4191.667,4173.59,4190.128,4191.026,4206.923,4200.897,4172.179,4195.513,4199.744000000001,0,0
203,41,0,0,4191.026,4201.667,4189.103,4173.974,4201.154,4187.9490000000005,4182.564,4188.718,4187.564,4188.846,4198.333,4172.9490000000005,4199.872,4192.9490000000005,0,0
204,42,0,0,4178.974,4200.0,4179.359,4165.385,4183.974,4178.718,4185.513,4182.436,4170.897,4175.641,4183.718,4162.821,4189.872,4175.897,0,0
205,43,0,0,4169.615,4206.667,4175.128,4159.103,4172.0509999999995,4180.0,4175.255999999999,4181.538,4174.872,4191.282,4174.872,4154.103,4185.128,4172.179,0,0
206,44,0,0,4166.41,4195.513,4173.077,4153.59,4170.769,4181.282,4167.692,4186.282,4187.9490000000005,4198.846,4173.974,4156.026,4180.641,4176.154,0,0
207,45,0,0,4167.179,4191.795,4172.564,4157.821,4166.923,4178.846,4173.462,4184.615,4176.026,4180.641,4169.103,4157.821,4172.0509999999995,4175.255999999999,0,0
208,46,0,0,4166.282,4211.282,4167.692,4164.744000000001,4173.205,4173.718,4171.282,4173.718,4157.179,4164.872,4164.744000000001,4152.179,4173.462,4168.974,0,0
209,47,0,0,4165.385,4219.231,4165.641,4165.769,4185.897,4170.641,4166.282,4175.769,4168.333,4168.205,4175.897,4153.077,4184.103,4166.538,0,0
210,48,0,0,4171.41,4220.385,4177.0509999999995,4174.872,4182.692,4177.564,4177.179,4191.026,4188.333,4177.0509999999995,4193.462,4165.513,4187.0509999999995,4177.692,0,0
211,49,0,0,4171.154,4228.718,4180.641,4184.359,4171.154,4179.359,4177.0509999999995,4186.795,4184.615,4174.487,4186.41,4170.385,4179.359,4182.0509999999995,0,0
212,50,0,0,4164.872,4228.077,4176.026,4184.615,4170.255999999999,4172.308,4164.487,4172.0509999999995,4175.769,4169.872,4169.615,4166.795,4174.487,4173.59,0,0
213,51,0,0,4167.436,4231.154,4180.0,4188.59,4177.692,4176.538,4172.564,4177.821,4177.308,4172.821,4170.897,4166.538,4180.255999999999,4172.821,0,0
214,52,0,0,4170.769,4246.667,4186.282,4192.9490000000005,4171.923,4184.744000000001,4184.487,4185.0,4176.538,4174.103,4175.385,4169.744000000001,4185.385,4175.897,0,0
215,53,0,0,4165.897,4249.231,4184.103,4187.821,4159.744000000001,4173.462,4175.128,4179.615,4169.359,4166.154,4170.255999999999,4169.487,4178.205,4174.487,0,0
216,54,0,0,4172.9490000000005,4255.641,4182.179,4189.103,4172.436,4171.282,4173.974,4180.128,4174.103,4165.0,4172.436,4168.333,4173.462,4178.077,0,0
217,55,0,0,4186.282,4283.205,4184.744000000001,4199.615,4193.333,4188.59,4185.385,4187.0509999999995,4187.179,4179.487,4181.923,4172.564,4175.769,4186.538,0,0
218,56,0,0,4186.282,4308.333,4191.923,4209.103,4189.103,4186.538,4185.769,4192.821,4188.59,4189.744000000001,4186.154,4182.179,4182.308,4194.615,0,0
219,57,0,0,4185.0,4317.821,4200.128,4212.564,4181.026,4182.821,4179.872,4202.179,4185.385,4184.744000000001,4186.667,4187.821,4196.026,4201.154,0,0
220,58,0,0,4185.897,4312.821,4191.538,4197.179,4181.795,4190.769,4169.487,4200.641,4189.359,4182.564,4185.385,4177.436,4195.513,4192.692,0,0
221,59,0,0,4181.154,4315.897,4178.846,4184.744000000001,4176.538,4182.692,4170.513,4184.615,4189.359,4186.667,4180.255999999999,4166.282,4180.255999999999,4177.179,0,0
222,60,0,0,4185.641,4344.872,4187.179,4200.0,4177.436,4176.667,4199.103,4183.59,4185.769,4189.231,4184.359,4176.667,4182.9490000000005,4184.744000000001,0,0
223,61,0,0,4190.769,4361.026,4191.154,4204.359,4183.462,4183.333,4211.538,4187.0509999999995,4183.718,4184.615,4188.974,4182.179,4188.462,4196.154,0,0
224,62,0,0,4184.744000000001,4360.0,4186.026,4189.744000000001,4186.667,4185.897,4196.667,4185.897,4186.667,4183.333,4179.872,4176.795,4183.205,4196.538,0,0
225,63,0,0,4186.923,4379.744000000001,4197.179,4196.795,4188.462,4192.9490000000005,4199.744000000001,4199.231,4195.897,4195.897,4183.718,4183.333,4193.846,4201.282,0,0
226,64,0,3206,4198.205,4399.359,4208.205,4207.9490000000005,4191.41,4202.179,4204.615,4209.231,4204.872,4206.795,4199.615,4193.205,4208.077,4207.0509999999995,0,0
227,65,0,2971,4203.846,4398.846,4201.795,4201.538,4203.205,4200.255999999999,4194.103,4203.462,4209.744000000001,4205.897,4198.333,4192.179,4205.255999999999,4207.308,0,0
228,66,0,3467,4197.692,4396.41,4200.128,4200.255999999999,4202.564,4196.538,4190.769,4200.897,4203.718,4203.59,4184.487,4188.333,4197.436,4197.564,0,0
229,67,0,3508,4188.205,4396.923,4201.667,4202.0509999999995,4187.564,4194.487,4190.897,4199.231,4190.769,4200.641,4182.436,4187.308,4191.154,4187.308,0,0
230,68,0,3576,4183.077,4396.41,4188.205,4190.641,4181.795,4182.9490000000005,4183.077,4188.077,4185.385,4191.667,4185.769,4181.923,4185.128,4183.974,0,0
231,69,0,3139,4180.513,4396.154,4183.59,4187.0509999999995,4183.333,4179.744000000001,4180.513,4182.692,4183.718,4185.769,4178.59,4178.205,4183.077,4186.538,0,0
232,70,0,3090,4188.846,4398.077,4201.282,4199.872,4190.128,4191.538,4186.41,4187.179,4184.872,4190.385,4176.538,4182.821,4186.538,4196.795,0,0
233,71,0,3484,4197.564,4399.103,4206.282,4204.231,4198.846,4191.026,4187.436,4187.692,4194.231,4196.282,4182.436,4187.821,4189.359,4204.103,0,0
234,72,0,2956,4190.769,4395.897,4199.615,4199.359,4190.641,4186.154,4187.821,4189.872,4196.026,4200.255999999999,4186.667,4187.179,4192.308,4203.333,0,0
235,73,0,3604,4186.923,4395.128,4206.923,4199.487,4186.538,4194.615,4194.359,4198.59,4187.308,4202.692,4186.538,4184.872,4196.026,4201.026,0,0
236,74,0,3449,4198.718,4404.872,4212.821,4202.436,4212.0509999999995,4202.0509999999995,4201.154,4205.897,4194.103,4203.333,4187.564,4187.436,4202.9490000000005,4203.974,0,0
237,75,0,3470,4199.103,4404.487,4205.128,4204.615,4222.9490000000005,4200.513,4202.179,4199.744000000001,4198.59,4202.0509999999995,4190.641,4189.103,4207.436,4204.615,0,0
238,76,0,3047,4184.744000000001,4384.487,4196.923,4198.205,4196.923,4195.641,4198.333,4185.0,4183.462,4203.077,4183.462,4184.872,4197.179,4195.385,0,0
239,77,0,3140,4183.59,4373.59,4192.308,4187.564,4181.154,4190.513,4199.872,4181.154,4178.205,4203.718,4174.487,4177.0509999999995,4184.872,4187.821,0,0
240,78,0,3449,4185.897,4373.974,4184.872,4182.9490000000005,4190.128,4184.231,4202.821,4184.744000000001,4185.641,4192.179,4169.359,4168.718,4181.41,4185.513,0,0
241,79,0,3470,4182.564,4368.974,4181.026,4181.538,4200.385,4183.59,4198.974,4183.462,4182.564,4183.974,4168.718,4167.0509999999995,4180.513,4187.564,0,0
242,80,0,3047,4189.744000000001,4365.385,4190.897,4187.0509999999995,4198.974,4193.974,4196.154,4183.077,4180.769,4193.974,4177.179,4176.026,4181.538,4194.744000000001,0,0
243,81,0,3140,4200.769,4364.744000000001,4201.923,4199.487,4195.641,4200.513,4195.641,4187.692,4188.974,4203.718,4187.0509999999995,4185.255999999999,4188.846,4202.821,0,0
244,82,0,3449,4196.538,4359.615,4203.846,4200.128,4199.103,4191.538,4190.513,4189.359,4191.667,4203.077,4189.744000000001,4188.333,4193.846,4203.718,0,0
245,83,0,3470,4184.872,4355.128,4201.923,4191.154,4197.436,4181.923,4180.128,4186.282,4186.154,4199.231,4186.41,4187.821,4188.974,4198.333,0,0
246,84,0,3047,4180.513,4346.667,4203.846,4196.667,4190.769,4186.154,4173.333,4185.255999999999,4184.231,4194.744000000001,4183.462,4186.41,4184.103,4197.308,0,0
247,85,0,3140,4183.846,4330.641,4203.718,4204.359,4185.641,4185.385,4167.692,4184.487,4187.308,4195.769,4183.205,4185.128,4184.359,4198.974,0,0
248,86,0,3449,4195.255999999999,4325.128,4202.564,4199.103,4184.231,4180.769,4164.872,4184.744000000001,4188.077,4201.923,4186.667,4187.0509999999995,4182.9490000000005,4201.026,0,0
249,87,0,3470,4202.436,4326.795,4206.282,4199.744000000001,4190.897,4186.795,4168.846,4187.308,4185.0,4200.385,4187.0509999999995,4190.255999999999,4178.077,4203.205,0,0
250,88,0,3047,4196.154,4315.255999999999,4204.487,4201.538,4199.487,4187.821,4169.744000000001,4180.128,4178.974,4195.769,4184.744000000001,4187.564,4176.795,4202.9490000000005,0,0
251,89,0,3140,4194.487,4300.255999999999,4196.923,4189.744000000001,4197.436,4184.615,4167.821,4170.128,4177.9490000000005,4198.077,4191.667,4183.205,4179.359,4202.179,0,0
252,90,0,3449,4198.333,4299.872,4196.154,4186.667,4190.385,4186.41,4168.974,4173.846,4187.308,4200.128,4199.872,4183.718,4181.282,4201.923,0,0
253,91,0,3470,4191.41,4298.077,4200.769,4198.205,4188.205,4187.9490000000005,4170.769,4180.513,4188.59,4197.821,4198.462,4187.0509999999995,4182.821,4204.615,0,0
254,92,0,3047,4181.154,4277.821,4194.231,4189.231,4185.0,4185.128,4168.333,4172.436,4174.359,4191.538,4189.103,4181.41,4178.333,4201.795,0,0
255,93,0,3140,4180.769,4258.846,4180.255999999999,4170.769,4181.795,4181.923,4165.255999999999,4165.128,4163.462,4183.59,4181.026,4170.897,4169.359,4193.846,0,0
256,94,0,3449,4185.513,4261.026,4182.692,4179.231,4186.282,4182.308,4170.385,4176.282,4177.308,4191.795,4188.974,4174.615,4174.744000000001,4196.41,0,0
257,95,0,3470,4189.615,4263.59,4193.718,4187.692,4190.513,4184.103,4174.487,4187.9490000000005,4199.231,4212.0509999999995,4199.744000000001,4186.795,4188.205,4205.385,0,0
258,96,0,3047,4188.974,4252.692,4191.923,4176.538,4188.59,4185.897,4173.718,4189.359,4195.0,4214.487,4193.718,4185.769,4191.026,4199.359,0,0
259,97,0,3140,4184.231,4245.641,4186.667,4173.718,4186.923,4187.9490000000005,4180.0,4185.0,4174.487,4202.9490000000005,4185.641,4175.0,4186.923,4188.077,0,0
260,98,0,3449,4176.154,4241.538,4188.462,4178.462,4183.846,4189.103,4184.744000000001,4176.923,4172.564,4195.513,4184.231,4169.231,4179.231,4187.821,0,0
261,99,0,3470,4168.846,4229.359,4182.9490000000005,4171.667,4175.385,4180.513,4176.538,4171.923,4179.487,4189.872,4184.231,4168.846,4176.154,4187.179,0,0
262,100,0,3047,4166.41,4218.205,4172.308,4162.0509999999995,4164.103,4168.462,4168.205,4172.692,4174.231,4185.897,4187.564,4169.103,4176.41,4184.744000000001,0,0
263,101,0,3140,4168.59,4214.744000000001,4173.974,4164.359,4163.077,4170.128,4168.974,4171.41,4171.923,4191.154,4186.538,4166.667,4171.538,4183.974,0,0
264,102,0,3449,4172.9490000000005,4217.821,4180.513,4167.9490000000005,4177.9490000000005,4179.231,4174.231,4171.026,4178.974,4198.077,4183.205,4168.077,4170.255999999999,4184.615,0,0
265,103,0,3470,4183.205,4229.487,4184.103,4171.41,4189.872,4190.513,4188.077,4186.667,4189.487,4204.744000000001,4194.103,4179.744000000001,4182.821,4194.872,0,0
266,104,0,3047,4193.846,4237.436,4188.718,4179.872,4187.821,4199.744000000001,4199.615,4204.231,4202.821,4218.077,4208.205,4190.513,4199.103,4207.564,0,0
267,105,0,3140,4190.385,4224.872,4188.077,4178.974,4184.744000000001,4193.333,4190.128,4202.692,4206.923,4220.128,4203.718,4188.333,4199.487,4205.0,0,0
268,106,0,3449,4181.795,4211.282,4183.205,4169.872,4186.923,4182.179,4179.359,4195.255999999999,4202.9490000000005,4211.795,4196.667,4186.538,4188.462,4197.436,0,0
269,107,0,3470,4182.9490000000005,4214.359,4186.026,4170.385,4184.103,4186.282,4182.9490000000005,4200.385,4204.487,4212.179,4201.795,4192.821,4183.718,4201.923,0,0
270,108,0,3047,4187.564,4217.692,4194.744000000001,4183.846,4185.513,4191.154,4182.179,4203.333,4202.564,4218.974,4207.179,4193.077,4188.974,4205.641,0,0
271,109,0,3140,4187.0509999999995,4206.795,4192.308,4183.974,4191.154,4185.128,4170.385,4190.641,4189.615,4219.103,4202.308,4187.564,4187.564,4202.9490000000005,0,0
272,110,0,3449,4185.0,4198.974,4185.385,4171.282,4181.538,4184.487,4166.154,4185.641,4187.308,4213.846,4203.205,4192.436,4183.462,4207.564,0,0
273,111,0,3470,4184.615,4205.513,4190.769,4173.205,4173.462,4188.59,4177.308,4199.615,4199.615,4217.821,4215.513,4203.59,4192.179,4216.026,0,0
274,112,0,3047,4190.513,4208.077,4197.436,4184.744000000001,4185.255999999999,4193.718,4185.385,4207.179,4206.282,4230.128,4216.795,4203.974,4199.487,4216.282,0,0
275,113,0,3140,4197.9490000000005,4201.538,4194.744000000001,4183.59,4195.769,4198.462,4185.769,4195.513,4202.179,4231.282,4211.282,4200.769,4199.615,4215.255999999999,0,0
276,114,0,3449,4195.385,4197.436,4192.821,4175.255999999999,4186.667,4194.872,4187.0509999999995,4187.9490000000005,4198.333,4223.59,4215.0,4203.974,4200.385,4220.128,0,0
277,115,0,3470,4188.59,4194.487,4192.564,4174.487,4172.308,4187.436,4177.436,4183.718,4188.205,4214.744000000001,4212.0509999999995,4199.359,4195.897,4215.513,0,0
278,116,0,3047,4184.615,4179.359,4183.974,4166.282,4168.974,4177.9490000000005,4154.744000000001,4165.128,4171.538,4200.641,4194.487,4184.487,4177.821,4194.744000000001,0,0
279,117,0,3140,4182.821,4170.641,4179.231,4164.615,4180.897,4170.641,4150.513,4153.462,4170.641,4194.872,4186.923,4176.154,4166.41,4184.872,0,0
280,118,0,3449,4178.205,4173.846,4178.077,4173.333,4186.154,4172.0509999999995,4160.385,4159.103,4169.744000000001,4196.41,4184.231,4175.897,4165.513,4183.462,0,0
281,119,0,3470,4159.231,4156.538,4162.0509999999995,4156.026,4165.641,4171.026,4152.308,4156.154,4159.487,4180.641,4171.026,4165.641,4154.231,4166.41,0,0
282,120,0,3047,4149.872,4142.179,4157.821,4142.179,4151.282,4164.744000000001,4149.744000000001,4155.513,4166.282,4181.538,4175.769,4163.718,4157.179,4165.769,0,0
283,121,0,3140,4175.641,4166.923,4179.615,4163.59,4167.0509999999995,4175.128,4170.128,4180.769,4187.179,4215.128,4201.538,4188.846,4189.231,4202.308,0,0
284,122,0,3449,4192.179,4187.0509999999995,4191.667,4177.179,4185.513,4190.769,4177.436,4198.59,4198.718,4228.974,4211.538,4204.231,4211.667,4223.077,0,0
285,123,0,3470,4171.026,4170.769,4183.333,4166.282,4185.513,4181.923,4161.282,4185.385,4196.026,4218.59,4200.385,4188.846,4200.385,4202.564,0,0
286,124,0,3047,4163.718,4161.41,4178.718,4165.641,4184.744000000001,4172.692,4157.692,4170.0,4183.333,4213.333,4197.0509999999995,4178.974,4185.385,4185.385,0,0
287,125,0,3140,4181.795,4172.9490000000005,4180.0,4172.436,4186.41,4182.0509999999995,4170.255999999999,4172.0509999999995,4175.769,4208.333,4198.205,4184.231,4187.436,4192.179,0,0
288,126,0,3449,4177.821,4169.615,4173.333,4168.462,4178.333,4188.333,4171.795,4177.0509999999995,4182.692,4199.359,4191.026,4175.641,4183.718,4186.795,0,0
289,127,0,52,4161.795,4154.872,4166.026,4164.872,4172.308,4183.974,4164.872,4171.41,4186.282,4198.333,4185.0,4163.718,4172.692,4169.615,0,0
290,0,0,3206,4167.9490000000005,4154.103,4168.333,4168.077,4171.667,4182.9490000000005,4169.231,4168.333,4182.0509999999995,4202.692,4185.128,4168.462,4175.255999999999,4173.333,0,0
291,1,0,2966,4175.769,4160.641,4179.359,4173.333,4169.359,4183.462,4181.026,4174.103,4178.974,4203.846,4190.513,4175.128,4184.359,4186.923,0,0
292,2,0,3467,4170.513,4160.128,4184.103,4168.59,4176.282,4181.154,4185.641,4175.255999999999,4176.154,4202.821,4198.462,4173.462,4182.436,4184.615,0,0
293,3,0,3512,4170.897,4156.282,4177.9490000000005,4158.718,4179.744000000001,4181.026,4183.077,4173.462,4180.641,4206.026,4200.385,4171.41,4178.718,4182.692,0,0
294,4,0,3554,4168.462,4148.59,4171.667,4156.026,4161.41,4168.846,4175.0,4171.667,4187.9490000000005,4204.231,4191.538,4171.026,4175.769,4183.077,0,0
295,5,0,3144,4152.9490000000005,4137.821,4167.308,4151.795,4156.538,4156.026,4163.59,4164.103,4180.897,4187.821,4185.385,4165.513,4165.769,4173.077,0,0
296,6,0,3094,4154.872,4141.026,4171.538,4152.564,4177.179,4172.0509999999995,4168.846,4170.513,4177.0509999999995,4192.308,4195.0,4169.487,4171.538,4176.538,0,0
297,7,0,3489,4172.692,4151.795,4178.333,4166.923,4181.41,4190.641,4183.333,4183.718,4188.333,4214.231,4206.923,4181.667,4186.154,4186.41,0,0
298,8,0,2960,4169.872,4147.0509999999995,4173.462,4166.41,4166.795,4177.564,4178.718,4176.667,4186.667,4203.974,4198.846,4177.179,4176.667,4175.513,0,0
299,9,0,3605,4154.615,4133.846,4166.923,4150.641,4165.897,4163.077,4167.0509999999995,4166.538,4169.487,4179.872,4184.487,4165.385,4157.308,4167.0509999999995,0,0
300,10,0,3441,4153.333,4130.897,4169.103,4156.026,4171.026,4168.974,4168.59,4168.59,4164.231,4177.179,4184.487,4166.026,4154.615,4172.308,0,0
301,11,0,3468,4155.641,4134.872,4170.128,4171.795,4170.128,4171.154,4168.718,4167.179,4171.538,4180.769,4185.513,4168.205,4158.077,4170.255999999999,0,0
302,12,0,3048,4152.179,4139.359,4168.974,4176.538,4168.974,4172.564,4166.41,4165.897,4172.564,4177.0509999999995,4179.615,4167.9490000000005,4155.769,4166.538,0,0
303,13,0,3135,4151.923,4137.436,4170.0,4181.154,4160.513,4179.103,4172.821,4172.0509999999995,4172.308,4173.846,4179.872,4165.897,4155.385,4170.255999999999,0,0
304,14,0,3441,4154.615,4129.231,4167.436,4186.282,4158.846,4175.385,4169.615,4170.769,4172.0509999999995,4170.641,4184.744000000001,4158.59,4157.436,4169.872,0,0
305,15,0,3468,4153.974,4124.359,4163.846,4185.128,4164.872,4168.205,4155.0,4164.872,4170.769,4170.897,4184.487,4158.974,4158.077,4166.538,0,0
306,16,0,0,4154.103,4128.59,4165.513,4186.538,4162.436,4169.487,4153.205,4168.718,4177.692,4176.667,4184.744000000001,4170.255999999999,4158.846,4169.103,0,0
307,17,0,0,4154.744000000001,4133.462,4169.487,4190.513,4162.0509999999995,4170.897,4157.436,4171.41,4176.41,4176.154,4183.205,4168.59,4157.692,4170.0,0,0
308,18,0,0,4149.359,4127.0509999999995,4164.872,4189.103,4163.333,4166.026,4152.308,4158.59,4161.282,4165.128,4172.692,4152.9490000000005,4152.436,4160.385,0,0
309,19,0,0,4145.513,4118.974,4158.59,4185.513,4159.231,4165.0,4153.205,4149.359,4159.359,4156.795,4166.026,4149.615,4153.077,4154.103,0,0
310,20,0,0,4152.0509999999995,4124.615,4169.103,4188.59,4165.128,4172.308,4167.308,4162.9490000000005,4171.538,4163.846,4176.795,4165.385,4158.718,4157.0509999999995,0,0
311,21,0,0,4162.436,4138.077,4180.385,4195.641,4175.897,4182.564,4174.872,4173.333,4173.59,4176.41,4183.333,4173.333,4157.564,4157.9490000000005,0,0
312,22,0,0,4168.59,4148.333,4181.41,4202.821,4175.769,4188.077,4170.897,4168.205,4170.513,4177.179,4177.179,4170.513,4159.103,4160.0,0,0
313,23,0,0,4171.282,4158.205,4185.513,4209.744000000001,4180.385,4183.718,4164.487,4168.718,4174.231,4172.308,4174.615,4175.769,4166.026,4171.538,0,0
314,24,0,0,4174.231,4162.179,4184.231,4211.667,4186.282,4175.128,4161.795,4170.513,4174.487,4175.128,4177.0509999999995,4181.282,4162.9490000000005,4177.821,0,0
315,25,0,0,4167.179,4146.667,4169.487,4198.718,4171.923,4169.487,4159.359,4160.385,4165.128,4170.513,4170.769,4167.692,4154.103,4164.103,0,0
316,26,0,0,4148.333,4129.103,4162.692,4188.077,4158.077,4170.897,4156.795,4151.154,4152.9490000000005,4156.41,4158.718,4155.0,4150.769,4147.9490000000005,0,0
317,27,0,0,4139.744000000001,4129.103,4166.538,4189.359,4162.436,4171.41,4158.462,4152.0509999999995,4152.436,4155.641,4157.308,4162.0509999999995,4149.744000000001,4150.385,0,0
318,28,0,0,4151.795,4141.667,4166.667,4189.359,4177.692,4168.718,4166.41,4162.179,4164.487,4168.462,4166.41,4171.026,4157.0509999999995,4162.564,0,0
319,29,0,0,4165.255999999999,4152.179,4167.436,4192.0509999999995,4186.795,4174.615,4172.179,4171.026,4171.795,4176.795,4175.385,4171.282,4170.897,4166.795,0,0
320,30,0,0,4167.564,4156.154,4172.0509999999995,4198.974,4181.41,4184.615,4170.0,4169.359,4177.308,4180.0,4175.0,4171.41,4173.205,4167.436,0,0
321,31,0,0,4167.9490000000005,4155.255999999999,4172.436,4200.385,4177.9490000000005,4187.179,4172.179,4169.615,4183.59,4187.821,4171.667,4171.282,4172.308,4169.872,0,0
322,32,0,0,4166.282,4149.744000000001,4167.179,4197.821,4178.59,4184.744000000001,4173.846,4167.564,4176.026,4184.359,4170.769,4163.205,4169.103,4167.308,0,0
323,33,0,0,4167.692,4149.615,4166.538,4199.231,4172.436,4184.231,4170.385,4159.872,4166.795,4168.205,4169.744000000001,4160.513,4159.744000000001,4168.846,0,0
324,34,0,0,4177.821,4159.231,4167.436,4199.615,4170.897,4180.128,4167.692,4163.846,4170.897,4163.333,4171.154,4167.692,4160.0,4179.103,0,0
325,35,0,0,4189.103,4169.872,4165.0,4197.0509999999995,4171.41,4176.538,4168.718,4168.846,4171.667,4173.077,4173.077,4167.9490000000005,4165.641,4193.974,0,0
326,36,0,0,4219.103,4192.436,4179.744000000001,4210.0,4163.333,4182.564,4176.923,4167.9490000000005,4171.795,4187.692,4188.077,4181.538,4167.0509999999995,4223.462,0,0
327,37,0,0,4263.846,4230.128,4207.692,4231.282,4165.769,4189.487,4187.0509999999995,4179.231,4185.769,4198.846,4214.487,4210.385,4170.769,4269.615,0,0
328,38,0,0,4288.462,4243.718,4219.103,4236.923,4189.487,4190.128,4190.255999999999,4190.255999999999,4193.718,4203.462,4221.282,4223.718,4170.513,4298.718,0,0
329,39,0,0,4291.41,4231.026,4220.641,4231.026,4204.103,4187.564,4185.385,4185.385,4187.564,4201.154,4211.282,4226.154,4164.487,4298.974,0,0
330,40,0,0,4298.59,4243.077,4231.795,4241.667,4202.179,4187.564,4188.59,4185.897,4186.923,4201.795,4224.103,4238.59,4166.282,4305.513,0,0
331,41,0,0,4305.128,4266.282,4236.795,4251.154,4204.359,4188.846,4197.436,4191.282,4190.128,4207.821,4244.744000000001,4241.41,4174.359,4320.513,0,0
332,42,0,0,4289.744000000001,4246.41,4219.487,4229.359,4197.0509999999995,4183.718,4191.026,4182.821,4187.9490000000005,4206.154,4229.872,4221.667,4175.769,4302.821,0,0
333,43,0,0,4253.974,4199.231,4196.795,4202.436,4174.872,4172.692,4172.564,4169.359,4182.308,4189.615,4196.282,4200.255999999999,4168.718,4256.154,0,0
334,44,0,0,4215.0,4171.667,4181.795,4192.692,4166.923,4169.231,4159.872,4161.41,4172.692,4170.255999999999,4178.333,4184.872,4158.077,4223.846,0,0
335,45,0,0,4194.359,4162.564,4174.487,4192.0509999999995,4170.255999999999,4171.026,4157.692,4158.846,4166.154,4169.103,4175.641,4174.872,4155.641,4208.077,0,0
336,46,0,0,4180.897,4148.462,4168.333,4182.179,4165.769,4165.769,4148.59,4154.103,4164.231,4171.41,4166.923,4164.359,4155.641,4188.077,0,0
337,47,0,0,4165.385,4134.359,4165.255999999999,4170.385,4164.872,4164.103,4144.615,4151.795,4163.846,4165.385,4157.308,4157.436,4152.436,4167.9490000000005,0,0
338,48,0,0,4165.385,4134.615,4171.41,4179.615,4169.744000000001,4171.538,4160.897,4166.41,4170.255999999999,4174.231,4165.0,4166.923,4161.795,4159.103,0,0
339,49,0,0,4163.846,4134.359,4170.128,4185.255999999999,4168.718,4173.846,4168.205,4174.103,4178.718,4185.128,4170.128,4171.026,4173.59,4156.154,0,0
340,50,0,0,4142.308,4121.667,4156.667,4165.255999999999,4165.641,4168.974,4161.154,4157.436,4172.9490000000005,4171.41,4157.0509999999995,4154.744000000001,4168.077,4148.59,0,0
341,51,0,0,4129.744000000001,4120.385,4156.923,4158.333,4166.154,4167.436,4163.462,4149.872,4163.974,4162.564,4150.897,4147.821,4163.205,4142.0509999999995,0,0
342,52,0,0,4141.154,4127.179,4167.692,4175.897,4169.359,4170.641,4168.974,4164.744000000001,4169.487,4175.385,4157.821,4158.846,4171.923,4142.179,0,0
343,53,0,0,4140.769,4115.0,4159.103,4169.359,4165.385,4171.667,4156.41,4163.59,4168.205,4171.026,4148.974,4151.667,4168.718,4136.795,0,0
344,54,0,0,4128.333,4099.487,4147.179,4149.231,4159.359,4163.718,4146.154,4147.564,4157.564,4156.026,4139.615,4140.0,4154.615,4131.41,0,0
345,55,0,0,4129.487,4107.564,4154.359,4152.9490000000005,4153.974,4158.59,4158.205,4155.0,4162.821,4163.077,4150.128,4152.308,4157.0509999999995,4139.103,0,0
346,56,0,0,4128.974,4108.077,4152.436,4151.667,4141.026,4160.255999999999,4165.385,4166.154,4174.359,4168.974,4153.59,4156.154,4159.359,4137.436,0,0
347,57,0,0,4118.846,4090.256,4142.308,4141.667,4139.744000000001,4155.897,4161.538,4160.128,4172.436,4160.385,4142.179,4141.282,4151.795,4122.821,0,0
348,58,0,0,4120.255999999999,4093.205,4151.41,4148.846,4157.179,4156.667,4164.487,4161.538,4168.077,4165.0,4140.897,4140.769,4156.795,4124.744000000001,0,0
349,59,0,0,4124.487,4105.255999999999,4155.897,4156.154,4157.179,4170.0,4177.308,4167.9490000000005,4167.0509999999995,4174.872,4145.897,4147.692,4166.41,4130.385,0,0
350,60,0,0,4108.462,4092.5640000000003,4133.077,4138.718,4138.462,4165.513,4170.385,4151.026,4150.255999999999,4151.923,4130.0,4130.769,4151.026,4111.538,0,0
351,61,0,0,4094.744,4084.744,4120.897,4125.513,4145.385,4152.179,4148.846,4134.231,4137.308,4128.205,4117.692,4113.205,4136.41,4097.0509999999995,0,0
352,62,0,0,4113.333,4104.744000000001,4142.9490000000005,4145.897,4168.59,4167.436,4157.436,4150.641,4155.0,4151.026,4134.615,4131.154,4151.154,4115.641,0,0
353,63,0,0,4135.0,4116.923,4156.667,4161.154,4171.923,4183.846,4175.513,4165.128,4173.974,4173.846,4148.077,4152.0509999999995,4163.077,4130.385,0,0
354,64,0,3204,4131.154,4109.231,4147.0509999999995,4147.9490000000005,4167.564,4175.385,4167.692,4155.641,4167.436,4161.667,4141.282,4144.231,4155.513,4122.436,0,0
355,65,0,2961,4124.231,4104.744000000001,4147.692,4140.513,4166.538,4170.0,4153.846,4156.026,4163.462,4156.795,4136.026,4139.615,4152.9490000000005,4119.231,0,0
356,66,0,3462,4126.667,4104.103,4153.718,4147.564,4155.641,4171.538,4152.564,4164.359,4170.641,4170.0,4141.538,4151.667,4156.154,4125.513,0,0
357,67,0,3511,4129.872,4107.821,4151.026,4151.41,4150.641,4169.615,4160.255999999999,4166.282,4172.436,4173.205,4150.897,4156.667,4157.436,4126.41,0,0
358,68,0,3557,4132.821,4112.179,4153.718,4151.026,4161.538,4171.41,4165.385,4165.128,4169.744000000001,4171.026,4153.59,4154.744000000001,4161.795,4125.255999999999,0,0
359,69,0,3134,4126.538,4106.667,4152.0509999999995,4145.385,4154.872,4173.846,4159.872,4159.744000000001,4160.385,4167.564,4141.795,4151.282,4160.513,4124.615,0,0
360,70,0,3086,4117.436,4101.026,4139.615,4139.231,4147.436,4172.821,4151.154,4159.359,4155.513,4162.179,4135.255999999999,4142.308,4153.077,4121.923,0,0
361,71,0,3487,4120.385,4106.154,4137.0509999999995,4137.564,4164.615,4168.59,4148.846,4167.436,4166.538,4167.436,4145.0,4139.615,4155.641,4122.9490000000005,0,0
362,72,0,2961,4117.436,4107.0509999999995,4141.795,4132.692,4167.436,4159.103,4141.026,4163.462,4167.308,4173.333,4145.897,4142.0509999999995,4158.462,4122.9490000000005,0,0
363,73,0,3605,4107.0509999999995,4098.974,4135.513,4128.333,4147.436,4149.615,4130.897,4143.333,4149.872,4166.41,4139.487,4136.154,4148.974,4118.333,0,0
364,74,0,3438,4123.462,4106.282,4134.231,4137.821,4145.513,4152.436,4134.872,4145.128,4150.769,4164.615,4149.615,4139.872,4154.872,4127.308,0,0
365,75,0,3464,4142.9490000000005,4124.872,4144.872,4142.564,4158.718,4160.128,4137.436,4153.718,4161.026,4175.255999999999,4160.385,4154.231,4168.333,4140.897,0,0
366,76,0,3046,4137.179,4128.077,4149.103,4139.103,4157.9490000000005,4154.615,4133.205,4145.385,4156.923,4182.179,4160.769,4156.795,4159.872,4141.795,0,0
367,77,0,3131,4138.077,4121.41,4147.692,4144.872,4153.59,4149.103,4136.538,4143.846,4161.154,4183.077,4165.385,4152.821,4155.641,4144.103,0,0
368,78,0,3438,4155.0,4127.692,4155.128,4153.205,4159.231,4160.897,4146.795,4151.41,4169.487,4191.538,4174.359,4161.667,4171.282,4155.128,0,0
369,79,0,3464,4163.462,4143.59,4164.359,4157.692,4170.513,4175.128,4155.641,4156.923,4162.692,4203.333,4178.59,4172.564,4180.641,4161.667,0,0
370,80,0,3046,4152.821,4143.846,4159.744000000001,4155.897,4172.436,4172.564,4149.872,4150.513,4152.436,4193.718,4172.9490000000005,4163.333,4169.231,4151.026,0,0
371,81,0,3131,4140.128,4132.308,4153.333,4149.103,4170.128,4168.077,4141.538,4143.205,4153.974,4175.0,4160.641,4150.641,4157.564,4136.026,0,0
372,82,0,3438,4139.103,4124.615,4156.795,4148.205,4172.436,4173.59,4148.59,4144.615,4155.897,4169.744000000001,4150.769,4150.255999999999,4151.923,4131.154,0,0
373,83,0,3464,4140.0,4121.41,4157.179,4152.308,4167.0509999999995,4172.692,4155.0,4149.744000000001,4152.0509999999995,4168.333,4150.255999999999,4151.538,4149.872,4136.026,0,0
374,84,0,3046,4139.103,4122.9490000000005,4156.154,4153.718,4165.897,4167.436,4151.41,4153.846,4150.513,4167.821,4153.718,4151.538,4153.846,4140.385,0,0
375,85,0,3131,4135.513,4125.128,4155.385,4149.231,4172.692,4168.718,4150.513,4149.359,4150.385,4167.564,4150.0,4148.846,4149.615,4133.59,0,0
376,86,0,3438,4124.615,4116.154,4148.462,4141.282,4159.615,4166.154,4148.846,4140.641,4147.436,4156.923,4142.692,4140.641,4139.487,4124.231,0,0
377,87,0,3464,4113.718,4101.282,4136.41,4130.641,4140.897,4157.821,4137.0509999999995,4129.872,4138.205,4142.821,4136.282,4133.333,4132.564,4114.744000000001,0,0
378,88,0,3046,4114.487,4095.256,4131.538,4126.795,4144.744000000001,4155.769,4130.769,4129.487,4137.821,4144.744000000001,4135.897,4132.0509999999995,4132.0509999999995,4111.41,0,0
379,89,0,3131,4128.333,4109.231,4146.026,4141.795,4162.564,4168.974,4148.59,4149.487,4158.846,4169.615,4153.205,4143.974,4149.231,4128.59,0,0
380,90,0,3438,4148.077,4131.282,4164.872,4157.436,4172.692,4180.385,4165.769,4172.179,4176.154,4195.513,4177.436,4166.923,4177.692,4155.769,0,0
381,91,0,3464,4154.359,4134.359,4162.564,4155.769,4167.436,4176.795,4162.179,4172.821,4171.282,4197.564,4178.462,4171.154,4185.769,4160.255999999999,0,0
382,92,0,3046,4141.795,4122.9490000000005,4153.333,4152.436,4159.615,4169.744000000001,4155.255999999999,4158.718,4167.308,4183.462,4161.282,4156.667,4173.846,4144.487,0,0
383,93,0,3131,4130.0,4123.846,4151.667,4152.564,4156.667,4169.359,4152.9490000000005,4154.487,4170.128,4177.179,4155.641,4152.0509999999995,4167.564,4137.179,0,0
384,94,0,3438,4127.179,4125.0,4144.487,4145.128,4153.205,4166.154,4142.436,4150.641,4157.179,4169.615,4155.769,4150.513,4158.846,4132.9490000000005,0,0
385,95,0,3464,4125.255999999999,4109.359,4134.231,4134.231,4151.026,4155.255999999999,4126.923,4142.436,4142.0509999999995,4158.333,4149.487,4140.769,4144.103,4126.282,0,0
386,96,0,3046,4119.231,4101.282,4128.718,4127.308,4152.436,4150.641,4123.077,4136.923,4141.282,4153.718,4139.615,4132.0509999999995,4136.923,4118.333,0,0
387,97,0,3131,4110.897,4106.026,4121.538,4124.872,4149.487,4148.974,4122.0509999999995,4127.308,4139.103,4144.103,4128.59,4123.974,4131.538,4106.923,0,0
388,98,0,3438,4114.872,4105.897,4123.333,4132.692,4148.462,4151.538,4123.846,4125.255999999999,4139.872,4137.0509999999995,4128.462,4118.333,4127.0509999999995,4108.333,0,0
389,99,0,3464,4126.795,4113.205,4138.462,4143.077,4155.769,4163.718,4134.872,4140.513,4156.538,4149.359,4138.333,4129.615,4139.615,4122.0509999999995,0,0
390,100,0,3046,4126.41,4122.436,4140.0,4136.923,4154.744000000001,4163.974,4138.718,4148.846,4159.487,4163.846,4144.103,4141.154,4155.513,4125.897,0,0
391,101,0,3131,4119.615,4112.821,4128.462,4128.718,4148.974,4151.154,4136.026,4137.308,4140.897,4156.282,4140.255999999999,4131.282,4148.718,4120.385,0,0
392,102,0,3438,4118.846,4101.41,4129.103,4131.667,4151.795,4153.974,4138.205,4134.359,4140.641,4146.923,4137.0509999999995,4122.9490000000005,4138.077,4118.846,0,0
393,103,0,3464,4127.564,4108.974,4142.436,4138.846,4153.59,4167.0509999999995,4142.821,4151.026,4161.026,4164.615,4150.0,4136.667,4150.769,4128.974,0,0
394,104,0,3046,4134.487,4114.487,4146.41,4143.333,4150.641,4165.385,4141.282,4157.9490000000005,4165.513,4179.487,4165.897,4147.564,4164.231,4139.359,0,0
395,105,0,3131,4126.667,4106.923,4134.359,4135.769,4141.41,4154.103,4132.179,4144.231,4148.846,4163.59,4159.103,4133.846,4154.231,4132.179,0,0
396,106,0,3438,4118.462,4102.9490000000005,4123.205,4125.897,4128.077,4144.231,4121.026,4129.615,4138.077,4143.846,4141.154,4120.897,4136.282,4120.385,0,0
397,107,0,3464,4127.0509999999995,4111.795,4130.769,4136.795,4133.59,4143.462,4122.179,4132.436,4147.821,4149.487,4142.179,4131.154,4136.282,4124.359,0,0
398,108,0,3046,4132.436,4118.59,4141.026,4155.513,4151.538,4151.538,4135.385,4139.744000000001,4153.205,4158.077,4152.9490000000005,4139.103,4145.128,4128.974,0,0
399,109,0,3131,4124.744000000001,4113.077,4133.205,4153.846,4158.718,4155.897,4140.255999999999,4139.359,4144.231,4148.077,4152.821,4127.179,4143.59,4124.487,0,0
400,110,0,3438,4119.103,4111.538,4125.897,4153.333,4151.282,4154.231,4138.846,4136.538,4141.923,4137.179,4148.846,4117.179,4136.282,4122.0509999999995,0,0
401,111,0,3464,4120.128,4119.231,4132.308,4167.821,4146.282,4153.974,4140.513,4138.333,4153.077,4146.154,4154.744000000001,4125.769,4136.282,4126.538,0,0
402,112,0,3046,4121.667,4115.128,4130.769,4164.359,4145.385,4155.897,4140.897,4141.154,4159.359,4154.615,4156.282,4128.846,4138.718,4126.026,0,0
403,113,0,3131,4118.462,4103.718,4119.872,4152.0509999999995,4139.872,4149.744000000001,4137.436,4137.436,4151.538,4142.564,4143.205,4116.795,4137.308,4116.282,0,0
404,114,0,3438,4119.615,4109.872,4120.385,4162.308,4140.897,4142.308,4137.179,4139.359,4146.667,4133.205,4135.897,4116.923,4140.128,4115.897,0,0
405,115,0,3464,4125.513,4120.385,4124.615,4174.103,4141.923,4146.795,4146.154,4146.154,4149.231,4136.923,4138.718,4123.205,4141.667,4121.41,0,0
406,116,0,3046,4118.462,4112.821,4121.154,4167.692,4128.333,4150.255999999999,4151.026,4142.821,4153.205,4135.897,4137.179,4119.487,4136.923,4112.436,0,0
407,117,0,3131,4110.128,4104.231,4118.333,4163.205,4124.103,4139.872,4142.0509999999995,4136.538,4154.359,4133.205,4134.359,4115.897,4133.59,4108.59,0,0
408,118,0,3438,4119.615,4112.9490000000005,4122.0509999999995,4168.846,4149.103,4139.872,4135.641,4145.0,4153.59,4136.538,4138.59,4121.282,4136.026,4124.103,0,0
409,119,0,3464,4128.333,4123.59,4127.821,4168.077,4155.897,4154.359,4139.487,4155.897,4152.436,4139.872,4142.0509999999995,4125.897,4142.179,4129.487,0,0
410,120,0,3046,4122.564,4121.282,4127.179,4158.59,4137.436,4155.385,4141.538,4150.128,4152.9490000000005,4141.538,4140.897,4126.026,4142.436,4120.255999999999,0,0
411,121,0,3131,4119.872,4119.872,4122.436,4153.462,4143.205,4148.846,4140.769,4142.308,4157.564,4143.077,4140.641,4126.538,4139.359,4120.255999999999,0,0
412,122,0,3438,4119.359,4122.179,4120.385,4151.795,4151.667,4148.333,4141.667,4139.744000000001,4150.641,4141.026,4138.462,4122.692,4138.718,4123.718,0,0
413,123,0,3464,4123.974,4121.667,4122.564,4157.564,4147.564,4152.9490000000005,4147.821,4143.077,4145.641,4143.59,4138.846,4123.59,4141.282,4122.821,0,0
414,124,0,3046,4134.103,4123.462,4124.231,4163.462,4147.308,4156.41,4153.718,4150.513,4155.128,4150.128,4144.744000000001,4128.59,4143.718,4123.974,0,0
415,125,0,3131,4127.9490000000005,4123.846,4123.718,4159.615,4138.718,4152.179,4145.769,4148.462,4157.692,4151.41,4147.308,4128.333,4142.692,4123.718,0,0
416,126,0,3438,4111.154,4115.128,4120.255999999999,4151.154,4127.9490000000005,4147.821,4129.359,4134.744000000001,4149.615,4142.9490000000005,4137.308,4121.923,4137.564,4112.821,0,0
417,127,0,52,4116.667,4118.59,4119.231,4151.923,4143.333,4150.128,4121.41,4128.077,4147.564,4138.846,4131.795,4117.692,4138.974,4113.077,0,0
418,0,0,3208,4137.9490000000005,4139.103,4127.9490000000005,4160.769,4160.385,4151.923,4122.9490000000005,4135.897,4152.0509999999995,4146.538,4144.744000000001,4127.308,4151.41,4133.205,0,0
419,1,0,2957,4145.255999999999,4145.513,4138.59,4169.359,4153.205,4155.385,4130.641,4146.538,4155.641,4158.205,4159.744000000001,4138.846,4157.436,4144.615,0,0
420,2,0,3466,4140.513,4136.795,4141.026,4172.0509999999995,4149.231,4159.872,4139.359,4153.462,4157.564,4167.564,4159.744000000001,4140.255999999999,4156.41,4140.513,0,0
421,3,0,3511,4144.615,4144.744000000001,4141.282,4167.179,4157.308,4157.0509999999995,4136.41,4157.692,4160.641,4166.538,4155.255999999999,4142.9490000000005,4160.385,4143.205,0,0
422,4,0,3560,4150.641,4154.359,4143.077,4164.103,4158.718,4152.308,4124.744000000001,4155.385,4164.872,4159.487,4156.667,4144.359,4158.462,4145.897,0,0
423,5,0,3134,4135.641,4139.359,4131.923,4161.282,4145.641,4149.359,4116.667,4142.436,4159.231,4152.692,4149.103,4128.846,4138.846,4129.744000000001,0,0
424,6,0,3089,4125.641,4129.231,4124.103,4160.513,4138.205,4151.154,4130.0,4136.667,4148.59,4151.282,4138.077,4122.0509999999995,4130.897,4123.718,0,0
425,7,0,3491,4138.205,4141.282,4136.154,4164.872,4151.538,4160.513,4149.487,4146.41,4153.718,4158.718,4146.923,4140.255999999999,4148.718,4139.359,0,0
426,8,0,2959,4137.0509999999995,4147.692,4137.9490000000005,4160.769,4158.846,4160.385,4143.205,4145.255999999999,4159.231,4160.769,4158.846,4142.308,4159.359,4139.231,0,0
427,9,0,3600,4122.821,4139.872,4123.077,4145.897,4153.333,4151.026,4130.641,4134.487,4151.154,4152.308,4151.154,4125.769,4151.923,4123.205,0,0
428,10,0,3445,4123.974,4134.103,4122.564,4141.026,4153.718,4154.103,4137.692,4143.846,4157.308,4156.026,4143.462,4125.897,4148.333,4120.897,0,0
429,11,0,3468,4129.359,4135.641,4130.641,4150.769,4150.385,4156.923,4141.282,4153.333,4169.359,4172.0509999999995,4151.154,4137.308,4154.231,4126.026,0,0
430,12,0,3047,4127.308,4147.179,4128.718,4158.077,4142.179,4152.564,4134.615,4146.538,4161.026,4170.128,4153.846,4139.615,4155.513,4123.718,0,0
431,13,0,3133,4124.359,4153.846,4124.872,4157.308,4148.077,4159.231,4142.436,4146.795,4150.769,4153.974,4149.231,4132.0509999999995,4151.667,4122.564,0,0
432,14,0,3445,4120.641,4144.487,4123.333,4151.282,4156.538,4165.513,4156.667,4154.231,4155.513,4152.179,4150.897,4127.564,4150.769,4124.231,0,0
433,15,0,3468,4129.231,4143.462,4127.821,4155.513,4151.026,4163.462,4160.255999999999,4151.667,4161.923,4165.769,4155.641,4135.0,4153.846,4131.154,0,0
434,16,0,0,4139.103,4155.513,4135.255999999999,4160.641,4149.744000000001,4160.769,4151.282,4141.154,4155.128,4164.615,4154.359,4140.513,4156.41,4135.641,0,0
435,17,0,0,4132.179,4159.359,4138.333,4161.923,4162.179,4157.9490000000005,4140.641,4139.231,4148.974,4157.821,4152.9490000000005,4137.9490000000005,4153.077,4133.974,0,0
436,18,0,0,4123.974,4157.179,4138.205,4162.692,4163.205,4153.59,4137.564,4144.231,4155.128,4163.462,4155.385,4139.103,4150.128,4135.128,0,0
437,19,0,0,4126.795,4158.846,4137.436,4157.308,4156.795,4152.692,4140.255999999999,4148.718,4158.077,4162.564,4154.359,4141.154,4151.667,4136.667,0,0
438,20,0,0,4135.128,4161.538,4136.795,4157.0509999999995,4157.179,4158.974,4144.231,4150.255999999999,4153.462,4158.077,4152.308,4139.615,4154.103,4134.872,0,0
439,21,0,0,4139.615,4175.0,4138.59,4167.9490000000005,4155.255999999999,4161.795,4147.692,4150.641,4160.769,4167.0509999999995,4154.615,4139.359,4154.231,4138.205,0,0
440,22,0,0,4142.0509999999995,4183.205,4138.205,4171.795,4159.872,4163.077,4157.179,4153.974,4170.0,4173.59,4158.462,4141.154,4153.974,4142.9490000000005,0,0
441,23,0,0,4149.487,4173.077,4137.821,4166.026,4168.205,4160.769,4167.692,4156.923,4161.667,4166.923,4159.103,4145.255999999999,4157.436,4139.615,0,0
442,24,0,0,4156.282,4173.462,4147.0509999999995,4168.205,4153.077,4157.436,4170.513,4152.0509999999995,4161.538,4164.872,4155.255999999999,4149.231,4155.255999999999,4140.513,0,0
443,25,0,0,4148.974,4184.487,4151.538,4173.59,4139.615,4153.205,4166.923,4142.9490000000005,4168.59,4164.103,4151.923,4147.692,4145.897,4147.179,0,0
444,26,0,0,4152.9490000000005,4188.718,4155.385,4180.128,4169.615,4154.487,4171.538,4147.179,4161.795,4163.974,4160.385,4153.077,4148.462,4154.487,0,0
445,27,0,0,4171.154,4189.231,4165.0,4179.359,4185.255999999999,4159.359,4174.744000000001,4156.154,4150.255999999999,4168.333,4168.077,4162.179,4156.667,4160.513,0,0
446,28,0,0,4162.692,4180.128,4164.615,4167.9490000000005,4156.41,4154.872,4160.255999999999,4148.846,4150.128,4166.667,4163.077,4158.846,4148.718,4157.0509999999995,0,0
447,29,0,0,4149.487,4172.436,4161.923,4171.923,4152.308,4156.282,4151.154,4142.821,4158.846,4166.538,4161.795,4156.538,4143.718,4155.385,0,0
448,30,0,0,4164.615,4191.154,4168.846,4182.179,4176.282,4169.231,4158.59,4152.564,4162.0509999999995,4169.231,4169.615,4162.179,4159.359,4165.385,0,0
449,31,0,0,4174.487,4205.641,4169.359,4174.103,4176.538,4170.641,4160.897,4155.0,4153.462,4168.205,4171.795,4159.872,4164.487,4167.9490000000005,0,0
450,32,0,0,4168.077,4194.615,4167.0509999999995,4167.0509999999995,4164.359,4165.897,4154.359,4151.154,4155.641,4170.385,4167.308,4157.179,4155.513,4160.0,0,0
451,33,0,0,4166.282,4186.923,4164.872,4171.154,4163.59,4169.359,4152.436,4156.795,4171.026,4168.718,4160.897,4158.59,4155.513,4155.385,0,0
452,34,0,0,4160.641,4184.359,4150.513,4166.282,4158.077,4165.128,4151.923,4152.179,4167.564,4157.564,4152.0509999999995,4150.897,4154.231,4148.462,0,0
453,35,0,0,4152.564,4182.308,4144.872,4157.436,4153.205,4156.026,4150.255999999999,4137.308,4154.231,4156.282,4153.462,4146.923,4151.282,4143.59,0,0
454,36,0,0,4156.026,4185.255999999999,4150.128,4156.667,4161.282,4157.564,4156.282,4135.385,4151.154,4159.744000000001,4157.179,4147.821,4156.795,4151.795,0,0
455,37,0,0,4155.0,4184.615,4143.333,4160.641,4162.9490000000005,4158.333,4165.513,4138.59,4148.462,4154.487,4151.026,4139.615,4153.077,4153.205,0,0
456,38,0,0,4151.282,4184.103,4143.205,4165.513,4159.615,4159.231,4171.154,4142.0509999999995,4156.795,4159.487,4156.282,4140.0,4148.077,4151.795,0,0
457,39,0,0,4158.974,4190.641,4158.846,4169.359,4169.487,4172.0509999999995,4175.385,4154.615,4173.462,4174.103,4166.154,4154.744000000001,4164.231,4161.538,0,0
458,40,0,0,4158.846,4189.872,4155.513,4165.0,4176.667,4177.179,4173.205,4159.103,4168.974,4175.255999999999,4156.667,4151.538,4168.462,4160.255999999999,0,0
459,41,0,0,4151.923,4181.282,4142.308,4155.385,4162.564,4162.436,4166.667,4151.667,4154.872,4169.615,4152.821,4140.897,4156.282,4152.821,0,0
460,42,0,0,4151.282,4175.513,4147.436,4153.077,4151.667,4157.564,4166.41,4151.667,4165.255999999999,4168.59,4163.718,4149.359,4162.692,4149.872,0,0
461,43,0,0,4149.487,4178.59,4152.692,4158.846,4164.615,4167.564,4170.0,4153.333,4181.795,4172.436,4161.795,4154.744000000001,4172.436,4146.026,0,0
462,44,0,0,4158.846,4198.205,4155.513,4169.615,4186.41,4173.333,4176.795,4158.846,4178.462,4185.0,4163.846,4153.333,4170.128,4157.692,0,0
463,45,0,0,4174.487,4205.385,4163.974,4175.513,4185.897,4170.769,4184.231,4170.769,4170.897,4188.846,4180.385,4157.821,4171.026,4175.513,0,0
464,46,0,0,4170.513,4190.255999999999,4169.231,4172.436,4173.59,4169.872,4188.205,4169.487,4170.641,4178.205,4176.154,4157.179,4170.769,4173.462,0,0
465,47,0,0,4164.487,4188.59,4168.718,4174.359,4174.872,4175.769,4197.308,4166.282,4174.615,4184.103,4166.923,4156.538,4168.59,4168.333,0,0
466,48,0,0,4165.769,4191.667,4161.41,4174.103,4166.795,4174.872,4201.667,4165.641,4171.667,4187.0509999999995,4166.538,4157.0509999999995,4166.026,4166.41,0,0
467,49,0,0,4155.385,4184.615,4146.923,4158.846,4158.974,4166.41,4183.718,4154.231,4158.974,4165.0,4155.769,4146.026,4154.487,4152.179,0,0
468,50,0,0,4153.333,4191.667,4146.795,4159.615,4168.974,4164.359,4171.154,4149.615,4157.564,4158.333,4153.462,4145.255999999999,4153.333,4151.026,0,0
469,51,0,0,4159.103,4193.846,4154.615,4170.513,4168.077,4164.744000000001,4174.359,4151.154,4160.0,4160.513,4166.026,4154.487,4152.9490000000005,4159.231,0,0
470,52,0,0,4137.692,4157.821,4134.615,4147.9490000000005,4145.641,4152.308,4159.744000000001,4131.538,4138.974,4133.205,4150.0,4135.128,4122.179,4141.923,0,0
471,53,0,0,4121.41,4140.641,4117.436,4125.128,4143.718,4143.077,4149.615,4121.026,4129.872,4124.744000000001,4125.385,4116.667,4112.9490000000005,4128.846,0,0
472,54,0,0,4153.333,4180.128,4150.0,4152.179,4174.231,4162.179,4177.436,4157.0509999999995,4166.154,4173.846,4153.846,4151.282,4166.282,4157.9490000000005,0,0
473,55,0,0,4190.897,4212.308,4188.077,4189.487,4189.487,4187.436,4204.744000000001,4192.821,4196.282,4212.821,4196.282,4192.564,4208.846,4197.436,0,0
474,56,0,0,4187.436,4200.255999999999,4181.667,4185.385,4173.333,4183.718,4202.9490000000005,4189.231,4189.615,4202.821,4191.41,4187.0509999999995,4195.0,4201.667,0,0
475,57,0,0,4173.59,4193.718,4165.641,4167.436,4169.872,4171.667,4199.231,4179.103,4186.795,4192.436,4169.487,4175.128,4179.359,4187.9490000000005,0,0
476,58,0,0,4181.795,4211.923,4169.615,4170.385,4195.897,4175.513,4204.872,4187.308,4191.282,4200.0,4172.308,4181.026,4190.255999999999,4188.846,0,0
477,59,0,0,4188.846,4214.359,4174.231,4179.872,4197.0509999999995,4179.359,4202.0509999999995,4191.667,4186.41,4205.513,4182.0509999999995,4180.641,4191.667,4189.103,0,0
478,60,0,0,4178.718,4198.718,4169.615,4173.59,4170.641,4172.179,4191.795,4179.231,4185.255999999999,4201.41,4175.128,4170.385,4172.9490000000005,4176.154,0,0
479,61,0,0,4171.026,4196.667,4162.564,4166.282,4167.692,4162.821,4180.385,4163.974,4181.795,4189.744000000001,4161.154,4165.641,4161.923,4171.026,0,0
480,62,0,0,4171.667,4202.179,4158.205,4172.179,4174.615,4158.59,4173.333,4156.538,4169.359,4181.538,4157.179,4169.231,4167.0509999999995,4178.205,0,0
481,63,0,0,4171.667,4197.436,4158.205,4174.103,4167.564,4158.077,4169.359,4156.41,4163.718,4181.282,4158.846,4171.795,4172.9490000000005,4178.718,0,0
482,64,0,3208,4170.897,4188.59,4156.026,4164.744000000001,4156.154,4156.154,4160.641,4153.333,4164.103,4175.255999999999,4147.0509999999995,4163.718,4165.255999999999,4171.41,0,0
483,65,0,2964,4170.255999999999,4184.615,4151.026,4160.641,4151.923,4152.692,4158.462,4148.718,4166.667,4165.128,4140.385,4155.255999999999,4158.462,4168.59,0,0
484,66,0,3461,4169.487,4185.513,4153.718,4165.128,4160.0,4156.538,4168.205,4152.9490000000005,4172.564,4167.692,4152.564,4161.41,4162.821,4170.128,0,0
485,67,0,3510,4162.564,4187.9490000000005,4154.359,4160.128,4171.154,4158.205,4171.795,4152.179,4166.282,4165.641,4149.487,4160.513,4160.641,4165.128,0,0
486,68,0,3562,4158.333,4185.641,4148.333,4151.41,4171.154,4155.769,4164.744000000001,4147.0509999999995,4155.385,4151.923,4132.436,4152.0509999999995,4152.436,4160.897,0,0
487,69,0,3133,4164.359,4179.487,4152.179,4160.128,4164.872,4166.538,4168.974,4159.615,4168.974,4158.59,4137.821,4164.231,4155.897,4166.667,0,0
488,70,0,3085,4161.923,4172.9490000000005,4158.205,4170.255999999999,4164.103,4170.255999999999,4177.308,4174.487,4180.385,4176.538,4147.179,4173.333,4161.026,4165.255999999999,0,0
489,71,0,3482,4151.282,4170.641,4155.513,4166.667,4171.154,4155.897,4166.282,4166.026,4165.641,4169.872,4136.795,4157.9490000000005,4156.282,4154.615,0,0
490,72,0,2954,4152.692,4171.41,4153.333,4164.744000000001,4170.769,4149.872,4155.0,4155.255999999999,4159.359,4153.205,4133.077,4151.538,4155.385,4153.205,0,0
491,73,0,3597,4155.0,4168.59,4151.923,4167.564,4158.59,4151.154,4157.308,4153.462,4160.255999999999,4150.513,4136.026,4156.923,4154.487,4156.923,0,0
492,74,0,3437,4152.308,4169.103,4151.41,4174.872,4155.0,4142.564,4159.744000000001,4153.718,4159.615,4156.154,4135.897,4154.872,4153.205,4156.026,0,0
493,75,0,3466,4155.128,4167.436,4154.231,4183.846,4158.462,4138.718,4156.923,4154.615,4165.385,4156.154,4138.718,4151.667,4157.564,4155.128,0,0
494,76,0,3045,4155.641,4157.564,4154.103,4184.744000000001,4154.744000000001,4145.897,4156.538,4149.744000000001,4163.718,4148.846,4138.59,4153.077,4153.59,4153.333,0,0
495,77,0,3132,4148.205,4152.564,4149.744000000001,4182.9490000000005,4152.0509999999995,4143.846,4152.179,4141.538,4152.0509999999995,4138.077,4134.103,4150.769,4144.615,4151.026,0,0
496,78,0,3437,4147.436,4152.308,4150.0,4184.615,4153.59,4141.795,4151.026,4142.564,4148.846,4137.564,4136.41,4150.385,4147.436,4160.0,0,0
497,79,0,3466,4161.538,4145.897,4155.255999999999,4187.308,4155.513,4154.872,4165.385,4154.744000000001,4158.718,4151.667,4147.179,4160.769,4155.128,4172.564,0,0
498,80,0,3045,4167.0509999999995,4138.077,4157.0509999999995,4193.846,4153.59,4159.487,4167.564,4157.9490000000005,4164.103,4159.615,4152.436,4170.255999999999,4151.154,4168.333,0,0
499,81,0,3132,4160.255999999999,4139.231,4156.282,4196.795,4154.744000000001,4151.154,4158.59,4153.974,4159.231,4154.615,4152.436,4169.487,4147.0509999999995,4161.026,0,0
500,82,0,3437,4159.744000000001,4141.795,4157.308,4188.077,4167.179,4152.179,4165.897,4159.744000000001,4153.846,4153.846,4153.205,4163.077,4153.59,4168.974,0,0
501,83,0,3466,4164.615,4138.974,4156.154,4183.333,4169.231,4158.974,4172.9490000000005,4165.128,4163.077,4155.641,4147.692,4157.692,4157.436,4170.769,0,0
502,84,0,3045,4158.974,4134.103,4151.41,4186.667,4155.255999999999,4154.744000000001,4158.077,4159.231,4167.179,4146.667,4139.103,4153.846,4148.077,4155.769,0,0
503,85,0,3132,4150.128,4131.923,4148.205,4183.205,4155.128,4150.255999999999,4142.9490000000005,4149.615,4157.821,4142.564,4138.718,4152.564,4144.359,4153.462,0,0
504,86,0,3437,4151.154,4127.436,4144.872,4174.744000000001,4160.641,4150.897,4141.538,4144.359,4152.436,4147.436,4136.923,4150.641,4150.513,4156.026,0,0
505,87,0,3466,4152.308,4116.41,4142.821,4167.564,4150.128,4150.0,4136.667,4137.179,4143.846,4141.154,4127.436,4143.205,4143.077,4142.9490000000005,0,0
506,88,0,3045,4153.974,4117.308,4150.0,4169.872,4149.231,4152.308,4140.255999999999,4135.385,4138.462,4132.821,4130.0,4143.462,4138.846,4142.436,0,0
507,89,0,3132,4155.641,4126.538,4156.923,4177.821,4160.385,4157.0509999999995,4154.744000000001,4143.846,4148.59,4137.0509999999995,4138.974,4150.128,4146.538,4155.128,0,0
508,90,0,3437,4153.846,4124.615,4153.077,4173.59,4156.41,4154.615,4159.359,4149.487,4158.077,4139.744000000001,4137.179,4150.897,4146.795,4155.385,0,0
509,91,0,3466,4155.255999999999,4122.692,4154.744000000001,4168.077,4153.462,4152.436,4152.9490000000005,4151.795,4155.769,4141.154,4141.154,4151.667,4147.436,4157.0509999999995,0,0
510,92,0,3045,4163.333,4128.974,4166.154,4177.179,4159.872,4156.026,4155.0,4156.795,4154.872,4151.923,4153.205,4157.179,4156.41,4169.487,0,0
511,93,0,3132,4169.359,4126.795,4171.154,4182.9490000000005,4157.692,4159.231,4159.103,4159.744000000001,4157.692,4156.282,4155.641,4160.128,4157.9490000000005,4172.0509999999995,0,0
512,94,0,3437,4169.231,4124.872,4170.513,4180.255999999999,4151.026,4156.026,4148.462,4157.692,4161.923,4152.821,4153.974,4161.795,4156.41,4169.103,0,0
513,95,0,3466,4172.564,4135.513,4172.308,4183.974,4151.667,4146.154,4136.795,4154.744000000001,4167.692,4154.487,4155.0,4168.077,4157.436,4173.333,0,0
514,96,0,3045,4178.077,4140.128,4172.436,4186.026,4162.308,4142.821,4133.59,4148.077,4165.255999999999,4156.026,4156.026,4170.513,4153.59,4171.795,0,0
515,97,0,3132,4180.128,4136.795,4170.513,4182.821,4172.179,4152.308,4135.769,4142.564,4160.897,4155.385,4157.436,4164.359,4160.255999999999,4168.333,0,0
516,98,0,3437,4175.255999999999,4137.308,4169.744000000001,4184.231,4167.0509999999995,4157.0509999999995,4137.308,4141.667,4156.795,4154.744000000001,4150.513,4156.41,4170.897,4169.872,0,0
517,99,0,3466,4168.077,4137.436,4166.795,4184.744000000001,4159.359,4150.769,4135.0,4139.103,4152.436,4152.179,4140.255999999999,4151.923,4164.487,4164.872,0,0
518,100,0,3045,4170.897,4139.744000000001,4168.462,4185.128,4169.231,4152.692,4137.179,4144.615,4160.641,4150.897,4140.769,4153.846,4161.154,4159.615,0,0
519,101,0,3132,4167.436,4139.359,4168.333,4182.692,4169.359,4156.923,4141.795,4156.154,4169.487,4153.974,4142.308,4155.255999999999,4163.59,4158.462,0,0
520,102,0,3437,4156.538,4133.077,4157.692,4173.077,4152.308,4152.308,4144.615,4157.308,4163.333,4154.872,4137.179,4149.615,4157.9490000000005,4156.667,0,0
521,103,0,3466,4160.0,4135.641,4153.333,4170.0,4154.231,4152.179,4145.769,4156.282,4157.9490000000005,4150.641,4139.103,4144.231,4153.846,4155.897,0,0
522,104,0,3045,4160.255999999999,4135.513,4149.872,4166.154,4155.769,4151.154,4140.769,4158.077,4155.0,4140.128,4140.255999999999,4138.462,4152.9490000000005,4147.0509999999995,0,0
523,105,0,3132,4149.359,4121.795,4140.897,4152.436,4137.308,4147.308,4133.974,4154.231,4155.128,4138.077,4133.59,4135.641,4148.846,4134.872,0,0
524,106,0,3437,4153.333,4118.718,4145.128,4156.795,4142.0509999999995,4152.821,4138.205,4155.641,4168.077,4152.692,4137.821,4142.436,4151.538,4142.821,0,0
525,107,0,3466,4156.795,4124.487,4153.077,4170.769,4168.077,4158.974,4137.436,4158.59,4168.077,4156.154,4148.205,4149.359,4159.615,4153.718,0,0
526,108,0,3045,4140.513,4113.462,4141.538,4159.487,4161.154,4149.744000000001,4122.564,4142.9490000000005,4147.692,4141.538,4142.564,4139.487,4152.821,4138.462,0,0
527,109,0,3132,4132.0509999999995,4103.333,4132.179,4146.41,4138.974,4140.128,4119.615,4125.0,4139.231,4130.641,4129.615,4124.231,4140.897,4122.0509999999995,0,0
528,110,0,3437,4137.436,4107.0509999999995,4136.795,4153.205,4139.103,4143.205,4126.026,4127.0509999999995,4141.026,4130.128,4124.231,4120.897,4139.744000000001,4123.59,0,0
529,111,0,3466,4136.154,4102.9490000000005,4135.128,4153.59,4139.872,4142.436,4123.59,4133.718,4144.487,4132.821,4124.359,4124.231,4140.641,4125.128,0,0
530,112,0,3045,4136.026,4102.436,4134.872,4149.487,4142.692,4141.667,4129.103,4135.513,4152.564,4140.385,4131.538,4133.333,4140.513,4127.436,0,0
531,113,0,3132,4138.462,4111.667,4140.0,4152.0509999999995,4151.154,4149.487,4134.872,4136.795,4145.513,4138.974,4135.769,4135.385,4141.41,4128.718,0,0
532,114,0,3437,4135.897,4111.154,4136.026,4152.0509999999995,4149.744000000001,4152.308,4128.462,4136.026,4130.897,4124.231,4124.872,4123.846,4136.667,4121.154,0,0
533,115,0,3466,4134.615,4107.308,4133.462,4151.282,4145.0,4144.103,4132.308,4135.641,4133.333,4119.231,4121.026,4123.077,4129.615,4118.205,0,0
534,116,0,3045,4139.359,4111.154,4144.103,4154.487,4142.436,4139.615,4138.974,4137.9490000000005,4138.974,4123.077,4132.179,4136.538,4128.462,4125.0,0,0
535,117,0,3132,4142.564,4111.795,4152.9490000000005,4156.41,4138.077,4145.255999999999,4130.0,4137.0509999999995,4137.179,4123.462,4134.103,4140.897,4131.538,4130.385,0,0
536,118,0,3437,4141.538,4108.846,4152.692,4156.923,4144.103,4151.282,4129.487,4135.513,4137.179,4123.974,4128.718,4135.513,4133.718,4134.615,0,0
537,119,0,3466,4145.385,4113.974,4153.077,4155.769,4156.795,4154.744000000001,4139.487,4139.487,4141.795,4133.846,4136.154,4141.154,4137.9490000000005,4141.795,0,0
538,120,0,3045,4151.41,4120.641,4151.923,4152.821,4156.026,4153.718,4136.154,4139.872,4150.255999999999,4146.154,4147.179,4146.282,4146.282,4140.385,0,0
539,121,0,3132,4149.103,4122.308,4148.205,4151.923,4150.641,4151.41,4134.231,4141.154,4152.9490000000005,4150.769,4151.282,4139.744000000001,4155.513,4134.872,0,0
540,122,0,3437,4144.744000000001,4120.897,4149.231,4152.308,4140.641,4151.282,4140.128,4149.744000000001,4152.821,4153.462,4152.308,4140.513,4160.255999999999,4142.308,0,0
541,123,0,3466,4147.692,4119.744000000001,4152.0509999999995,4150.641,4132.821,4151.282,4138.462,4156.667,4162.436,4156.538,4152.0509999999995,4149.103,4160.128,4149.615,0,0
542,124,0,3045,4159.359,4130.641,4155.513,4153.59,4154.103,4158.077,4143.718,4162.564,4169.744000000001,4158.974,4160.897,4155.641,4161.41,4157.179,0,0
543,125,0,3132,4177.692,4150.897,4164.744000000001,4161.538,4168.205,4167.9490000000005,4160.0,4169.872,4169.103,4166.41,4177.9490000000005,4160.641,4159.231,4179.231,0,0
544,126,0,3437,4204.744000000001,4174.744000000001,4180.255999999999,4175.255999999999,4158.974,4172.308,4168.205,4175.255999999999,4170.641,4175.897,4187.308,4176.026,4156.667,4205.897,0,0
545,127,0,52,4229.487,4195.513,4193.718,4193.846,4161.795,4171.795,4167.179,4177.0509999999995,4173.59,4168.974,4191.667,4195.769,4157.179,4226.282,0,0
546,0,0,3205,4245.769,4207.564,4201.282,4202.692,4172.821,4169.872,4169.103,4173.333,4169.103,4157.692,4197.564,4207.308,4145.897,4246.667,0,0
547,1,0,2958,4267.564,4222.821,4209.615,4205.255999999999,4179.231,4168.462,4169.231,4165.513,4158.077,4166.795,4208.59,4214.359,4133.59,4274.103,0,0
548,2,0,3459,4291.667,4241.795,4219.359,4213.718,4185.385,4168.846,4168.59,4166.282,4155.128,4182.0509999999995,4222.692,4220.385,4141.41,4297.9490000000005,0,0
549,3,0,3503,4287.692,4240.769,4224.359,4214.615,4187.0509999999995,4170.385,4177.308,4174.487,4165.255999999999,4187.821,4222.9490000000005,4225.897,4155.513,4289.103,0,0
550,4,0,3553,4257.692,4221.282,4219.744000000001,4198.462,4187.821,4173.462,4183.846,4176.795,4173.077,4186.538,4208.462,4221.026,4157.564,4256.154,0,0
551,5,0,3133,4234.231,4206.41,4205.769,4186.667,4186.154,4169.744000000001,4174.872,4166.667,4164.359,4175.513,4196.026,4198.077,4154.103,4240.0,0,0
552,6,0,3085,4216.154,4190.897,4191.282,4182.821,4157.821,4157.436,4159.487,4152.0509999999995,4155.255999999999,4166.282,4189.103,4174.231,4152.179,4230.255999999999,0,0
553,7,0,3482,4196.538,4174.615,4184.359,4169.615,4138.718,4153.59,4158.846,4150.0,4156.795,4168.205,4185.385,4172.821,4153.846,4199.231,0,0
554,8,0,2955,4181.41,4164.359,4175.641,4155.0,4163.462,4157.436,4165.255999999999,4153.718,4153.333,4160.385,4181.923,4173.333,4156.923,4174.359,0,0
555,9,0,3606,4163.59,4155.128,4160.255999999999,4150.385,4180.255999999999,4158.718,4166.923,4154.487,4148.846,4150.513,4170.513,4153.205,4159.744000000001,4169.487,0,0
556,10,0,3441,4153.59,4151.667,4153.846,4151.795,4171.41,4159.231,4173.205,4158.59,4158.846,4162.436,4165.641,4145.385,4165.255999999999,4162.9490000000005,0,0
557,11,0,3462,4151.795,4149.103,4155.385,4153.718,4169.359,4157.308,4173.462,4160.128,4168.846,4174.872,4172.308,4152.0509999999995,4168.462,4153.718,0,0
558,12,0,3054,4140.897,4139.103,4155.0,4149.231,4172.9490000000005,4154.359,4158.718,4156.41,4167.9490000000005,4171.538,4172.308,4149.231,4166.282,4149.872,0,0
559,13,0,3133,4138.846,4136.667,4155.641,4143.333,4168.077,4157.0509999999995,4150.0,4157.692,4172.0509999999995,4172.436,4170.0,4147.564,4168.59,4154.359,0,0
560,14,0,3441,4153.846,4142.179,4157.179,4141.538,4157.564,4157.564,4154.872,4161.41,4172.9490000000005,4177.564,4170.641,4155.128,4174.103,4153.718,0,0
561,15,0,3462,4145.255999999999,4135.769,4154.615,4139.487,4149.487,4153.205,4149.872,4156.795,4158.718,4171.026,4161.667,4150.641,4167.0509999999995,4138.846,0,0
562,16,0,0,4124.615,4133.462,4155.385,4143.462,4162.179,4156.41,4144.359,4158.59,4152.9490000000005,4161.795,4155.0,4141.795,4156.41,4133.974,0,0
563,17,0,0,4130.128,4139.231,4156.923,4151.667,4173.846,4161.026,4149.359,4167.821,4157.821,4155.513,4152.692,4143.718,4149.615,4136.795,0,0
564,18,0,0,4132.564,4128.846,4144.744000000001,4141.154,4149.487,4154.615,4140.897,4156.538,4146.154,4140.128,4133.59,4135.385,4131.923,4119.744000000001,0,0
565,19,0,0,4116.154,4113.974,4134.487,4124.615,4136.026,4148.718,4130.128,4137.9490000000005,4132.436,4126.923,4118.718,4120.769,4121.154,4102.0509999999995,0,0
566,20,0,0,4120.128,4120.0,4145.769,4133.077,4162.308,4158.59,4140.769,4150.385,4144.231,4140.641,4134.744000000001,4127.436,4144.744000000001,4115.513,0,0
567,21,0,0,4139.103,4134.359,4157.0509999999995,4144.872,4173.333,4165.128,4151.538,4171.538,4162.692,4164.359,4153.718,4146.41,4172.308,4135.513,0,0
568,22,0,0,4143.333,4137.692,4155.0,4142.692,4156.282,4157.821,4148.59,4168.333,4175.897,4176.923,4158.205,4154.103,4176.026,4138.718,0,0
569,23,0,0,4140.897,4136.923,4153.333,4142.692,4152.692,4154.615,4149.231,4164.359,4182.9490000000005,4185.255999999999,4165.641,4153.333,4176.923,4140.385,0,0
570,24,0,0,4142.436,4137.436,4154.872,4144.103,4159.487,4157.0509999999995,4153.205,4169.231,4175.641,4187.821,4170.641,4155.255999999999,4180.385,4145.897,0,0
571,25,0,0,4142.0509999999995,4138.59,4155.0,4146.026,4163.846,4160.641,4155.0,4169.487,4168.974,4189.231,4173.077,4163.205,4183.077,4152.308,0,0
572,26,0,0,4144.744000000001,4142.821,4157.179,4149.231,4172.0509999999995,4165.255999999999,4156.026,4172.9490000000005,4176.923,4196.923,4180.641,4166.923,4190.769,4159.103,0,0
573,27,0,0,4143.974,4143.59,4155.128,4145.897,4168.974,4160.769,4152.9490000000005,4168.846,4175.513,4187.821,4178.077,4157.692,4185.0,4154.103,0,0
574,28,0,0,4137.9490000000005,4141.282,4148.205,4138.59,4158.846,4152.821,4149.359,4158.974,4166.026,4173.59,4169.231,4152.564,4171.026,4144.231,0,0
575,29,0,0,4135.897,4136.795,4145.0,4135.0,4154.359,4153.718,4146.923,4162.9490000000005,4168.974,4178.333,4164.359,4150.897,4169.103,4139.231,0,0
576,30,0,0,4138.333,4137.308,4147.692,4139.231,4151.795,4154.359,4146.795,4171.282,4173.974,4179.615,4160.385,4144.487,4174.615,4139.231,0,0
577,31,0,0,4146.154,4146.667,4158.462,4148.462,4158.846,4159.487,4153.462,4172.692,4173.333,4175.769,4167.692,4151.795,4179.487,4147.9490000000005,0,0
578,32,0,0,4152.436,4158.462,4166.667,4151.026,4177.179,4165.641,4158.205,4169.744000000001,4170.513,4181.923,4176.795,4166.538,4177.821,4152.564,0,0
579,33,0,0,4145.385,4157.9490000000005,4161.026,4149.872,4176.538,4158.718,4154.103,4158.846,4156.667,4176.154,4163.718,4160.641,4168.333,4140.897,0,0
580,34,0,0,4142.436,4148.462,4154.487,4152.308,4151.154,4152.564,4146.282,4149.615,4149.872,4164.744000000001,4154.615,4148.974,4164.103,4134.615,0,0
581,35,0,0,4157.0509999999995,4155.897,4162.821,4154.103,4154.231,4156.795,4145.769,4155.897,4167.308,4174.103,4168.462,4155.128,4171.41,4149.615,0,0
582,36,0,0,4163.077,4171.41,4170.897,4158.718,4182.308,4157.308,4149.359,4157.564,4168.59,4176.538,4174.615,4159.487,4172.308,4156.923,0,0
583,37,0,0,4154.487,4176.026,4168.462,4165.769,4182.0509999999995,4153.333,4151.538,4153.974,4154.744000000001,4168.718,4168.718,4159.615,4169.615,4149.487,0,0
584,38,0,0,4157.564,4177.9490000000005,4171.154,4172.9490000000005,4168.59,4157.0509999999995,4153.333,4160.0,4162.308,4177.179,4171.282,4171.154,4170.897,4155.0,0,0
585,39,0,0,4159.359,4175.897,4173.077,4176.538,4167.564,4159.231,4153.205,4157.821,4158.974,4169.103,4175.385,4172.179,4163.205,4157.692,0,0
586,40,0,0,4145.513,4170.255999999999,4164.359,4173.205,4163.333,4154.103,4152.0509999999995,4146.795,4134.359,4140.255999999999,4166.923,4156.538,4152.179,4143.974,0,0
587,41,0,0,4144.744000000001,4172.692,4158.974,4175.769,4163.205,4152.0509999999995,4153.462,4145.128,4137.821,4136.538,4157.436,4153.077,4151.923,4143.333,0,0
588,42,0,0,4159.615,4175.641,4158.205,4183.077,4174.615,4155.769,4151.41,4147.0509999999995,4155.513,4147.564,4157.0509999999995,4159.744000000001,4155.255999999999,4153.59,0,0
589,43,0,0,4151.667,4167.308,4147.9490000000005,4174.615,4166.154,4153.462,4141.41,4136.795,4142.821,4137.308,4154.103,4152.692,4146.667,4144.487,0,0
590,44,0,0,4134.487,4165.513,4144.231,4169.103,4151.026,4150.128,4148.333,4134.744000000001,4133.462,4129.103,4150.769,4147.179,4138.59,4135.897,0,0
591,45,0,0,4141.41,4166.538,4155.897,4185.641,4155.255999999999,4155.385,4169.872,4147.692,4143.077,4135.769,4154.103,4155.513,4139.487,4144.615,0,0
592,46,0,0,4142.0509999999995,4156.667,4154.359,4187.564,4158.846,4151.667,4171.667,4147.436,4143.59,4136.795,4152.179,4155.513,4139.231,4144.231,0,0
593,47,0,0,4125.641,4152.9490000000005,4139.103,4170.255999999999,4158.333,4140.641,4168.205,4136.282,4138.205,4135.255999999999,4142.564,4146.667,4136.667,4130.769,0,0
594,48,0,0,4119.359,4157.9490000000005,4135.385,4165.385,4153.718,4140.0,4174.872,4136.154,4135.897,4132.9490000000005,4139.487,4145.897,4134.487,4122.821,0,0
595,49,0,0,4122.308,4153.974,4138.974,4168.077,4141.026,4142.564,4177.308,4140.513,4134.487,4128.974,4143.846,4149.231,4136.41,4123.077,0,0
596,50,0,0,4130.769,4146.795,4138.846,4167.564,4139.231,4139.231,4177.308,4139.103,4136.538,4131.282,4147.821,4148.59,4144.103,4132.179,0,0
597,51,0,0,4138.846,4153.846,4142.308,4168.077,4152.179,4140.385,4177.9490000000005,4144.359,4147.821,4141.026,4155.641,4148.462,4152.436,4146.026,0,0
598,52,0,0,4138.718,4174.744000000001,4153.205,4176.795,4164.103,4150.513,4183.462,4151.667,4158.333,4151.795,4163.462,4157.436,4155.513,4155.255999999999,0,0
599,53,0,0,4146.154,4189.487,4163.205,4187.821,4171.41,4159.103,4198.333,4146.154,4150.255999999999,4154.359,4162.0509999999995,4169.359,4155.897,4156.41,0,0
600,54,0,0,4160.641,4185.641,4162.692,4190.513,4172.692,4159.359,4202.9490000000005,4142.308,4141.923,4149.103,4162.179,4171.923,4155.513,4153.974,0,0
601,55,0,0,4157.179,4180.255999999999,4155.769,4186.026,4166.41,4152.179,4188.462,4143.462,4151.282,4148.846,4169.103,4163.333,4151.923,4154.359,0,0
602,56,0,0,4151.154,4185.385,4153.974,4183.077,4169.615,4153.205,4184.103,4142.308,4153.718,4156.41,4170.385,4156.026,4155.641,4158.462,0,0
603,57,0,0,4155.128,4178.718,4149.872,4179.103,4169.359,4158.205,4191.538,4139.487,4141.667,4149.872,4159.615,4153.462,4156.923,4155.897,0,0
604,58,0,0,4142.9490000000005,4157.308,4137.0509999999995,4170.128,4143.333,4146.282,4185.128,4134.615,4135.897,4133.077,4150.128,4143.077,4140.897,4139.872,0,0
605,59,0,0,4133.846,4163.077,4137.692,4172.9490000000005,4138.333,4142.0509999999995,4180.255999999999,4137.692,4142.308,4141.41,4158.462,4145.0,4141.795,4138.462,0,0
606,60,0,0,4151.795,4194.744000000001,4154.359,4186.667,4171.538,4155.897,4189.615,4153.846,4152.308,4163.59,4174.103,4164.103,4170.0,4161.026,0,0
607,61,0,0,4163.333,4201.026,4155.641,4188.333,4177.436,4149.487,4185.641,4156.154,4156.026,4160.897,4174.103,4165.513,4177.0509999999995,4167.436,0,0
608,62,0,0,4155.513,4187.179,4145.897,4180.513,4152.9490000000005,4136.154,4172.308,4146.795,4154.359,4155.0,4171.667,4157.692,4163.974,4155.513,0,0
609,63,0,0,4161.795,4196.667,4157.692,4191.538,4161.923,4149.615,4175.128,4161.282,4164.103,4176.923,4185.0,4168.718,4175.897,4164.615,0,0
610,64,0,3202,4177.9490000000005,4210.255999999999,4173.205,4206.923,4184.487,4162.436,4187.9490000000005,4179.615,4180.769,4190.769,4190.128,4179.231,4191.026,4181.41,0,0
611,65,0,2955,4168.205,4196.667,4161.282,4190.0,4175.128,4153.718,4187.436,4164.231,4169.231,4170.128,4174.231,4167.0509999999995,4172.564,4169.872,0,0
612,66,0,3460,4151.923,4182.179,4147.179,4168.462,4164.103,4150.128,4178.462,4143.718,4140.897,4151.667,4161.154,4155.255999999999,4152.9490000000005,4154.103,0,0
613,67,0,3497,4156.026,4183.462,4151.667,4168.462,4157.179,4155.641,4176.026,4143.077,4132.436,4149.231,4158.462,4156.667,4155.513,4153.718,0,0
614,68,0,3552,4158.59,4184.744000000001,4150.769,4163.462,4141.538,4152.564,4173.974,4140.385,4142.436,4143.205,4151.795,4153.077,4154.872,4152.564,0,0
615,69,0,3133,4156.667,4188.333,4150.128,4157.692,4148.974,4149.872,4176.282,4140.513,4153.333,4144.744000000001,4155.0,4155.128,4152.564,4151.667,0,0
616,70,0,3083,4165.128,4191.026,4163.462,4170.255999999999,4175.641,4153.846,4183.718,4153.205,4153.846,4158.205,4165.513,4166.667,4160.0,4157.9490000000005,0,0
617,71,0,3482,4166.795,4183.077,4164.487,4175.897,4175.385,4153.462,4185.385,4154.872,4146.026,4158.462,4161.026,4163.462,4158.846,4156.923,0,0
618,72,0,2955,4162.9490000000005,4187.436,4154.744000000001,4169.872,4166.154,4158.333,4193.333,4155.769,4153.59,4157.179,4156.923,4157.692,4159.359,4151.538,0,0
619,73,0,3603,4165.897,4201.026,4156.795,4171.923,4177.436,4171.026,4207.821,4167.179,4168.462,4167.692,4164.615,4167.0509999999995,4172.436,4156.923,0,0
620,74,0,3440,4162.0509999999995,4191.154,4156.667,4168.718,4179.872,4164.359,4208.205,4162.436,4161.282,4162.0509999999995,4161.282,4166.41,4170.641,4157.564,0,0
621,75,0,3462,4155.255999999999,4182.564,4153.205,4166.282,4171.154,4152.436,4202.308,4150.769,4152.0509999999995,4151.41,4155.513,4155.255999999999,4157.821,4155.385,0,0
622,76,0,3052,4157.179,4182.692,4154.359,4171.154,4165.641,4151.41,4196.154,4146.538,4150.513,4157.0509999999995,4156.026,4156.026,4155.0,4155.641,0,0
623,77,0,3131,4153.846,4170.513,4147.692,4160.641,4157.179,4143.205,4181.154,4137.692,4140.769,4152.564,4147.9490000000005,4153.974,4154.872,4145.641,0,0
624,78,0,3440,4152.436,4172.564,4144.744000000001,4157.564,4156.667,4143.205,4185.641,4140.769,4142.821,4149.487,4149.231,4149.103,4164.103,4144.359,0,0
625,79,0,3462,4158.718,4187.308,4154.872,4168.718,4167.9490000000005,4159.744000000001,4208.077,4157.308,4161.923,4168.077,4161.923,4156.026,4178.974,4151.538,0,0
626,80,0,3052,4153.846,4177.0509999999995,4153.846,4159.872,4171.026,4159.487,4205.769,4154.487,4161.282,4169.487,4155.769,4158.205,4169.103,4144.103,0,0
627,81,0,3131,4151.154,4165.128,4147.179,4152.436,4167.9490000000005,4151.026,4190.897,4147.821,4150.255999999999,4152.821,4150.513,4153.846,4157.179,4141.923,0,0
628,82,0,3440,4158.59,4172.436,4150.513,4168.077,4169.487,4156.41,4190.513,4156.026,4154.615,4152.821,4156.923,4153.462,4166.154,4155.128,0,0
629,83,0,3462,4159.487,4171.538,4152.436,4171.923,4171.026,4156.538,4191.282,4156.923,4156.667,4157.821,4153.846,4153.462,4171.41,4155.769,0,0
630,84,0,3052,4154.744000000001,4166.026,4150.0,4161.154,4171.282,4152.0509999999995,4185.0,4147.436,4154.487,4155.641,4151.154,4152.692,4166.538,4148.59,0,0
631,85,0,3131,4154.615,4168.974,4150.385,4165.897,4164.359,4156.282,4184.872,4145.0,4156.026,4155.128,4154.103,4150.513,4166.41,4149.872,0,0
632,86,0,3440,4164.615,4170.385,4153.077,4173.974,4160.513,4156.923,4197.0509999999995,4150.769,4155.641,4153.718,4153.974,4151.667,4167.692,4150.897,0,0
633,87,0,3462,4168.718,4174.615,4160.385,4175.513,4169.487,4155.897,4201.538,4155.641,4155.0,4152.9490000000005,4156.41,4160.641,4168.205,4152.692,0,0
634,88,0,3052,4156.538,4175.641,4167.179,4171.538,4175.641,4158.974,4193.205,4153.333,4154.487,4158.59,4157.308,4167.436,4169.872,4154.103,0,0
635,89,0,3131,4155.897,4170.255999999999,4167.9490000000005,4165.128,4177.308,4157.436,4194.744000000001,4149.487,4150.513,4164.359,4159.872,4165.897,4168.846,4157.179,0,0
636,90,0,3440,4178.077,4176.795,4167.564,4174.103,4183.59,4160.0,4200.513,4153.846,4155.641,4166.923,4174.615,4167.564,4173.077,4169.872,0,0
637,91,0,3462,4190.0,4188.462,4171.923,4188.333,4188.333,4171.154,4196.538,4161.795,4168.333,4172.692,4184.744000000001,4174.487,4184.103,4180.641,0,0
638,92,0,3052,4181.282,4182.179,4173.077,4180.128,4181.923,4168.974,4196.41,4160.769,4163.333,4175.513,4176.538,4175.385,4182.308,4177.821,0,0
639,93,0,3131,4171.538,4161.41,4164.359,4161.026,4159.487,4152.0509999999995,4196.795,4151.538,4147.9490000000005,4161.538,4163.205,4169.359,4168.718,4165.385,0,0
640,94,0,3440,4167.692,4153.077,4158.718,4160.385,4143.846,4149.231,4187.564,4148.333,4149.872,4150.0,4157.308,4162.9490000000005,4164.744000000001,4159.359,0,0
641,95,0,3462,4172.179,4164.359,4166.282,4170.385,4166.538,4162.692,4190.897,4154.103,4155.0,4161.282,4156.667,4165.641,4170.385,4165.128,0,0
642,96,0,3052,4176.923,4173.462,4173.462,4171.795,4192.179,4169.487,4207.436,4157.9490000000005,4155.255999999999,4173.846,4160.255999999999,4169.872,4172.9490000000005,4170.0,0,0
643,97,0,3131,4170.769,4166.154,4165.385,4167.436,4181.154,4168.846,4215.769,4156.026,4160.641,4167.564,4165.385,4161.923,4171.41,4163.462,0,0
644,98,0,3440,4165.128,4160.385,4155.513,4164.231,4163.974,4166.154,4214.103,4153.718,4158.974,4159.103,4163.846,4152.0509999999995,4168.718,4158.59,0,0
645,99,0,3462,4166.538,4164.359,4157.821,4162.9490000000005,4172.564,4167.308,4213.718,4159.359,4155.897,4166.795,4158.974,4155.769,4173.333,4162.0509999999995,0,0
646,100,0,3052,4165.513,4162.0509999999995,4160.513,4158.718,4183.205,4174.231,4217.821,4165.385,4159.487,4172.9490000000005,4157.9490000000005,4160.513,4178.077,4162.821,0,0
647,101,0,3131,4152.179,4149.103,4149.487,4150.255999999999,4166.41,4167.692,4210.641,4148.333,4151.795,4156.923,4148.59,4149.103,4160.641,4146.923,0,0
648,102,0,3440,4145.897,4149.359,4143.59,4149.744000000001,4153.59,4158.846,4199.103,4139.231,4150.769,4151.154,4140.513,4145.769,4153.462,4141.026,0,0
649,103,0,3462,4163.974,4167.436,4157.9490000000005,4161.795,4170.385,4166.795,4208.59,4161.923,4167.436,4174.487,4154.744000000001,4161.538,4178.974,4160.128,0,0
650,104,0,3052,4171.41,4168.205,4158.718,4162.436,4183.333,4169.487,4219.744000000001,4166.538,4166.282,4175.769,4165.255999999999,4160.897,4183.333,4162.0509999999995,0,0
651,105,0,3131,4155.385,4146.282,4141.41,4146.538,4161.026,4154.615,4206.282,4144.872,4148.846,4152.436,4152.436,4142.0509999999995,4159.359,4142.308,0,0
652,106,0,3440,4151.667,4141.667,4140.385,4141.923,4136.41,4149.744000000001,4196.795,4146.41,4152.692,4159.872,4147.821,4139.359,4162.0509999999995,4139.103,0,0
653,107,0,3462,4154.487,4145.769,4147.564,4144.872,4146.795,4155.897,4206.538,4159.103,4161.282,4176.795,4156.026,4147.0509999999995,4175.641,4143.077,0,0
654,108,0,3052,4140.255999999999,4134.615,4138.205,4135.897,4166.667,4151.923,4201.282,4147.308,4148.462,4161.923,4149.872,4141.154,4161.41,4135.255999999999,0,0
655,109,0,3131,4136.667,4140.255999999999,4127.179,4132.692,4165.513,4150.641,4187.308,4136.41,4137.9490000000005,4146.154,4139.615,4132.564,4145.641,4135.769,0,0
656,110,0,3440,4142.564,4149.103,4125.0,4135.769,4153.59,4151.667,4186.667,4137.179,4140.897,4144.231,4136.282,4127.179,4140.897,4134.359,0,0
657,111,0,3462,4127.564,4127.821,4117.308,4123.846,4151.923,4146.923,4181.795,4132.179,4135.128,4138.077,4130.0,4116.923,4133.462,4118.718,0,0
658,112,0,3052,4115.641,4117.0509999999995,4110.641,4118.462,4151.667,4147.692,4173.462,4130.128,4126.538,4137.436,4126.154,4112.821,4134.487,4115.769,0,0
659,113,0,3131,4133.333,4139.359,4126.795,4135.255999999999,4153.462,4155.255999999999,4180.769,4147.821,4145.0,4159.487,4145.0,4129.744000000001,4156.667,4132.821,0,0
660,114,0,3440,4154.744000000001,4157.821,4151.282,4145.897,4160.385,4158.974,4188.205,4170.0,4175.897,4188.718,4169.744000000001,4153.462,4184.487,4151.154,0,0
661,115,0,3462,4147.564,4151.41,4147.308,4137.9490000000005,4147.308,4146.667,4171.923,4159.487,4171.154,4187.821,4163.59,4148.718,4186.026,4149.103,0,0
662,116,0,3052,4143.718,4147.564,4134.359,4137.436,4138.333,4139.231,4162.179,4141.538,4154.872,4175.0,4156.667,4134.359,4170.128,4145.385,0,0
663,117,0,3131,4161.282,4161.026,4146.923,4144.103,4159.103,4150.0,4175.641,4150.641,4159.487,4183.333,4172.308,4146.282,4169.615,4156.538,0,0
664,118,0,3440,4163.333,4168.59,4157.436,4140.513,4169.872,4155.0,4183.974,4157.179,4161.538,4187.692,4177.0509999999995,4156.154,4171.667,4158.718,0,0
665,119,0,3462,4157.9490000000005,4167.692,4154.231,4144.487,4163.974,4154.231,4182.308,4153.077,4158.974,4180.385,4174.744000000001,4155.128,4166.282,4158.718,0,0
666,120,0,3052,4178.077,4178.59,4166.282,4163.077,4174.103,4166.026,4186.282,4164.872,4168.462,4190.385,4191.795,4166.923,4175.0,4181.026,0,0
667,121,0,3131,4194.615,4191.923,4181.538,4172.308,4192.692,4176.795,4192.436,4177.179,4176.026,4206.667,4206.795,4177.179,4185.641,4194.744000000001,0,0
668,122,0,3440,4187.179,4189.487,4178.205,4170.0,4185.513,4171.41,4190.769,4173.077,4170.0,4198.846,4204.359,4173.333,4180.0,4186.154,0,0
669,123,0,3462,4185.255999999999,4182.9490000000005,4174.231,4172.308,4164.231,4170.385,4188.462,4170.769,4168.077,4188.205,4203.59,4176.538,4177.692,4189.872,0,0
670,124,0,3052,4185.641,4183.077,4175.385,4170.897,4170.255999999999,4171.026,4185.0,4170.255999999999,4173.462,4193.846,4200.385,4182.692,4182.692,4200.385,0,0
671,125,0,3131,4187.9490000000005,4190.128,4177.564,4166.026,4200.255999999999,4168.846,4180.0,4173.59,4178.718,4202.9490000000005,4200.255999999999,4183.59,4185.385,4201.154,0,0
672,126,0,3440,4200.513,4200.0,4185.385,4175.769,4204.615,4177.692,4183.333,4185.513,4188.205,4206.538,4207.308,4188.718,4188.462,4203.59,0,0
673,127,0,52,4203.333,4200.0,4189.487,4184.359,4190.385,4186.41,4186.41,4189.103,4191.41,4205.385,4206.282,4190.897,4189.359,4202.821,0,0
674,0,0,3201,4197.436,4199.487,4187.9490000000005,4182.179,4193.462,4180.641,4186.41,4184.872,4185.385,4203.974,4206.41,4190.0,4187.821,4201.026,0,0
675,1,0,2951,4198.462,4203.077,4192.564,4180.641,4195.897,4176.923,4193.974,4186.154,4182.308,4202.0509999999995,4213.846,4190.513,4188.077,4206.026,0,0
676,2,0,3455,4198.077,4200.385,4198.462,4183.205,4191.282,4182.0509999999995,4199.615,4186.795,4181.026,4196.41,4210.769,4188.718,4186.41,4207.0509999999995,0,0
677,3,0,3503,4195.255999999999,4195.897,4199.744000000001,4191.41,4194.103,4179.744000000001,4189.615,4180.897,4176.154,4183.205,4194.231,4185.0,4181.154,4201.41,0,0
678,4,0,3549,4198.462,4200.128,4197.9490000000005,4200.0,4193.59,4171.154,4179.872,4174.872,4172.0509999999995,4171.41,4185.897,4183.333,4172.564,4196.795,0,0
679,5,0,3127,4201.026,4202.692,4192.308,4198.077,4186.282,4169.872,4185.128,4170.128,4169.231,4168.205,4183.59,4181.538,4168.974,4194.359,0,0
680,6,0,3080,4203.974,4198.59,4191.41,4198.974,4181.538,4170.385,4192.308,4170.255999999999,4165.769,4164.744000000001,4179.231,4180.641,4170.255999999999,4198.59,0,0
681,7,0,3483,4214.359,4212.9490000000005,4198.59,4217.0509999999995,4186.538,4171.026,4195.897,4177.179,4170.513,4165.0,4185.897,4182.692,4168.59,4210.769,0,0
682,8,0,2952,4224.359,4235.255999999999,4201.923,4227.0509999999995,4201.667,4175.255999999999,4200.385,4179.744000000001,4175.0,4169.359,4197.308,4185.897,4169.359,4222.0509999999995,0,0
683,9,0,3598,4232.308,4233.974,4198.974,4217.692,4191.795,4176.282,4200.0,4178.59,4167.179,4156.923,4197.821,4190.641,4167.9490000000005,4234.487,0,0
684,10,0,3436,4256.282,4236.923,4205.128,4223.077,4162.564,4176.026,4197.308,4182.821,4171.026,4145.769,4195.255999999999,4202.9490000000005,4157.436,4259.487,0,0
685,11,0,3459,4283.205,4263.59,4223.205,4247.821,4180.769,4185.897,4203.333,4188.205,4183.718,4166.923,4209.103,4224.487,4154.103,4288.462,0,0
686,12,0,3044,4286.154,4269.615,4233.846,4253.077,4207.692,4189.744000000001,4202.692,4187.692,4176.154,4178.205,4222.692,4237.436,4158.333,4307.692,0,0
687,13,0,3127,4287.436,4259.872,4234.359,4238.077,4195.641,4168.718,4187.9490000000005,4181.795,4161.667,4158.205,4221.795,4233.333,4152.308,4312.436,0,0
688,14,0,3436,4298.462,4274.487,4230.641,4234.103,4181.41,4148.077,4188.846,4173.718,4160.897,4154.359,4218.077,4226.667,4147.0509999999995,4301.41,0,0
689,15,0,3459,4286.282,4277.179,4223.59,4237.436,4180.128,4159.487,4201.923,4172.821,4166.026,4171.667,4209.103,4218.462,4156.923,4288.718,0,0
690,16,0,0,4256.923,4247.179,4211.795,4232.564,4187.179,4173.718,4194.744000000001,4180.385,4174.744000000001,4176.538,4202.308,4206.154,4167.436,4280.0,0,0
691,17,0,0,4245.641,4233.974,4205.255999999999,4226.538,4203.333,4170.0,4182.308,4182.436,4181.282,4172.179,4203.077,4198.077,4173.077,4264.103,0,0
692,18,0,0,4230.513,4233.846,4202.179,4219.872,4206.282,4174.872,4188.462,4183.462,4175.897,4172.564,4191.41,4195.385,4177.179,4236.795,0,0
693,19,0,0,4189.103,4204.744000000001,4190.897,4199.359,4178.718,4177.821,4187.692,4181.538,4163.974,4165.897,4168.59,4178.718,4172.564,4205.769,0,0
694,20,0,0,4168.077,4175.513,4179.744000000001,4181.026,4165.385,4162.9490000000005,4177.564,4172.179,4160.0,4158.205,4163.077,4160.769,4166.667,4186.41,0,0
695,21,0,0,4184.744000000001,4182.436,4178.59,4187.692,4177.308,4161.41,4181.026,4169.487,4165.255999999999,4160.513,4170.0,4164.359,4167.9490000000005,4180.0,0,0
696,22,0,0,4188.205,4187.821,4183.718,4198.333,4171.795,4172.692,4185.513,4170.513,4168.077,4166.154,4168.846,4166.41,4170.897,4173.077,0,0
697,23,0,0,4172.564,4174.872,4183.462,4192.9490000000005,4167.9490000000005,4171.538,4185.641,4170.641,4169.103,4170.641,4171.154,4158.59,4176.923,4166.538,0,0
698,24,0,0,4163.846,4162.564,4174.359,4177.821,4180.897,4168.846,4189.615,4173.077,4173.462,4171.923,4171.538,4154.872,4180.769,4162.0509999999995,0,0
699,25,0,0,4151.795,4152.0509999999995,4164.615,4167.9490000000005,4175.385,4163.077,4186.923,4168.846,4168.462,4166.538,4156.667,4146.795,4170.255999999999,4144.615,0,0
700,26,0,0,4141.667,4154.359,4164.359,4173.462,4161.026,4160.641,4181.538,4168.59,4160.0,4168.718,4152.0509999999995,4142.179,4166.795,4136.667,0,0
701,27,0,0,4159.744000000001,4171.538,4176.41,4187.692,4183.462,4181.026,4192.0509999999995,4185.897,4174.744000000001,4190.769,4174.103,4159.872,4185.385,4162.692,0,0
702,28,0,0,4177.9490000000005,4176.026,4187.436,4193.333,4202.308,4189.872,4202.179,4194.487,4193.462,4208.205,4190.128,4174.872,4194.744000000001,4177.821,0,0
703,29,0,0,4165.128,4169.103,4183.333,4187.436,4176.538,4170.513,4184.615,4183.205,4182.0509999999995,4200.0,4177.9490000000005,4168.205,4185.128,4158.462,0,0
704,30,0,0,4151.795,4165.513,4171.41,4178.333,4166.41,4161.923,4168.462,4179.487,4168.974,4186.538,4167.179,4163.205,4182.0509999999995,4146.282,0,0
705,31,0,0,4154.231,4161.026,4168.974,4173.59,4182.821,4174.359,4180.513,4187.564,4177.436,4186.923,4173.718,4162.436,4182.564,4157.179,0,0
706,32,0,0,4147.564,4151.667,4165.255999999999,4168.462,4172.692,4174.744000000001,4187.0509999999995,4184.744000000001,4181.538,4187.821,4173.077,4151.538,4175.128,4157.9490000000005,0,0
707,33,0,0,4136.026,4147.308,4154.744000000001,4157.821,4149.744000000001,4160.769,4174.231,4173.974,4172.821,4183.077,4164.487,4143.718,4169.744000000001,4147.179,0,0
708,34,0,0,4137.821,4148.718,4151.41,4148.974,4155.385,4159.487,4175.769,4172.821,4168.846,4182.436,4166.026,4145.0,4172.0509999999995,4147.0509999999995,0,0
709,35,0,0,4144.872,4155.769,4159.487,4153.077,4175.385,4174.231,4196.154,4181.923,4175.897,4185.0,4172.564,4147.0509999999995,4177.564,4151.667,0,0
710,36,0,0,4149.872,4160.385,4169.231,4157.692,4172.821,4178.718,4202.436,4192.179,4185.769,4190.0,4174.103,4150.513,4183.718,4153.205,0,0
711,37,0,0,4150.385,4154.872,4165.769,4153.205,4162.692,4168.59,4198.077,4194.872,4190.255999999999,4193.333,4171.026,4153.846,4187.821,4153.077,0,0
712,38,0,0,4147.436,4153.205,4157.9490000000005,4158.846,4172.821,4171.923,4200.385,4194.487,4184.615,4190.0,4172.692,4152.179,4183.59,4147.564,0,0
713,39,0,0,4142.692,4152.564,4155.641,4166.282,4172.179,4178.077,4191.667,4186.538,4173.718,4180.513,4172.436,4145.513,4173.846,4139.872,0,0
714,40,0,0,4141.41,4140.897,4154.359,4157.564,4143.077,4166.026,4177.564,4171.41,4163.974,4169.231,4159.487,4139.231,4163.846,4134.487,0,0
715,41,0,0,4144.359,4142.179,4160.0,4155.128,4143.333,4164.103,4185.641,4171.667,4159.103,4165.385,4153.205,4141.154,4159.872,4136.154,0,0
716,42,0,0,4153.205,4165.769,4176.026,4175.641,4182.9490000000005,4178.333,4205.513,4184.487,4170.897,4177.692,4165.513,4155.0,4170.255999999999,4148.718,0,0
717,43,0,0,4161.795,4178.846,4185.255999999999,4188.462,4197.564,4178.974,4203.974,4189.231,4185.255999999999,4190.0,4173.846,4167.436,4183.462,4160.0,0,0
718,44,0,0,4163.974,4170.385,4181.026,4182.821,4184.231,4169.615,4190.0,4188.59,4186.667,4189.231,4169.359,4169.487,4187.436,4163.718,0,0
719,45,0,0,4170.0,4167.692,4176.41,4184.872,4183.846,4171.667,4184.872,4191.795,4179.744000000001,4191.154,4171.923,4167.564,4187.821,4169.615,0,0
720,46,0,0,4166.282,4170.641,4168.462,4181.667,4185.0,4172.179,4181.923,4185.897,4172.9490000000005,4190.641,4176.154,4158.59,4186.41,4166.026,0,0
721,47,0,0,4155.255999999999,4170.385,4164.103,4171.154,4184.615,4167.564,4183.333,4183.718,4174.744000000001,4184.359,4166.282,4151.41,4187.9490000000005,4153.718,0,0
722,48,0,0,4154.231,4166.795,4167.179,4169.359,4181.795,4171.538,4182.692,4189.487,4178.462,4186.923,4157.0509999999995,4155.385,4190.385,4152.692,0,0
723,49,0,0,4150.641,4157.9490000000005,4161.923,4164.615,4160.0,4170.641,4169.359,4178.718,4174.231,4185.385,4157.308,4152.308,4181.923,4151.923,0,0
724,50,0,0,4139.615,4150.128,4152.308,4156.154,4154.359,4158.462,4162.179,4165.0,4164.744000000001,4169.487,4155.385,4136.41,4168.077,4139.487,0,0
725,51,0,0,4135.0,4146.41,4149.615,4153.077,4168.974,4153.974,4169.103,4169.231,4164.872,4163.974,4149.487,4133.974,4167.308,4134.359,0,0
726,52,0,0,4147.179,4156.282,4159.872,4160.769,4173.718,4160.0,4173.333,4182.564,4175.385,4180.513,4158.205,4150.897,4177.564,4145.513,0,0
727,53,0,0,4159.103,4170.0,4171.667,4172.692,4182.308,4166.667,4172.179,4185.513,4176.41,4187.692,4169.487,4161.026,4180.641,4159.359,0,0
728,54,0,0,4151.667,4162.308,4162.821,4166.154,4190.769,4167.692,4172.436,4173.974,4162.308,4174.103,4159.744000000001,4149.359,4172.9490000000005,4153.846,0,0
729,55,0,0,4137.0509999999995,4146.667,4148.077,4150.641,4175.769,4163.59,4172.821,4164.487,4150.769,4161.41,4147.0509999999995,4135.128,4165.769,4138.462,0,0
730,56,0,0,4139.615,4152.436,4153.59,4156.538,4165.385,4164.231,4171.41,4169.615,4162.179,4168.077,4151.282,4136.795,4170.0,4138.077,0,0
731,57,0,0,4145.769,4158.974,4160.385,4161.538,4172.692,4167.179,4166.667,4173.846,4172.308,4179.359,4155.128,4146.41,4174.615,4141.538,0,0
732,58,0,0,4141.538,4150.513,4154.103,4149.872,4169.231,4164.872,4165.769,4169.359,4166.795,4180.128,4149.615,4151.923,4171.538,4141.667,0,0
733,59,0,0,4145.385,4154.359,4158.462,4156.154,4162.308,4166.282,4172.436,4172.179,4166.923,4183.718,4152.179,4152.179,4171.667,4150.0,0,0
734,60,0,0,4157.436,4168.718,4171.026,4171.41,4165.769,4168.462,4170.769,4176.41,4169.231,4189.359,4162.821,4154.103,4174.744000000001,4158.846,0,0
735,61,0,0,4155.0,4171.41,4164.744000000001,4161.795,4172.0509999999995,4161.538,4157.821,4168.846,4160.385,4181.026,4165.255999999999,4154.744000000001,4172.9490000000005,4157.9490000000005,0,0
736,62,0,0,4139.359,4154.872,4142.9490000000005,4137.692,4170.0,4149.615,4141.667,4151.026,4148.974,4165.128,4153.846,4142.179,4160.897,4144.872,0,0
737,63,0,0,4140.0,4145.0,4141.41,4133.205,4168.205,4149.103,4138.205,4148.718,4153.974,4171.41,4149.615,4137.308,4158.59,4139.487,0,0
738,64,0,3207,4149.103,4156.026,4156.538,4145.255999999999,4172.0509999999995,4158.077,4149.744000000001,4166.282,4160.0,4187.9490000000005,4159.231,4146.795,4171.026,4150.0,0,0
739,65,0,2968,4145.385,4163.59,4152.564,4148.462,4176.154,4162.0509999999995,4159.359,4168.718,4155.255999999999,4186.282,4163.462,4148.846,4175.0,4153.59,0,0
740,66,0,3464,4136.923,4157.179,4143.333,4141.923,4171.923,4157.436,4152.308,4154.872,4154.487,4177.692,4155.769,4141.026,4170.641,4140.641,0,0
741,67,0,3520,4135.513,4149.615,4148.333,4138.333,4154.359,4151.282,4139.231,4147.692,4150.385,4169.359,4145.769,4137.564,4166.154,4129.487,0,0
742,68,0,3568,4145.0,4158.59,4156.41,4149.103,4156.026,4156.282,4143.333,4154.872,4150.641,4168.077,4153.333,4144.872,4166.795,4138.846,0,0
743,69,0,3134,4158.974,4173.205,4164.359,4164.744000000001,4180.897,4168.077,4155.128,4165.897,4164.359,4181.538,4172.564,4154.103,4176.154,4159.615,0,0
744,70,0,3088,4165.128,4179.744000000001,4171.282,4164.744000000001,4191.923,4170.0,4156.538,4173.59,4170.897,4194.103,4173.846,4159.487,4183.59,4169.872,0,0
745,71,0,3493,4157.436,4173.846,4162.9490000000005,4149.231,4183.077,4160.0,4152.821,4172.821,4159.359,4182.692,4158.077,4153.846,4173.205,4159.103,0,0
746,72,0,2960,4147.0509999999995,4157.821,4150.0,4138.077,4175.897,4154.231,4150.255999999999,4162.692,4144.103,4159.615,4147.0509999999995,4141.923,4152.436,4136.538,0,0
747,73,0,3605,4144.103,4151.667,4151.795,4138.59,4170.513,4157.821,4147.564,4157.564,4143.846,4155.0,4147.564,4138.462,4148.718,4129.487,0,0
748,74,0,3442,4151.154,4163.59,4164.103,4150.255999999999,4163.718,4160.769,4155.641,4170.255999999999,4158.846,4175.641,4157.179,4153.462,4170.385,4145.385,0,0
749,75,0,3472,4159.359,4172.0509999999995,4177.9490000000005,4160.385,4173.59,4167.692,4173.846,4196.41,4180.385,4198.718,4174.744000000001,4172.692,4191.026,4158.718,0,0
750,76,0,3054,4163.205,4171.026,4181.923,4154.103,4183.205,4171.667,4172.821,4200.513,4182.692,4200.128,4182.564,4169.872,4190.128,4157.564,0,0
751,77,0,3141,4175.769,4187.692,4182.308,4157.179,4186.667,4170.0,4166.282,4187.9490000000005,4172.0509999999995,4198.462,4182.821,4165.513,4190.513,4166.923,0,0
752,78,0,3442,4180.513,4198.59,4186.667,4166.795,4190.385,4173.462,4172.0509999999995,4193.974,4175.897,4203.59,4182.179,4171.41,4198.462,4178.077,0,0
753,79,0,3472,4155.897,4171.923,4172.821,4150.769,4168.333,4166.282,4160.385,4186.667,4170.769,4181.795,4158.974,4158.974,4173.59,4153.846,0,0
754,80,0,3054,4146.026,4161.538,4163.077,4141.154,4150.769,4153.974,4146.795,4166.41,4162.0509999999995,4159.615,4144.487,4148.205,4150.0,4134.231,0,0
755,81,0,3141,4174.487,4196.538,4188.846,4165.0,4178.846,4164.744000000001,4167.821,4184.103,4173.974,4181.923,4170.769,4173.205,4175.513,4159.487,0,0
756,82,0,3442,4190.513,4207.308,4205.385,4176.026,4197.821,4179.359,4185.513,4207.0509999999995,4179.487,4198.59,4182.308,4189.872,4194.231,4181.41,0,0
757,83,0,3472,4171.795,4175.513,4183.846,4159.231,4172.821,4172.0509999999995,4163.205,4184.231,4161.282,4173.462,4155.385,4164.744000000001,4170.641,4162.179,0,0
758,84,0,3054,4155.385,4163.718,4161.154,4144.615,4159.744000000001,4161.667,4143.077,4161.923,4153.205,4156.282,4144.744000000001,4147.0509999999995,4151.795,4137.0509999999995,0,0
759,85,0,3141,4156.923,4177.179,4158.718,4140.897,4172.0509999999995,4159.103,4152.436,4167.821,4157.821,4164.744000000001,4152.179,4155.128,4156.282,4135.513,0,0
760,86,0,3442,4157.9490000000005,4175.641,4163.974,4140.897,4171.282,4156.154,4155.513,4168.59,4154.231,4167.179,4145.255999999999,4155.897,4159.487,4138.462,0,0
761,87,0,3472,4153.974,4167.564,4165.769,4140.255999999999,4163.462,4156.154,4141.795,4165.513,4155.0,4161.282,4136.026,4149.231,4158.462,4138.333,0,0
762,88,0,3054,4151.667,4170.769,4161.795,4140.0,4162.0509999999995,4153.59,4131.667,4167.436,4156.923,4157.692,4130.897,4152.308,4158.077,4139.231,0,0
763,89,0,3141,4152.0509999999995,4171.667,4157.179,4140.897,4166.538,4152.0509999999995,4134.103,4165.769,4151.282,4156.026,4129.615,4157.0509999999995,4159.487,4136.538,0,0
764,90,0,3442,4150.385,4168.333,4158.462,4141.154,4174.231,4159.615,4140.0,4166.667,4154.231,4159.231,4138.205,4150.385,4167.0509999999995,4133.718,0,0
765,91,0,3472,4147.0509999999995,4165.128,4155.513,4141.795,4165.128,4162.0509999999995,4137.0509999999995,4173.077,4164.744000000001,4159.744000000001,4135.513,4142.436,4171.41,4134.744000000001,0,0
766,92,0,3054,4151.667,4159.231,4151.795,4149.231,4158.462,4157.564,4141.41,4177.436,4171.538,4158.205,4125.385,4147.692,4168.077,4137.692,0,0
767,93,0,3141,4153.333,4155.641,4154.487,4155.897,4165.128,4158.718,4149.231,4180.0,4172.692,4157.179,4130.128,4156.282,4159.231,4127.9490000000005,0,0
768,94,0,3442,4142.9490000000005,4156.41,4154.359,4156.667,4170.128,4162.0509999999995,4148.205,4182.0509999999995,4168.718,4153.333,4136.538,4153.718,4156.795,4116.282,0,0
769,95,0,3472,4138.077,4154.744000000001,4153.59,4163.205,4170.769,4161.538,4149.487,4186.154,4167.9490000000005,4153.974,4136.026,4150.897,4165.128,4127.692,0,0
770,96,0,3054,4143.462,4149.872,4155.128,4167.821,4159.615,4161.538,4151.41,4188.077,4168.59,4153.462,4136.795,4154.359,4167.0509999999995,4144.231,0,0
