,COUNTER, INTERPOLATED, RAW_CQ, AF3, F7, F3, FC5, T7, P7, O1, O2, P8, T8, FC6, F4, F8, AF4, MARKER_HARDWARE, MARKER
0,18,0,0,3280.7690000000002,3201.923,3220.513,3199.615,3338.8459999999995,3289.2309999999998,3212.179,3320.7690000000002,3234.103,3396.538,3273.077,3263.462,3441.282,3320.513,0,0
1,19,0,0,3397.308,3320.513,3322.051,3297.949,3458.59,3384.3590000000004,3306.667,3432.5640000000003,3341.667,3526.1540000000005,3367.692,3361.282,3564.8720000000003,3430.385,0,0
2,20,0,0,3527.5640000000003,3461.41,3446.026,3425.256,3585.385,3500.1279999999997,3427.4359999999997,3575.897,3470.385,3671.795,3483.974,3479.744,3737.821,3569.103,0,0
3,21,0,0,3683.462,3626.282,3594.8720000000003,3561.538,3750.1279999999997,3658.59,3581.795,3731.795,3594.615,3818.462,3619.744,3624.103,3867.692,3726.41,0,0
4,22,0,0,3854.8720000000003,3800.385,3754.3590000000004,3705.1279999999997,3927.821,3820.897,3735.256,3900.1279999999997,3743.718,3998.8459999999995,3770.256,3782.051,4055.1279999999997,3894.615,0,0
5,23,0,0,4033.333,3986.026,3916.923,3866.923,4104.359,3978.718,3884.615,4077.821,3903.59,4209.231,3928.718,3940.513,4245.769,4078.205,0,0
6,24,0,0,4237.564,4202.179,4102.179,4050.6409999999996,4316.154,4160.513,4068.333,4274.872,4064.615,4422.179,4105.255999999999,4120.0,4383.333,4287.0509999999995,0,0
7,25,0,0,4433.846,4410.255999999999,4286.923,4226.154,4534.359,4345.641,4250.769,4476.154,4231.795,4620.0,4285.255999999999,4303.974,4558.333,4492.436,0,0
8,26,0,0,4581.795,4564.487,4427.0509999999995,4360.255999999999,4688.718,4500.385,4375.641,4634.487,4371.667,4787.179,4425.513,4442.821,4746.795,4647.564,0,0
9,27,0,0,4716.923,4699.231,4546.282,4469.872,4801.538,4622.821,4481.538,4760.0,4478.59,4926.154,4541.667,4556.923,4867.9490000000005,4778.846,0,0
10,28,0,0,4757.692,4734.103,4579.615,4496.667,4825.255999999999,4642.179,4510.385,4790.0,4502.0509999999995,4953.974,4577.9490000000005,4591.795,4874.359,4820.897,0,0
11,29,0,0,4593.077,4558.974,4435.0,4362.179,4661.667,4494.487,4372.179,4641.795,4383.077,4793.974,4441.282,4453.462,4733.846,4661.795,0,0
12,30,0,0,4341.667,4300.897,4209.103,4152.436,4401.282,4263.846,4163.333,4413.333,4202.564,4564.615,4222.308,4233.846,4545.385,4407.0509999999995,0,0
13,31,0,0,4118.718,4082.949,4003.333,3957.4359999999997,4157.821,4048.974,3968.077,4185.385,4014.8720000000003,4335.513,4027.821,4032.949,4338.205,4181.41,0,0
14,32,0,0,3883.8459999999995,3855.0,3795.385,3757.308,3921.026,3856.282,3763.59,3935.6409999999996,3796.667,4064.615,3828.718,3823.974,4068.462,3950.256,0,0
15,33,0,0,3666.41,3632.179,3605.0,3576.41,3710.0,3679.615,3580.1279999999997,3716.1540000000005,3607.692,3825.385,3633.974,3629.744,3845.513,3727.179,0,0
16,34,0,0,3559.615,3515.6409999999996,3502.308,3485.897,3596.1540000000005,3560.385,3479.744,3602.051,3513.462,3707.308,3526.1540000000005,3531.282,3737.051,3609.2309999999998,0,0
17,35,0,0,3521.923,3473.077,3462.051,3450.256,3556.923,3513.462,3434.8720000000003,3552.4359999999997,3466.538,3647.179,3487.821,3499.744,3653.462,3566.795,0,0
18,36,0,0,3503.333,3453.462,3451.667,3433.974,3532.179,3513.462,3423.59,3537.692,3451.795,3617.821,3475.7690000000002,3484.744,3625.256,3546.923,0,0
19,37,0,0,3512.821,3458.974,3464.103,3448.718,3522.179,3521.538,3441.1540000000005,3549.8720000000003,3470.513,3636.667,3480.513,3488.333,3671.667,3551.923,0,0
20,38,0,0,3541.1540000000005,3488.462,3487.179,3475.6409999999996,3556.667,3536.1540000000005,3468.462,3570.256,3491.41,3661.795,3499.615,3512.692,3695.897,3576.026,0,0
21,39,0,0,3589.487,3548.59,3534.744,3514.2309999999998,3626.667,3584.487,3514.2309999999998,3630.1279999999997,3539.2309999999998,3702.692,3551.282,3565.256,3712.179,3631.795,0,0
22,40,0,0,3656.667,3621.923,3596.923,3573.974,3685.1279999999997,3640.385,3567.051,3708.205,3604.487,3777.692,3615.385,3627.051,3778.462,3703.462,0,0
23,41,0,0,3733.974,3699.615,3663.077,3646.1540000000005,3759.615,3700.385,3631.282,3769.3590000000004,3656.1540000000005,3857.051,3674.615,3687.821,3856.538,3772.179,0,0
24,42,0,0,3780.256,3754.2309999999998,3707.308,3687.308,3820.256,3763.077,3683.205,3810.385,3693.8459999999995,3893.8459999999995,3714.744,3727.4359999999997,3886.1540000000005,3815.897,0,0
25,43,0,0,3804.2309999999998,3780.256,3734.744,3702.308,3821.795,3787.4359999999997,3697.5640000000003,3854.3590000000004,3755.6409999999996,3948.077,3752.308,3759.8720000000003,4000.897,3853.462,0,0
26,44,0,0,3855.897,3823.462,3785.6409999999996,3747.4359999999997,3857.692,3796.282,3721.1540000000005,3910.1279999999997,3822.949,4047.179,3809.8720000000003,3817.179,4153.59,3914.744,0,0
27,45,0,0,3914.2309999999998,3894.2309999999998,3838.718,3807.4359999999997,3952.949,3847.308,3774.744,3948.59,3828.205,4076.026,3850.0,3865.1279999999997,4071.923,3964.2309999999998,0,0
28,46,0,0,3941.41,3949.487,3860.385,3833.59,4006.795,3899.2309999999998,3817.308,3966.026,3811.923,4049.744,3860.256,3878.462,3925.385,3986.667,0,0
29,47,0,0,3964.744,3985.897,3880.1279999999997,3847.949,4024.744,3919.2309999999998,3845.385,3997.949,3850.6409999999996,4091.41,3888.974,3899.744,4013.718,4018.205,0,0
30,48,0,0,4003.974,4040.7690000000002,3914.615,3882.308,4073.8459999999995,3952.4359999999997,3881.026,4044.615,3906.667,4163.077,3938.333,3944.3590000000004,4145.385,4061.282,0,0
31,49,0,0,4041.026,4101.667,3945.6409999999996,3916.795,4119.359,4001.1540000000005,3914.615,4079.2309999999998,3932.179,4195.769,3969.103,3981.923,4151.538,4095.897,0,0
32,50,0,0,4081.538,4144.615,3983.59,3954.615,4141.154,4033.59,3948.077,4113.718,3963.8459999999995,4239.231,3994.615,4012.821,4199.231,4134.615,0,0
33,51,0,0,4116.154,4183.846,4015.897,3991.795,4165.513,4048.8459999999995,3977.308,4141.282,3996.923,4274.872,4017.692,4036.1540000000005,4249.615,4162.179,0,0
34,52,0,0,4140.255999999999,4253.333,4033.974,4012.949,4198.59,4074.3590000000004,3999.744,4167.0509999999995,4019.2309999999998,4286.026,4039.103,4059.615,4238.462,4183.59,0,0
35,53,0,0,4165.128,4325.128,4062.692,4036.538,4243.718,4107.308,4026.026,4212.308,4059.103,4326.923,4076.538,4093.974,4304.744000000001,4222.0509999999995,0,0
36,54,0,0,4189.231,4363.59,4095.385,4070.513,4288.59,4123.846,4052.4359999999997,4246.538,4096.923,4377.179,4110.128,4124.359,4403.077,4256.923,0,0
37,55,0,0,4217.308,4410.513,4117.692,4101.795,4323.59,4138.974,4081.923,4262.179,4108.077,4393.333,4129.231,4150.128,4366.41,4280.255999999999,0,0
38,56,0,0,4247.692,4467.564,4141.538,4129.744000000001,4345.0,4169.615,4108.846,4287.436,4121.026,4398.462,4147.692,4172.564,4300.641,4302.9490000000005,0,0
39,57,0,0,4285.385,4521.41,4182.436,4167.9490000000005,4375.0,4207.436,4135.641,4333.462,4167.308,4447.0509999999995,4183.846,4203.333,4391.282,4339.359,0,0
40,58,0,0,4332.692,4610.255999999999,4229.231,4217.436,4439.359,4237.564,4176.154,4387.564,4222.179,4515.385,4239.103,4252.821,4495.513,4389.872,0,0
41,59,0,0,4370.769,4693.718,4266.154,4267.564,4482.564,4266.538,4213.59,4426.538,4247.821,4550.769,4282.692,4293.462,4491.795,4430.385,0,0
42,60,0,0,4401.154,4736.923,4297.0509999999995,4308.974,4499.359,4315.385,4242.564,4446.667,4257.0509999999995,4566.667,4302.9490000000005,4313.974,4471.026,4458.333,0,0
43,61,0,0,4447.821,4811.154,4340.385,4345.255999999999,4560.897,4382.564,4288.846,4489.103,4312.821,4632.179,4344.487,4358.333,4582.564,4508.59,0,0
44,62,0,0,4505.128,4908.974,4398.974,4404.872,4644.744000000001,4433.846,4341.795,4558.718,4401.923,4739.744000000001,4413.846,4424.487,4800.385,4576.923,0,0
45,63,0,0,4546.282,4953.846,4441.154,4471.41,4686.41,4465.385,4374.872,4595.641,4429.231,4777.0509999999995,4449.231,4460.255999999999,4830.385,4616.282,0,0
46,64,0,3104,4563.974,4973.205,4451.795,4491.795,4699.744000000001,4505.769,4396.026,4599.231,4409.103,4750.641,4446.538,4468.205,4691.026,4626.026,0,0
47,65,0,2851,4584.615,5016.667,4475.0,4510.897,4735.897,4564.103,4428.077,4625.897,4430.641,4766.154,4461.923,4490.769,4676.154,4645.897,0,0
48,66,0,3383,4629.231,5078.59,4531.667,4580.769,4805.385,4636.41,4473.718,4680.769,4480.385,4829.615,4513.077,4538.077,4737.564,4691.795,0,0
49,67,0,3387,4680.641,5154.359,4581.538,4644.359,4873.077,4710.897,4518.59,4728.462,4511.667,4877.692,4568.59,4587.821,4714.744000000001,4742.821,0,0
50,68,0,3444,4716.282,5203.59,4617.9490000000005,4667.564,4897.436,4780.385,4563.59,4769.231,4551.538,4919.231,4609.359,4626.795,4745.385,4786.923,0,0
51,69,0,2995,4749.615,5228.077,4659.872,4697.0509999999995,4931.154,4840.385,4611.923,4821.282,4605.513,4973.59,4643.462,4662.436,4852.9490000000005,4830.255999999999,0,0
52,70,0,2952,4794.872,5287.308000000001,4697.9490000000005,4748.077,5004.359,4859.744000000001,4645.255999999999,4871.795,4649.744000000001,5025.897,4686.667,4701.154,4910.385,4874.744000000001,0,0
53,71,0,3391,4833.59,5337.436,4727.0509999999995,4798.718,5036.923,4859.103,4668.718,4906.667,4694.615,5074.615,4729.872,4734.744000000001,4976.154,4910.769,0,0
54,72,0,2865,4847.436,5348.076999999999,4749.359,4827.179,5038.077,4883.077,4698.077,4928.59,4725.385,5103.462,4748.718,4753.333,5037.9490000000005,4928.846,0,0
55,73,0,3500,4851.795,5369.486999999999,4757.564,4833.205,5048.462,4890.0,4705.0,4929.359,4713.59,5096.026,4748.974,4760.897,5010.385,4935.385,0,0
56,74,0,3328,4858.718,5385.897,4757.0509999999995,4852.821,5044.231,4855.128,4684.359,4913.462,4695.641,5079.359,4748.974,4762.308,4968.333,4935.128,0,0
57,75,0,3336,4812.0509999999995,5348.4619999999995,4712.692,4835.255999999999,5018.333,4810.0,4645.0,4867.436,4666.795,5042.308,4716.026,4721.154,4954.487,4888.333,0,0
58,76,0,2933,4698.718,5265.769,4609.744000000001,4748.333,4959.615,4746.154,4580.769,4768.333,4578.462,4932.179,4621.282,4621.154,4850.128,4779.487,0,0
59,77,0,3076,4632.564,5143.718,4556.026,4705.385,4853.846,4671.538,4531.795,4679.744000000001,4495.385,4808.59,4541.026,4548.846,4681.795,4696.154,0,0
60,78,0,3328,4639.744000000001,5063.718,4570.513,4725.897,4803.718,4645.513,4518.333,4668.462,4488.077,4785.0,4536.795,4549.103,4655.769,4688.59,0,0
61,79,0,3336,4631.795,5123.974,4562.0509999999995,4740.769,4866.282,4664.103,4507.308,4695.255999999999,4507.179,4823.59,4555.513,4559.359,4736.538,4702.436,0,0
62,80,0,2933,4624.487,5205.513,4554.103,4756.282,4928.462,4679.359,4512.0509999999995,4716.026,4521.41,4843.718,4560.897,4565.769,4756.667,4716.026,0,0
63,81,0,3076,4677.564,5214.615,4609.103,4798.974,4936.667,4700.513,4568.333,4758.077,4571.923,4884.103,4589.872,4608.205,4785.128,4758.077,0,0
64,82,0,3328,4741.282,5204.231,4672.179,4882.692,4958.077,4741.667,4616.923,4807.821,4634.359,4948.205,4643.333,4663.846,4867.0509999999995,4811.667,0,0
65,83,0,3336,4760.128,5177.436,4693.205,4961.923,4996.41,4768.462,4615.255999999999,4816.154,4644.487,4954.359,4670.385,4685.385,4876.41,4832.692,0,0
66,84,0,2933,4747.179,5171.026,4691.538,4939.487,5016.282,4763.205,4619.615,4807.821,4621.923,4931.795,4662.692,4682.9490000000005,4833.846,4829.744000000001,0,0
67,85,0,3076,4790.769,5216.795,4733.59,4960.897,5069.359,4788.462,4679.744000000001,4862.179,4653.59,4989.231,4689.872,4723.077,4883.846,4873.59,0,0
68,86,0,3328,4888.846,5292.821,4816.026,5112.692,5153.077,4863.718,4745.897,4954.744000000001,4742.692,5090.0,4770.255999999999,4803.974,4991.282,4960.897,0,0
69,87,0,3336,4934.872,5321.5380000000005,4855.897,5178.333,5204.744000000001,4919.872,4767.564,4996.41,4795.128,5127.308,4824.615,4850.897,5032.564,5013.205,0,0
70,88,0,2933,4961.154,5306.026,4889.359,5187.9490000000005,5240.0,4945.0,4798.205,5023.974,4823.333,5153.077,4853.974,4881.41,5053.077,5048.077,0,0
71,89,0,3076,4989.744000000001,5342.0509999999995,4920.0,5263.59,5267.691999999999,4958.077,4825.513,5043.205,4841.795,5180.255999999999,4878.077,4904.231,5055.385,5078.077,0,0
72,90,0,3328,4980.128,5358.205,4909.615,5306.795,5267.436,4966.538,4820.897,5023.077,4817.0509999999995,5151.795,4873.333,4898.077,5009.231,5077.0509999999995,0,0
73,91,0,3336,4981.538,5359.744000000001,4919.615,5351.795,5307.564,4979.487,4835.385,5031.667,4815.255999999999,5154.872,4863.59,4909.231,5026.538,5090.0,0,0
74,92,0,2933,5075.128,5358.3330000000005,5023.718,5504.615,5386.026,5033.974,4909.615,5120.255999999999,4894.872,5242.0509999999995,4950.769,4990.513,5121.41,5175.385,0,0
75,93,0,3076,5143.462,5390.0,5087.436,5565.0,5372.691999999999,5102.564,4970.385,5189.872,4968.59,5294.744000000001,5052.692,5056.026,5153.59,5238.462,0,0
76,94,0,3328,5125.897,5438.59,5058.718,5541.5380000000005,5360.0,5112.9490000000005,4973.077,5189.744000000001,4976.282,5290.769,5026.538,5048.718,5150.513,5227.308,0,0
77,95,0,3336,5173.59,5443.205,5105.255999999999,5656.923000000001,5446.5380000000005,5102.692,4998.462,5221.538,4995.385,5308.974,5051.538,5088.462,5221.923,5267.436,0,0
78,96,0,2933,5216.795,5547.308000000001,5142.308,5725.255999999999,5502.9490000000005,5123.974,5031.282,5254.103,5020.128,5340.0,5105.385,5128.59,5262.9490000000005,5308.076999999999,0,0
79,97,0,3076,5209.872,5629.359,5119.359,5661.795,5493.846,5166.154,5045.769,5247.9490000000005,5023.718,5380.385,5031.282,5105.385,5220.513,5290.255999999999,0,0
80,98,0,3328,5275.385,5619.359,5183.077,5728.3330000000005,5494.615,5205.769,5088.59,5283.076999999999,5047.179,5423.3330000000005,5006.154,5130.513,5200.385,5325.255999999999,0,0
81,99,0,3336,5342.436,5817.436,5234.231,5842.436,5503.205,5207.308,5101.026,5310.255999999999,5051.026,5399.871999999999,5127.179,5186.154,5185.255999999999,5374.744000000001,0,0
82,100,0,2933,5245.128000000001,6059.359,5067.821,5652.691999999999,5453.846,5111.538,4980.385,5185.513,4953.205,5305.255999999999,5029.872,5080.897,5069.231,5251.281999999999,0,0
83,101,0,3076,5236.026,6067.691999999999,4981.795,5525.255999999999,5426.6669999999995,5058.205,4932.821,5110.513,4902.692,5297.691999999999,4813.333,4985.513,5015.385,5159.359,0,0
84,102,0,3328,5530.255999999999,6264.231,5205.641,5793.846,5585.385,5189.744000000001,5111.154,5305.255999999999,5067.821,5482.564,4980.641,5166.282,5198.846,5356.5380000000005,0,0
85,103,0,3336,5764.486999999999,6606.795,5361.5380000000005,5864.231,5761.41,5341.281999999999,5258.846,5484.744000000001,5227.436,5678.974,5261.6669999999995,5356.154,5383.3330000000005,5548.205,0,0
86,104,0,2933,5792.564,6658.718000000001,5354.871999999999,5728.076999999999,5769.744000000001,5388.205,5291.41,5502.9490000000005,5245.769,5739.359,5270.128000000001,5370.641,5407.179,5558.846,0,0
87,105,0,3076,5774.359,6788.59,5346.154,5841.5380000000005,5802.9490000000005,5356.154,5295.385,5504.744000000001,5251.026,5729.744000000001,5171.026,5344.744000000001,5396.6669999999995,5544.615,0,0
88,106,0,3328,5790.255999999999,7010.385,5366.026,5885.641,5925.641,5354.231,5305.128000000001,5537.691999999999,5284.486999999999,5752.308000000001,5240.255999999999,5375.641,5439.871999999999,5589.744000000001,0,0
89,107,0,3336,5871.923000000001,6946.923000000001,5427.0509999999995,5751.923000000001,5913.4619999999995,5437.179,5370.897,5593.846,5332.0509999999995,5856.026,5379.615,5443.3330000000005,5526.026,5657.564,0,0
90,108,0,2933,5885.641,6890.128000000001,5427.179,5812.9490000000005,5828.59,5438.59,5381.154,5573.59,5308.076999999999,5942.179,5336.281999999999,5416.281999999999,5531.026,5628.846,0,0
91,109,0,3076,5762.691999999999,7099.359,5318.4619999999995,5871.026,5858.3330000000005,5328.076999999999,5285.513000000001,5482.436,5240.897,5883.076999999999,5186.667,5312.821,5430.0,5518.974,0,0
92,110,0,3328,5724.744000000001,7249.231,5295.255999999999,5729.615,5902.0509999999995,5319.103,5286.026,5500.255999999999,5277.9490000000005,5879.744000000001,5170.641,5317.179,5434.744000000001,5518.974,0,0
93,111,0,3336,5822.564,7226.5380000000005,5402.9490000000005,5712.9490000000005,5860.769,5406.026,5384.871999999999,5583.205,5339.103,6075.641,5262.436,5393.076999999999,5537.691999999999,5603.4619999999995,0,0
94,112,0,2933,5826.5380000000005,7202.564,5419.486999999999,5798.59,5824.486999999999,5376.41,5378.846,5553.846,5298.205,6241.281999999999,5260.897,5366.923000000001,5529.615,5581.154,0,0
95,113,0,3076,5805.513000000001,7200.897,5387.821,5813.846,5875.769,5280.385,5350.255999999999,5534.359,5293.076999999999,6309.103,5286.923000000001,5360.641,5502.821,5569.103,0,0
96,114,0,3328,5801.41,7217.308000000001,5365.385,5788.3330000000005,5900.769,5218.846,5356.026,5548.974,5326.154,6354.871999999999,5308.205,5382.564,5518.4619999999995,5591.923000000001,0,0
97,115,0,3336,5747.308000000001,7221.5380000000005,5334.871999999999,5740.128000000001,5815.513000000001,5201.41,5335.128000000001,5494.744000000001,5278.076999999999,6370.255999999999,5212.9490000000005,5328.846,5484.103,5546.5380000000005,0,0
98,116,0,2933,5817.0509999999995,7230.769,5420.255999999999,5770.255999999999,5800.255999999999,5270.385,5386.41,5536.026,5317.691999999999,6468.4619999999995,5238.718,5362.564,5531.281999999999,5592.308000000001,0,0
99,117,0,3076,5904.359,7263.974,5489.103,5827.0509999999995,5866.5380000000005,5330.128000000001,5459.231,5638.718000000001,5418.718000000001,6605.385,5379.103,5460.0,5637.691999999999,5697.564,0,0
100,118,0,3328,5809.871999999999,7300.769,5398.205,5772.436,5842.564,5284.871999999999,5413.718000000001,5594.359,5377.436,6577.691999999999,5363.718000000001,5423.3330000000005,5600.128000000001,5653.718000000001,0,0
101,119,0,3336,5769.871999999999,7216.795,5376.026,5744.231,5777.821,5254.486999999999,5370.128000000001,5529.744000000001,5316.795,6504.359,5277.308000000001,5364.103,5532.691999999999,5594.231,0,0
102,120,0,2933,5841.795,7125.385,5440.128000000001,5788.3330000000005,5769.231,5292.821,5397.436,5554.744000000001,5341.923000000001,6521.5380000000005,5307.179,5389.359,5550.513000000001,5629.359,0,0
103,121,0,3076,5801.923000000001,7211.154,5390.769,5727.691999999999,5775.513000000001,5280.769,5378.076999999999,5544.103,5344.871999999999,6492.9490000000005,5313.846,5381.6669999999995,5530.128000000001,5622.691999999999,0,0
104,122,0,3328,5746.154,7236.923000000001,5343.718000000001,5631.5380000000005,5769.615,5230.0,5331.795,5495.897,5306.281999999999,6435.385,5285.255999999999,5355.128000000001,5482.564,5597.308000000001,0,0
105,123,0,3336,5790.641,7139.231,5399.231,5686.154,5738.4619999999995,5246.41,5355.255999999999,5504.103,5311.026,6423.205,5315.128000000001,5377.436,5491.41,5626.154,0,0
106,124,0,2933,5787.9490000000005,7132.564,5405.513000000001,5735.0,5701.281999999999,5287.821,5389.744000000001,5528.846,5335.385,6386.154,5336.923000000001,5390.897,5497.691999999999,5634.486999999999,0,0
107,125,0,3076,5731.281999999999,7109.871999999999,5356.026,5659.871999999999,5691.154,5289.744000000001,5371.795,5513.076999999999,5322.9490000000005,6299.231,5327.691999999999,5373.076999999999,5458.718000000001,5603.076999999999,0,0
108,126,0,3328,5680.385,6993.718000000001,5315.385,5589.871999999999,5665.513000000001,5246.6669999999995,5318.4619999999995,5451.281999999999,5271.795,6177.0509999999995,5300.0,5330.769,5390.128000000001,5551.41,0,0
109,127,0,52,5638.205,6925.128000000001,5277.821,5552.564,5589.231,5202.821,5283.205,5399.103,5229.615,6065.128000000001,5277.0509999999995,5289.615,5343.3330000000005,5503.718000000001,0,0
110,0,0,3210,5619.615,6909.231,5266.923000000001,5511.923000000001,5537.0509999999995,5192.821,5285.0,5400.513000000001,5228.974,5993.076999999999,5276.5380000000005,5282.691999999999,5338.846,5484.103,0,0
111,1,0,2826,5605.641,6851.154,5264.871999999999,5493.4619999999995,5545.513000000001,5176.154,5272.564,5392.821,5226.154,5912.179,5278.4619999999995,5282.0509999999995,5317.564,5471.281999999999,0,0
112,2,0,3426,5612.691999999999,6774.359,5271.154,5517.0509999999995,5550.641,5159.872,5254.615,5375.385,5220.513,5849.103,5318.974,5291.026,5306.5380000000005,5476.026,0,0
113,3,0,2910,5595.897,6701.281999999999,5252.179,5501.41,5459.615,5134.615,5221.923,5328.4619999999995,5178.462,5758.974,5335.0,5270.769,5271.154,5448.076999999999,0,0
114,4,0,3434,5508.718000000001,6619.871999999999,5175.128,5418.846,5339.231,5077.9490000000005,5151.282,5214.872,5075.255999999999,5557.564,5237.308,5181.026,5141.795,5334.615,0,0
115,5,0,3094,5510.769,6703.974,5182.821,5404.615,5408.3330000000005,5097.308,5176.026,5222.821,5081.538,5485.897,5237.308,5193.077,5135.641,5329.103,0,0
116,6,0,3010,5648.974,6847.179,5292.308000000001,5491.026,5579.744000000001,5186.026,5276.5380000000005,5378.076999999999,5217.692,5621.5380000000005,5421.154,5336.281999999999,5309.486999999999,5480.385,0,0
117,7,0,3410,5750.897,6751.154,5350.513000000001,5554.871999999999,5594.871999999999,5217.9490000000005,5294.615,5440.641,5275.128000000001,5651.154,5503.846,5394.615,5364.486999999999,5559.615,0,0
118,8,0,2858,5713.846,6659.486999999999,5292.9490000000005,5521.154,5489.744000000001,5187.308,5251.923000000001,5374.615,5217.692,5521.795,5413.846,5324.615,5267.821,5507.308000000001,0,0
119,9,0,3482,5634.615,6722.564,5203.59,5446.6669999999995,5422.691999999999,5146.795,5214.872,5322.179,5172.0509999999995,5427.179,5372.0509999999995,5262.308000000001,5219.744000000001,5460.513000000001,0,0
120,10,0,3352,5655.255999999999,6725.0,5202.0509999999995,5412.564,5454.103,5132.436,5191.667,5331.154,5181.923,5410.385,5419.103,5271.281999999999,5240.255999999999,5495.128000000001,0,0
121,11,0,3316,5752.9490000000005,6641.6669999999995,5265.128000000001,5459.359,5502.691999999999,5166.282,5216.538,5371.6669999999995,5214.231,5429.359,5454.615,5316.281999999999,5269.359,5570.385,0,0
122,12,0,2890,5755.0,6612.9490000000005,5260.513000000001,5480.385,5441.154,5171.154,5231.154,5358.59,5199.615,5395.769,5438.3330000000005,5310.513000000001,5243.205,5570.641,0,0
123,13,0,3071,5708.4619999999995,6636.6669999999995,5228.077,5449.615,5388.3330000000005,5142.436,5202.821,5326.795,5175.0,5338.846,5446.6669999999995,5289.359,5211.282,5543.205,0,0
124,14,0,3352,5746.41,6651.026,5260.385,5483.974,5442.821,5152.436,5196.026,5354.744000000001,5204.872,5365.385,5506.281999999999,5321.281999999999,5251.5380000000005,5587.821,0,0
125,15,0,3316,5747.308000000001,6578.4619999999995,5265.255999999999,5455.385,5426.923000000001,5141.026,5179.744000000001,5332.564,5190.641,5360.897,5507.821,5316.795,5259.744000000001,5587.179,0,0
126,16,0,0,5696.41,6526.281999999999,5254.231,5363.4619999999995,5361.281999999999,5140.385,5179.744000000001,5293.205,5159.231,5301.026,5478.4619999999995,5297.436,5230.769,5541.026,0,0
127,17,0,0,5693.3330000000005,6534.871999999999,5273.59,5440.128000000001,5398.4619999999995,5184.487,5220.255999999999,5330.385,5194.231,5305.513000000001,5482.179,5317.691999999999,5258.4619999999995,5538.076999999999,0,0
128,18,0,0,5676.41,6382.179,5260.0,5494.615,5379.486999999999,5183.462,5210.513,5332.691999999999,5202.308,5315.128000000001,5487.821,5300.641,5282.821,5509.744000000001,0,0
129,19,0,0,5600.513000000001,6279.103,5221.667,5333.59,5276.41,5146.795,5172.436,5288.3330000000005,5167.821,5275.769,5471.41,5254.744000000001,5256.795,5446.154,0,0
130,20,0,0,5506.281999999999,6331.6669999999995,5160.385,5213.462,5273.205,5100.385,5134.872,5246.923000000001,5130.255999999999,5211.795,5397.179,5195.641,5197.308,5381.5380000000005,0,0
131,21,0,0,5440.897,6255.897,5098.846,5253.4619999999995,5287.821,5057.564,5092.179,5204.487,5095.255999999999,5161.538,5313.974,5128.462,5145.769,5320.897,0,0
132,22,0,0,5402.179,6147.0509999999995,5079.872,5252.0509999999995,5220.128,5067.9490000000005,5092.821,5203.59,5098.974,5162.564,5305.255999999999,5111.923,5148.333,5290.0,0,0
133,23,0,0,5377.564,6122.308000000001,5076.667,5165.641,5185.513,5094.744000000001,5115.0,5235.385,5127.0509999999995,5177.179,5314.615,5116.923,5164.359,5276.281999999999,0,0
134,24,0,0,5346.154,6073.076999999999,5036.795,5131.41,5216.026,5060.769,5081.667,5211.538,5104.744000000001,5145.385,5280.769,5069.103,5146.026,5236.923,0,0
135,25,0,0,5320.641,6063.076999999999,5003.974,5171.667,5204.872,5027.0509999999995,5040.897,5167.692,5066.667,5109.231,5272.691999999999,5042.821,5139.103,5218.333,0,0
136,26,0,0,5325.513000000001,6087.691999999999,5033.718,5193.077,5162.179,5045.0,5060.255999999999,5175.0,5076.41,5113.205,5291.41,5085.255999999999,5160.385,5237.692,0,0
137,27,0,0,5379.871999999999,6058.59,5112.564,5195.255999999999,5197.564,5089.487,5120.513,5235.769,5125.255999999999,5173.205,5331.154,5148.59,5220.513,5279.231,0,0
138,28,0,0,5411.281999999999,6054.486999999999,5151.41,5205.128,5229.872,5126.667,5155.385,5279.103,5154.103,5217.9490000000005,5361.026,5178.974,5264.744000000001,5304.231,0,0
139,29,0,0,5356.154,6049.744000000001,5108.205,5189.231,5188.718,5109.744000000001,5125.128,5237.0509999999995,5118.59,5162.179,5295.128000000001,5142.821,5219.487,5258.718000000001,0,0
140,30,0,0,5336.281999999999,5986.026,5109.103,5169.744000000001,5183.077,5091.667,5107.308,5200.513,5087.9490000000005,5123.205,5248.718000000001,5130.0,5187.308,5234.744000000001,0,0
141,31,0,0,5374.615,5935.769,5161.026,5207.564,5213.077,5116.154,5129.487,5226.154,5105.128,5157.9490000000005,5306.41,5176.667,5216.41,5271.6669999999995,0,0
142,32,0,0,5350.513000000001,5943.4619999999995,5148.077,5210.513,5177.9490000000005,5120.128,5120.385,5223.205,5104.103,5147.564,5306.281999999999,5174.359,5197.9490000000005,5261.026,0,0
143,33,0,0,5307.821,5907.9490000000005,5119.231,5144.231,5135.0,5092.692,5106.154,5195.641,5088.718,5116.538,5228.846,5135.385,5163.59,5219.359,0,0
144,34,0,0,5307.0509999999995,5806.795,5118.205,5142.436,5140.897,5072.564,5105.128,5179.359,5078.718,5118.462,5201.154,5120.641,5169.615,5204.103,0,0
145,35,0,0,5272.564,5770.641,5088.718,5151.538,5117.436,5052.564,5072.564,5141.667,5043.462,5080.897,5195.385,5096.795,5136.923,5173.462,0,0
146,36,0,0,5266.154,5842.564,5087.564,5136.282,5116.154,5068.077,5077.564,5161.026,5060.0,5081.667,5218.846,5114.872,5137.179,5189.615,0,0
147,37,0,0,5337.821,5864.231,5147.436,5166.41,5173.718,5124.359,5135.769,5243.3330000000005,5138.205,5174.615,5268.076999999999,5176.667,5224.872,5260.641,0,0
148,38,0,0,5343.4619999999995,5734.103,5155.0,5186.154,5159.615,5139.359,5142.564,5245.641,5138.462,5189.359,5239.487,5160.769,5235.641,5248.205,0,0
149,39,0,0,5267.821,5662.179,5104.231,5145.641,5096.538,5100.385,5100.255999999999,5184.103,5079.103,5116.667,5187.9490000000005,5104.615,5167.692,5181.923,0,0
150,40,0,0,5237.9490000000005,5712.179,5076.41,5109.359,5107.0509999999995,5069.615,5077.9490000000005,5165.385,5072.308,5103.718,5190.128,5099.103,5160.641,5174.231,0,0
151,41,0,0,5256.154,5711.281999999999,5078.974,5131.154,5140.769,5075.769,5077.0509999999995,5176.282,5092.564,5116.154,5205.128,5112.308,5184.615,5190.897,0,0
152,42,0,0,5279.103,5630.641,5110.255999999999,5164.872,5131.538,5113.205,5104.231,5201.026,5105.897,5103.59,5235.128,5138.846,5188.718,5204.487,0,0
153,43,0,0,5293.846,5601.154,5130.255999999999,5190.0,5138.077,5135.255999999999,5128.462,5220.255999999999,5115.897,5121.538,5239.487,5157.308,5200.513,5216.795,0,0
154,44,0,0,5285.0,5593.076999999999,5104.103,5182.692,5157.9490000000005,5113.718,5103.59,5198.59,5105.0,5128.205,5185.128,5130.513,5191.923,5204.872,0,0
155,45,0,0,5273.4619999999995,5488.3330000000005,5096.923,5135.385,5117.436,5099.103,5088.846,5177.179,5089.359,5088.462,5169.231,5110.385,5165.385,5190.641,0,0
156,46,0,0,5260.641,5429.486999999999,5109.359,5127.564,5073.718,5108.974,5101.026,5171.154,5081.538,5079.103,5194.359,5117.436,5158.718,5186.41,0,0
157,47,0,0,5240.128,5441.026,5088.846,5167.692,5102.179,5101.923,5083.333,5152.179,5070.641,5101.41,5169.872,5109.231,5151.538,5177.0509999999995,0,0
158,48,0,0,5238.462,5374.359,5077.308,5165.641,5133.846,5085.641,5062.692,5141.41,5067.179,5097.436,5144.103,5102.308,5145.641,5177.0509999999995,0,0
159,49,0,0,5241.41,5298.3330000000005,5092.692,5113.718,5091.923,5095.128,5084.615,5152.821,5071.026,5085.641,5166.41,5110.897,5147.564,5181.795,0,0
160,50,0,0,5243.4619999999995,5309.103,5103.59,5124.872,5065.255999999999,5117.0509999999995,5111.795,5164.487,5078.59,5106.026,5185.897,5115.128,5150.255999999999,5180.641,0,0
161,51,0,0,5238.205,5288.3330000000005,5093.974,5162.179,5082.564,5101.795,5093.077,5150.641,5075.385,5103.333,5162.179,5104.744000000001,5140.385,5167.564,0,0
162,52,0,0,5228.205,5246.026,5085.128,5142.821,5075.641,5087.179,5080.513,5140.128,5064.487,5080.513,5140.769,5104.872,5140.769,5164.487,0,0
163,53,0,0,5233.974,5241.795,5102.436,5107.564,5056.667,5101.026,5098.59,5154.615,5075.128,5098.718,5161.026,5125.769,5159.872,5183.462,0,0
164,54,0,0,5229.487,5152.179,5118.077,5097.692,5029.231,5092.564,5085.513,5141.923,5074.359,5095.255999999999,5164.744000000001,5119.744000000001,5132.821,5174.487,0,0
165,55,0,0,5200.769,5100.641,5097.564,5114.103,5021.923,5074.487,5056.923,5115.513,5051.282,5046.923,5137.692,5100.641,5088.846,5147.564,0,0
166,56,0,0,5214.744000000001,5190.513,5097.308,5130.513,5065.513,5106.538,5086.923,5152.9490000000005,5072.564,5069.487,5150.769,5130.513,5132.0509999999995,5173.077,0,0
167,57,0,0,5265.0,5225.128,5137.436,5122.821,5105.385,5149.231,5133.205,5200.0,5113.59,5146.923,5192.436,5164.744000000001,5201.667,5217.9490000000005,0,0
168,58,0,0,5289.486999999999,5168.077,5166.538,5133.077,5119.359,5160.385,5146.026,5205.897,5127.0509999999995,5173.974,5224.744000000001,5173.462,5218.974,5241.795,0,0
169,59,0,0,5291.154,5178.974,5171.154,5172.436,5120.769,5166.41,5151.41,5213.846,5136.795,5167.821,5239.744000000001,5183.333,5224.615,5260.128000000001,0,0
170,60,0,0,5286.6669999999995,5190.769,5168.077,5162.821,5101.923,5172.436,5153.462,5217.436,5139.231,5165.255999999999,5225.897,5186.795,5222.179,5257.821,0,0
171,61,0,0,5286.923000000001,5156.538,5168.333,5133.077,5102.436,5176.795,5158.974,5214.744000000001,5136.667,5170.513,5216.795,5184.615,5221.538,5250.255999999999,0,0
172,62,0,0,5306.154,5156.538,5182.436,5148.205,5133.59,5182.0509999999995,5178.205,5236.795,5156.41,5192.564,5235.385,5198.333,5259.871999999999,5273.974,0,0
173,63,0,0,5317.9490000000005,5152.436,5195.0,5161.538,5125.513,5183.846,5181.667,5252.9490000000005,5172.179,5205.255999999999,5243.59,5214.487,5282.179,5293.974,0,0
174,64,0,3132,5310.385,5134.744000000001,5189.744000000001,5152.564,5115.255999999999,5188.205,5174.359,5245.513000000001,5165.769,5195.769,5229.615,5211.41,5264.103,5284.486999999999,0,0
175,65,0,2845,5308.59,5115.769,5184.615,5142.179,5133.333,5197.436,5183.077,5245.385,5167.692,5196.923,5233.846,5207.179,5269.359,5280.128000000001,0,0
176,66,0,3412,5300.641,5086.538,5176.026,5126.923,5112.0509999999995,5188.333,5178.333,5238.077,5162.9490000000005,5192.821,5235.385,5200.769,5279.231,5278.846,0,0
177,67,0,3250,5286.026,5058.718,5165.255999999999,5111.538,5078.59,5171.154,5156.282,5217.179,5145.513,5175.897,5207.692,5188.462,5254.615,5269.744000000001,0,0
178,68,0,3440,5307.0509999999995,5054.615,5187.564,5123.333,5096.538,5189.487,5165.769,5227.9490000000005,5162.179,5196.154,5221.41,5206.795,5256.154,5288.59,0,0
179,69,0,3021,5317.0509999999995,5050.769,5201.026,5125.513,5112.0509999999995,5199.744000000001,5178.205,5240.385,5176.538,5207.692,5242.436,5221.154,5268.974,5304.486999999999,0,0
180,70,0,2981,5264.359,4973.205,5158.718,5077.9490000000005,5074.103,5156.41,5146.795,5201.154,5137.692,5152.564,5187.692,5176.923,5231.154,5255.769,0,0
181,71,0,3417,5235.769,4896.282,5132.179,5043.718,5046.41,5135.769,5123.077,5174.103,5115.769,5122.821,5146.538,5145.513,5205.128,5219.744000000001,0,0
182,72,0,2870,5264.744000000001,4911.923,5153.59,5061.282,5055.513,5170.255999999999,5141.923,5198.974,5141.667,5156.538,5175.255999999999,5170.513,5232.308,5249.359,0,0
183,73,0,3566,5252.691999999999,4893.077,5144.359,5061.795,5027.179,5162.9490000000005,5140.897,5192.564,5135.769,5143.59,5166.667,5162.821,5224.231,5238.846,0,0
184,74,0,3370,5208.205,4814.103,5108.077,5034.487,4982.308,5118.718,5106.667,5146.795,5099.103,5090.385,5119.103,5120.641,5167.308,5188.205,0,0
185,75,0,3369,5209.487,4798.718,5107.436,5042.692,4981.026,5116.923,5092.436,5140.769,5097.308,5088.462,5122.9490000000005,5123.974,5150.769,5194.744000000001,0,0
186,76,0,2983,5204.872,4787.821,5103.333,5048.462,4968.462,5113.462,5089.103,5132.821,5087.436,5082.179,5121.154,5121.41,5148.718,5197.0509999999995,0,0
187,77,0,3103,5155.513,4714.231,5065.0,5008.846,4923.846,5075.513,5061.282,5081.667,5041.923,5032.564,5077.821,5077.564,5104.359,5145.255999999999,0,0
188,78,0,3370,5121.41,4645.255999999999,5037.564,4974.487,4882.9490000000005,5045.897,5028.846,5060.513,5025.641,5005.769,5050.897,5051.026,5063.205,5111.795,0,0
189,79,0,3369,5119.615,4616.667,5038.846,4975.128,4860.513,5039.359,5022.692,5076.667,5040.769,5011.41,5048.59,5053.205,5065.513,5114.103,0,0
190,80,0,2983,5106.795,4598.59,5032.179,4969.231,4855.128,5036.282,5021.026,5053.205,5022.308,4997.308,5043.59,5043.974,5066.026,5102.9490000000005,0,0
191,81,0,3103,5061.538,4554.359,4989.744000000001,4922.564,4821.154,5012.308,4981.667,4986.795,4966.667,4946.41,5010.255999999999,5003.59,5017.564,5059.103,0,0
192,82,0,3370,5017.0509999999995,4488.846,4949.359,4867.821,4749.487,4976.41,4932.0509999999995,4946.667,4932.308,4900.769,4962.692,4965.513,4957.0509999999995,5012.0509999999995,0,0
193,83,0,3369,4992.564,4440.897,4936.538,4838.333,4715.385,4965.385,4923.718,4933.59,4917.436,4872.179,4933.333,4948.974,4914.359,4984.359,0,0
194,84,0,2983,4938.462,4381.154,4892.179,4791.923,4684.744000000001,4940.385,4904.487,4883.205,4870.641,4807.0509999999995,4889.744000000001,4903.077,4852.564,4931.154,0,0
195,85,0,3103,4893.077,4322.9490000000005,4848.718,4748.846,4642.0509999999995,4903.205,4872.179,4847.9490000000005,4844.103,4763.205,4851.41,4861.538,4813.333,4889.744000000001,0,0
196,86,0,3370,4919.359,4348.974,4877.692,4769.231,4657.308,4917.0509999999995,4887.692,4881.41,4877.821,4810.641,4879.487,4890.769,4852.179,4928.974,0,0
197,87,0,3369,4910.513,4338.974,4874.872,4770.513,4644.615,4915.897,4880.385,4869.744000000001,4865.769,4814.487,4883.846,4889.487,4858.718,4927.0509999999995,0,0
198,88,0,2983,4856.667,4245.897,4826.154,4716.538,4592.436,4872.821,4841.41,4814.231,4813.846,4754.744000000001,4833.846,4839.359,4807.564,4863.59,0,0
199,89,0,3103,4857.9490000000005,4233.718,4833.718,4703.333,4607.9490000000005,4864.744000000001,4845.0,4821.026,4818.462,4756.667,4829.231,4840.641,4801.923,4862.564,0,0
200,90,0,3370,4861.282,4266.538,4841.026,4715.255999999999,4621.795,4869.872,4840.0,4834.872,4831.538,4777.179,4846.538,4851.538,4804.103,4876.026,0,0
201,91,0,3369,4807.0509999999995,4204.615,4791.923,4661.154,4556.154,4834.487,4786.026,4781.795,4789.744000000001,4737.436,4813.974,4807.821,4745.0,4825.255999999999,0,0
202,92,0,2983,4764.744000000001,4148.205,4755.385,4610.641,4518.077,4809.359,4762.564,4740.128,4755.897,4696.795,4784.872,4769.744000000001,4707.821,4781.282,0,0
203,93,0,3103,4789.744000000001,4149.231,4774.231,4643.333,4545.255999999999,4838.718,4793.205,4775.769,4781.026,4716.154,4806.154,4784.615,4750.128,4801.923,0,0
204,94,0,3370,4833.846,4131.538,4810.513,4663.974,4558.846,4864.487,4809.744000000001,4815.513,4813.205,4754.231,4839.744000000001,4811.667,4784.872,4839.359,0,0
205,95,0,3369,4831.026,4163.077,4807.9490000000005,4637.179,4570.255999999999,4848.205,4798.974,4804.615,4813.077,4758.846,4849.487,4810.385,4771.41,4843.718,0,0
206,96,0,2983,4811.538,4199.359,4787.179,4653.077,4580.128,4844.744000000001,4801.795,4798.59,4811.282,4750.641,4844.231,4796.795,4766.282,4829.872,0,0
207,97,0,3103,4816.538,4144.872,4794.231,4670.385,4545.128,4860.0,4811.282,4812.0509999999995,4818.205,4756.282,4847.179,4795.513,4770.0,4827.0509999999995,0,0
208,98,0,3370,4793.205,4095.256,4784.231,4624.744000000001,4496.154,4825.641,4777.9490000000005,4771.154,4780.0,4726.154,4833.462,4775.0,4724.872,4806.538,0,0
209,99,0,3369,4766.41,4136.154,4765.255999999999,4613.59,4523.59,4800.128,4758.59,4748.205,4756.795,4699.487,4824.359,4765.0,4690.769,4793.462,0,0
210,100,0,2983,4793.974,4144.231,4789.744000000001,4665.641,4581.41,4831.282,4787.0509999999995,4795.385,4792.564,4728.462,4845.769,4793.205,4717.308,4818.718,0,0
211,101,0,3103,4802.308,4072.179,4802.692,4692.0509999999995,4541.41,4837.692,4788.59,4781.795,4779.359,4716.795,4840.513,4785.255999999999,4712.564,4809.744000000001,0,0
212,102,0,3370,4774.103,4089.3590000000004,4782.821,4674.615,4503.077,4827.0509999999995,4773.718,4744.487,4744.359,4686.282,4826.795,4763.205,4680.513,4782.308,0,0
213,103,0,3369,4760.769,4139.487,4766.795,4655.641,4563.333,4827.692,4764.872,4759.744000000001,4757.821,4700.769,4835.255999999999,4765.385,4678.462,4780.769,0,0
214,104,0,2983,4792.692,4156.154,4790.255999999999,4686.667,4640.897,4837.821,4778.333,4792.179,4795.0,4745.513,4870.769,4786.795,4723.974,4810.513,0,0
215,105,0,3103,4885.0,4210.513,4883.718,4784.615,4693.974,4894.744000000001,4857.9490000000005,4861.923,4859.103,4828.205,4954.103,4859.744000000001,4817.564,4895.385,0,0
216,106,0,3370,4942.9490000000005,4331.026,4942.308,4856.154,4753.718,4955.769,4922.821,4940.769,4926.667,4906.41,5031.026,4930.128,4886.667,4969.872,0,0
217,107,0,3369,4925.641,4387.0509999999995,4914.103,4835.255999999999,4810.897,4963.077,4905.0,4940.385,4928.718,4911.41,5036.795,4922.9490000000005,4874.872,4968.205,0,0
218,108,0,2983,4947.308,4342.308,4932.821,4835.641,4847.308,4973.846,4907.179,4935.255999999999,4923.462,4901.282,5039.615,4918.974,4868.205,4970.128,0,0
219,109,0,3103,5006.282,4357.821,4989.359,4909.231,4901.538,5005.897,4957.9490000000005,4996.667,4970.897,4942.0509999999995,5087.436,4966.282,4922.9490000000005,5018.718,0,0
220,110,0,3370,5020.769,4450.769,4990.641,4947.436,4958.846,5023.59,4978.974,5023.59,4996.41,4982.9490000000005,5116.923,4991.41,4963.59,5049.615,0,0
221,111,0,3369,5021.538,4526.282,4988.333,4928.462,4983.59,5039.487,4977.179,5006.923,4986.41,4993.974,5123.974,4993.205,4962.308,5056.282,0,0
222,112,0,2983,5038.974,4517.9490000000005,5015.769,4948.462,5006.41,5051.795,4987.436,5019.487,4995.128,4996.026,5143.846,5007.0509999999995,4961.41,5063.718,0,0
223,113,0,3103,5066.026,4500.513,5043.974,5005.769,5054.231,5068.462,5018.333,5059.103,5029.487,5018.718,5177.179,5035.769,4988.974,5088.718,0,0
224,114,0,3370,5092.9490000000005,4545.641,5070.385,5019.103,5080.897,5101.41,5047.308,5084.103,5051.538,5050.385,5203.333,5065.641,5021.154,5120.513,0,0
225,115,0,3369,5095.128,4591.538,5079.615,5002.9490000000005,5063.333,5115.255999999999,5047.564,5080.128,5046.538,5048.077,5206.282,5070.0,5019.744000000001,5121.154,0,0
226,116,0,2983,5103.333,4619.231,5085.128,5016.795,5094.615,5121.538,5061.667,5096.41,5058.846,5055.513,5222.821,5077.0509999999995,5026.026,5129.359,0,0
227,117,0,3103,5127.692,4613.59,5100.513,5038.077,5141.795,5132.9490000000005,5091.795,5124.487,5081.282,5080.255999999999,5244.103,5093.718,5045.641,5155.0,0,0
228,118,0,3370,5120.255999999999,4604.744000000001,5099.615,5037.308,5127.308,5129.359,5089.615,5121.282,5076.923,5075.513,5237.692,5091.026,5044.359,5150.128,0,0
229,119,0,3369,5100.128,4620.513,5090.513,5029.487,5107.821,5121.154,5077.308,5103.974,5065.385,5059.615,5228.718,5080.385,5030.897,5134.103,0,0
230,120,0,2983,5097.436,4640.897,5087.436,5039.359,5112.564,5127.436,5086.026,5100.128,5064.487,5055.897,5232.436,5078.077,5021.923,5135.255999999999,0,0
231,121,0,3103,5101.154,4636.41,5093.077,5049.615,5118.462,5131.923,5095.897,5102.564,5062.821,5053.333,5236.026,5083.462,5023.462,5137.0509999999995,0,0
232,122,0,3370,5103.462,4620.897,5100.769,5042.821,5122.564,5124.487,5092.692,5099.231,5061.282,5047.308,5241.026,5086.795,5031.538,5132.821,0,0
233,123,0,3369,5097.179,4607.692,5093.077,5038.974,5116.923,5117.9490000000005,5081.538,5093.333,5057.821,5037.9490000000005,5241.923,5081.667,5026.538,5128.462,0,0
234,124,0,2983,5076.41,4587.436,5076.154,5042.308,5097.9490000000005,5116.41,5069.103,5080.641,5049.615,5024.872,5230.513,5067.0509999999995,5006.282,5117.308,0,0
235,125,0,3103,5069.103,4592.821,5083.077,5037.692,5103.462,5120.769,5067.179,5075.513,5052.308,5023.846,5228.333,5068.974,5002.179,5115.255999999999,0,0
236,126,0,3370,5076.538,4613.462,5104.103,5028.205,5101.282,5120.769,5072.308,5077.564,5056.282,5022.564,5235.769,5084.487,5006.667,5120.641,0,0
237,127,0,52,5070.897,4601.41,5104.872,5035.513,5079.103,5110.385,5069.872,5067.436,5043.077,5006.026,5230.641,5087.179,4995.255999999999,5111.667,0,0
238,0,0,3054,5056.282,4582.692,5094.872,5045.641,5082.9490000000005,5101.667,5062.308,5059.103,5032.179,4994.615,5218.718,5078.333,4984.231,5097.9490000000005,0,0
239,1,0,2805,5040.641,4563.333,5079.231,5021.282,5062.564,5088.462,5050.0,5053.718,5024.487,4981.923,5200.513,5058.205,4969.744000000001,5086.026,0,0
240,2,0,3348,5042.436,4558.333,5075.255999999999,5003.846,5028.59,5087.564,5052.179,5056.154,5022.692,4977.436,5189.615,5054.231,4959.359,5086.026,0,0
241,3,0,3434,5050.513,4576.41,5076.026,5003.718,5036.795,5092.564,5055.255999999999,5061.154,5026.923,4984.103,5191.667,5059.359,4957.692,5089.487,0,0
242,4,0,3444,5032.821,4575.641,5051.282,4973.205,5035.641,5076.667,5031.923,5051.41,5015.641,4971.538,5181.154,5038.59,4948.077,5075.255999999999,0,0
243,5,0,2979,5001.282,4536.667,5020.641,4932.0509999999995,4990.513,5058.846,5008.077,5034.487,4996.667,4946.154,5148.205,5008.205,4932.821,5047.821,0,0
244,6,0,2932,4997.9490000000005,4517.692,5022.821,4935.641,4972.821,5064.744000000001,5008.59,5037.692,5003.462,4951.538,5132.179,5004.359,4937.436,5040.769,0,0
245,7,0,3385,5014.103,4528.333,5036.026,4947.692,4990.255999999999,5071.538,5011.667,5052.564,5023.846,4976.795,5148.846,5014.103,4957.692,5056.282,0,0
246,8,0,2832,4996.795,4507.179,5008.59,4912.308,4970.769,5050.641,4988.59,5030.128,5005.769,4958.974,5138.462,4988.462,4945.0,5039.744000000001,0,0
247,9,0,3528,4965.897,4482.564,4979.487,4884.359,4937.9490000000005,5029.744000000001,4967.564,4996.667,4972.0509999999995,4922.692,5095.513,4956.41,4910.769,5003.846,0,0
248,10,0,3339,4965.513,4487.436,4985.897,4894.744000000001,4928.846,5027.692,4968.846,4996.667,4972.564,4922.9490000000005,5083.462,4954.615,4904.359,5003.077,0,0
249,11,0,3330,4965.255999999999,4490.513,4982.308,4886.026,4911.154,5024.872,4968.59,4998.462,4976.282,4925.255999999999,5088.974,4952.179,4908.59,5007.308,0,0
250,12,0,2919,4944.744000000001,4479.359,4960.128,4862.9490000000005,4880.641,5018.462,4956.282,4984.615,4961.41,4905.0,5070.513,4936.795,4896.282,4988.333,0,0
251,13,0,3061,4933.205,4471.41,4948.974,4851.154,4870.769,5016.282,4945.0,4981.667,4959.744000000001,4903.462,5057.308,4929.103,4889.231,4983.846,0,0
252,14,0,3339,4931.154,4468.333,4942.692,4832.436,4869.872,5013.718,4942.692,4981.282,4966.923,4913.974,5057.179,4923.718,4887.564,4991.154,0,0
253,15,0,3330,4922.9490000000005,4463.974,4937.0509999999995,4820.385,4850.641,5004.872,4941.026,4969.359,4957.692,4902.179,5046.282,4917.9490000000005,4882.436,4976.923,0,0
254,16,0,0,4908.077,4450.255999999999,4935.513,4819.103,4809.872,4987.436,4927.9490000000005,4949.744000000001,4935.385,4875.128,5019.744000000001,4917.308,4870.897,4953.333,0,0
255,17,0,0,4889.231,4412.9490000000005,4921.923,4800.897,4767.821,4958.59,4905.255999999999,4926.667,4909.744000000001,4847.308,4989.615,4905.128,4844.872,4936.026,0,0
256,18,0,0,4887.821,4389.359,4917.9490000000005,4787.821,4763.333,4949.615,4901.923,4928.077,4909.359,4844.231,4987.9490000000005,4900.385,4833.846,4937.179,0,0
257,19,0,0,4885.0,4388.846,4914.615,4785.769,4763.077,4960.897,4903.59,4938.718,4926.154,4857.0509999999995,4995.385,4897.436,4840.897,4937.9490000000005,0,0
258,20,0,0,4854.744000000001,4368.333,4880.641,4763.462,4725.128,4945.255999999999,4880.897,4916.795,4909.359,4836.538,4964.872,4866.667,4821.538,4907.821,0,0
259,21,0,0,4840.385,4344.615,4868.333,4745.897,4696.41,4919.744000000001,4873.846,4890.641,4881.026,4803.462,4930.385,4854.359,4792.692,4882.0509999999995,0,0
260,22,0,0,4859.744000000001,4343.462,4902.9490000000005,4751.667,4698.462,4925.769,4894.103,4894.872,4887.436,4808.205,4937.821,4880.0,4797.308,4892.564,0,0
261,23,0,0,4863.077,4334.231,4914.231,4748.462,4693.718,4929.744000000001,4892.308,4896.41,4897.564,4817.436,4945.385,4888.846,4797.692,4900.641,0,0
262,24,0,0,4845.385,4308.846,4891.538,4732.564,4681.795,4911.41,4867.0509999999995,4876.667,4881.923,4799.103,4929.744000000001,4873.846,4771.026,4886.282,0,0
263,25,0,0,4836.026,4283.846,4882.821,4723.333,4671.538,4900.897,4854.359,4859.744000000001,4862.564,4786.154,4918.205,4863.846,4756.538,4873.333,0,0
264,26,0,0,4840.897,4264.615,4886.026,4721.026,4664.359,4899.744000000001,4854.872,4857.308,4859.103,4787.821,4915.255999999999,4861.41,4762.179,4870.769,0,0
265,27,0,0,4846.538,4262.0509999999995,4885.385,4717.179,4676.923,4897.821,4855.385,4861.026,4865.0,4790.513,4909.231,4861.41,4762.308,4870.385,0,0
266,28,0,0,4830.897,4259.487,4872.821,4702.692,4673.718,4888.205,4845.255999999999,4846.41,4851.538,4778.974,4886.923,4848.718,4739.872,4853.718,0,0
267,29,0,0,4805.641,4236.154,4856.667,4680.641,4636.795,4865.385,4822.564,4826.538,4828.077,4758.205,4867.308,4827.436,4719.487,4829.103,0,0
268,30,0,0,4807.0509999999995,4221.282,4854.231,4672.564,4626.667,4849.487,4807.9490000000005,4825.769,4826.41,4751.667,4870.897,4823.462,4724.615,4826.923,0,0
269,31,0,0,4824.744000000001,4233.846,4863.077,4680.769,4650.385,4862.564,4812.564,4835.0,4836.41,4764.359,4873.59,4833.718,4733.59,4839.231,0,0
270,32,0,0,4816.667,4234.359,4860.255999999999,4672.179,4644.744000000001,4867.821,4809.615,4830.769,4829.103,4763.462,4858.846,4832.308,4715.641,4833.974,0,0
271,33,0,0,4793.462,4214.487,4843.333,4646.282,4620.897,4845.0,4793.59,4815.641,4811.923,4741.923,4852.564,4817.9490000000005,4695.769,4821.026,0,0
272,34,0,0,4797.692,4213.205,4842.9490000000005,4641.795,4632.9490000000005,4841.923,4795.255999999999,4814.615,4813.077,4741.154,4862.0509999999995,4815.769,4712.0509999999995,4830.641,0,0
273,35,0,0,4800.897,4218.846,4847.9490000000005,4640.385,4634.872,4848.333,4799.359,4814.615,4815.0,4748.077,4852.179,4817.308,4717.9490000000005,4830.0,0,0
274,36,0,0,4787.179,4214.103,4839.103,4622.821,4607.821,4838.59,4794.359,4806.538,4806.026,4742.308,4834.744000000001,4808.077,4696.026,4812.9490000000005,0,0
275,37,0,0,4808.462,4221.923,4847.821,4624.615,4621.795,4848.846,4809.231,4821.282,4817.692,4756.026,4851.282,4817.9490000000005,4703.205,4830.769,0,0
276,38,0,0,4834.487,4229.744000000001,4860.769,4628.59,4649.744000000001,4859.487,4821.667,4833.974,4829.744000000001,4769.487,4861.538,4831.923,4717.9490000000005,4847.692,0,0
277,39,0,0,4806.923,4217.308,4840.769,4602.564,4627.0509999999995,4836.41,4804.744000000001,4809.103,4807.308,4747.0509999999995,4837.308,4812.436,4694.487,4823.974,0,0
278,40,0,0,4776.667,4197.436,4821.026,4577.0509999999995,4602.179,4818.333,4788.59,4788.462,4789.359,4725.0,4820.0,4791.282,4672.0509999999995,4804.872,0,0
279,41,0,0,4784.487,4187.9490000000005,4828.077,4575.128,4618.718,4826.923,4791.41,4799.359,4799.103,4729.872,4822.179,4795.897,4676.795,4808.462,0,0
280,42,0,0,4783.846,4187.564,4827.0509999999995,4567.9490000000005,4621.282,4828.846,4790.0,4799.615,4796.795,4727.436,4811.923,4792.436,4676.282,4797.821,0,0
281,43,0,0,4774.872,4193.462,4818.718,4558.205,4606.667,4826.538,4791.795,4792.0509999999995,4794.231,4726.154,4800.385,4784.103,4672.692,4787.821,0,0
282,44,0,0,4792.0509999999995,4212.564,4828.59,4569.615,4626.154,4836.154,4809.872,4811.667,4815.385,4750.769,4819.615,4796.923,4688.205,4806.282,0,0
283,45,0,0,4801.667,4219.103,4834.359,4571.282,4638.718,4836.154,4812.308,4820.255999999999,4816.795,4758.205,4830.0,4803.718,4695.513,4813.205,0,0
284,46,0,0,4788.077,4201.667,4822.308,4553.077,4615.385,4821.923,4793.718,4798.718,4794.231,4737.179,4811.282,4790.641,4677.436,4799.615,0,0
285,47,0,0,4791.538,4205.769,4822.0509999999995,4555.641,4618.59,4820.128,4791.795,4794.487,4791.795,4739.615,4813.205,4798.333,4673.718,4808.333,0,0
286,48,0,0,4808.077,4228.077,4834.487,4571.154,4649.487,4833.846,4802.308,4808.333,4802.564,4759.744000000001,4837.9490000000005,4816.667,4688.333,4832.436,0,0
287,49,0,0,4790.0,4212.0509999999995,4823.333,4556.923,4639.615,4822.692,4789.615,4792.308,4792.436,4746.667,4821.923,4798.333,4669.615,4818.077,0,0
288,50,0,0,4752.821,4171.41,4792.436,4528.59,4601.41,4783.718,4768.59,4759.231,4766.282,4710.897,4776.667,4766.026,4625.769,4774.487,0,0
289,51,0,0,4760.897,4178.077,4798.846,4530.128,4600.769,4782.564,4785.769,4774.103,4772.179,4718.462,4786.154,4777.0509999999995,4638.205,4781.41,0,0
290,52,0,0,4787.821,4201.923,4822.308,4541.538,4619.872,4801.923,4804.231,4803.718,4793.462,4746.667,4817.692,4799.744000000001,4685.255999999999,4815.385,0,0
291,53,0,0,4782.436,4197.308,4815.255999999999,4537.436,4622.564,4788.462,4786.282,4787.821,4783.205,4742.436,4812.436,4793.462,4690.385,4813.205,0,0
292,54,0,0,4786.795,4208.077,4820.128,4543.974,4633.59,4780.385,4782.308,4782.179,4783.846,4753.846,4813.333,4802.821,4690.513,4810.769,0,0
293,55,0,0,4816.667,4238.462,4848.718,4563.59,4654.872,4800.641,4810.385,4815.128,4812.692,4785.897,4834.231,4830.385,4709.231,4833.462,0,0
294,56,0,0,4814.615,4236.282,4852.308,4567.436,4653.205,4804.487,4819.359,4820.128,4812.9490000000005,4773.718,4827.821,4832.179,4697.308,4833.462,0,0
295,57,0,0,4798.718,4223.59,4842.436,4563.846,4643.462,4790.0,4809.487,4800.769,4796.795,4753.718,4818.974,4822.9490000000005,4675.513,4821.41,0,0
296,58,0,0,4814.872,4242.179,4847.179,4571.795,4655.641,4796.923,4812.179,4809.103,4807.0509999999995,4782.436,4842.0509999999995,4830.641,4692.308,4840.128,0,0
297,59,0,0,4819.231,4245.0,4850.513,4571.923,4665.255999999999,4809.359,4817.179,4828.333,4824.231,4808.333,4852.821,4836.923,4710.769,4855.641,0,0
298,60,0,0,4799.744000000001,4226.923,4850.255999999999,4563.846,4659.231,4803.205,4818.077,4831.923,4828.205,4801.154,4845.0,4832.9490000000005,4702.9490000000005,4848.718,0,0
299,61,0,0,4796.538,4238.077,4849.359,4568.462,4654.359,4793.462,4808.333,4815.513,4814.744000000001,4785.255999999999,4839.872,4831.41,4689.487,4840.769,0,0
300,62,0,0,4802.9490000000005,4264.744000000001,4844.103,4575.255999999999,4658.462,4796.795,4788.59,4796.923,4795.897,4775.385,4828.077,4826.41,4679.872,4836.154,0,0
301,63,0,0,4801.667,4265.513,4842.821,4573.59,4665.769,4801.026,4783.718,4802.564,4802.564,4777.308,4818.59,4816.41,4676.538,4830.641,0,0
302,64,0,3091,4797.179,4248.077,4832.0509999999995,4568.205,4663.974,4791.282,4782.821,4804.487,4807.179,4772.179,4812.308,4801.282,4677.179,4820.0,0,0
303,65,0,2858,4796.667,4254.744000000001,4817.436,4571.923,4661.41,4800.128,4778.462,4787.564,4795.897,4767.692,4800.255999999999,4793.333,4685.385,4815.513,0,0
304,66,0,3395,4793.718,4272.436,4815.255999999999,4575.897,4667.821,4815.0,4781.154,4779.359,4794.359,4777.308,4794.872,4795.255999999999,4685.0,4816.538,0,0
305,67,0,3475,4780.641,4264.359,4813.333,4563.462,4661.154,4799.615,4783.974,4780.128,4788.718,4765.255999999999,4797.0509999999995,4789.359,4658.846,4809.103,0,0
306,68,0,3480,4765.897,4242.821,4805.255999999999,4549.744000000001,4643.846,4784.487,4775.641,4773.59,4775.255999999999,4738.718,4799.359,4779.487,4639.231,4800.513,0,0
307,69,0,3004,4765.128,4246.795,4802.821,4554.103,4652.821,4791.538,4768.718,4770.513,4776.282,4743.205,4806.538,4780.128,4648.718,4802.692,0,0
308,70,0,2958,4770.385,4262.692,4803.846,4562.0509999999995,4671.026,4794.359,4771.282,4778.333,4786.154,4761.154,4816.154,4785.385,4654.103,4807.692,0,0
309,71,0,3410,4752.821,4252.179,4793.333,4551.667,4651.154,4781.795,4762.9490000000005,4774.231,4777.821,4748.846,4812.564,4774.231,4631.41,4793.59,0,0
310,72,0,2860,4736.026,4236.41,4785.255999999999,4546.282,4632.308,4777.308,4749.872,4762.179,4768.974,4736.154,4807.179,4767.0509999999995,4623.59,4780.897,0,0
311,73,0,3551,4749.359,4252.179,4797.179,4562.564,4653.462,4782.9490000000005,4757.179,4773.59,4784.615,4756.41,4820.0,4783.333,4651.795,4801.667,0,0
312,74,0,3363,4755.897,4273.846,4802.436,4564.487,4664.231,4772.308,4765.769,4783.974,4795.641,4768.205,4825.897,4787.821,4663.205,4813.59,0,0
313,75,0,3359,4733.333,4261.538,4784.103,4544.359,4641.667,4754.615,4757.692,4758.718,4774.872,4736.41,4804.103,4765.769,4637.0509999999995,4782.308,0,0
314,76,0,2943,4716.795,4242.308,4770.255999999999,4532.436,4625.769,4754.487,4751.154,4736.154,4752.692,4707.0509999999995,4778.333,4745.385,4618.718,4757.692,0,0
315,77,0,3086,4709.231,4241.538,4761.282,4523.077,4627.179,4758.333,4748.333,4733.974,4747.9490000000005,4703.59,4762.821,4728.462,4615.128,4758.205,0,0
316,78,0,3363,4703.974,4249.487,4751.282,4518.974,4622.692,4753.205,4749.744000000001,4733.333,4745.641,4699.359,4757.564,4720.255999999999,4608.333,4755.641,0,0
317,79,0,3359,4723.333,4264.744000000001,4780.128,4551.795,4627.0509999999995,4767.9490000000005,4770.255999999999,4747.9490000000005,4752.564,4708.077,4774.744000000001,4749.359,4618.077,4769.231,0,0
318,80,0,2943,4723.462,4262.0509999999995,4798.59,4559.359,4638.59,4773.846,4765.0,4740.128,4745.897,4707.564,4772.436,4762.0509999999995,4610.128,4769.103,0,0
319,81,0,3086,4702.564,4256.538,4777.564,4527.564,4646.923,4756.795,4741.026,4716.026,4727.692,4690.128,4749.103,4742.821,4585.128,4746.795,0,0
320,82,0,3363,4722.179,4282.564,4788.205,4544.487,4654.615,4772.9490000000005,4761.41,4744.744000000001,4747.9490000000005,4707.9490000000005,4768.205,4758.333,4610.641,4765.513,0,0
321,83,0,3359,4758.846,4312.436,4825.128,4587.436,4661.795,4805.513,4795.513,4793.462,4784.359,4748.59,4805.769,4792.9490000000005,4653.077,4804.487,0,0
322,84,0,2943,4763.077,4321.923,4826.41,4583.718,4675.0,4802.436,4787.308,4792.821,4787.179,4758.333,4804.615,4793.077,4649.872,4807.692,0,0
323,85,0,3086,4736.154,4312.0509999999995,4796.923,4555.385,4670.385,4777.564,4757.692,4756.795,4761.026,4728.333,4772.821,4763.077,4623.077,4780.255999999999,0,0
324,86,0,3363,4716.026,4299.359,4783.205,4550.0,4655.128,4769.744000000001,4750.255999999999,4741.923,4751.923,4711.282,4756.154,4746.538,4623.077,4762.9490000000005,0,0
325,87,0,3359,4733.205,4315.769,4797.692,4567.9490000000005,4669.487,4786.282,4763.077,4767.308,4773.974,4734.103,4772.821,4759.744000000001,4648.333,4775.641,0,0
326,88,0,2943,4757.179,4343.333,4818.846,4585.513,4694.615,4802.308,4775.769,4792.564,4794.487,4756.795,4787.308,4776.154,4665.513,4791.923,0,0
327,89,0,3086,4739.615,4337.0509999999995,4810.255999999999,4577.564,4689.487,4796.026,4771.154,4774.744000000001,4782.308,4740.385,4768.077,4763.333,4653.077,4773.846,0,0
328,90,0,3363,4713.333,4316.923,4787.179,4558.718,4670.128,4777.564,4751.282,4742.692,4758.205,4713.077,4746.026,4739.615,4632.0509999999995,4746.538,0,0
329,91,0,3359,4728.974,4330.641,4802.179,4572.308,4677.821,4779.872,4754.231,4754.103,4767.179,4726.154,4757.564,4755.128,4644.359,4763.205,0,0
330,92,0,2943,4751.026,4353.718,4833.462,4596.41,4692.9490000000005,4796.795,4777.692,4779.744000000001,4785.0,4747.436,4776.538,4784.744000000001,4667.308,4792.0509999999995,0,0
331,93,0,3086,4748.077,4350.255999999999,4832.821,4594.487,4689.103,4800.641,4778.077,4775.641,4776.667,4740.0,4778.974,4782.821,4659.744000000001,4791.795,0,0
332,94,0,3363,4730.897,4335.0,4809.231,4577.0509999999995,4672.436,4782.821,4752.564,4756.667,4761.41,4723.846,4764.744000000001,4764.744000000001,4636.41,4774.231,0,0
333,95,0,3359,4731.667,4347.9490000000005,4815.385,4577.9490000000005,4676.538,4778.718,4753.974,4766.923,4772.179,4737.9490000000005,4763.333,4775.255999999999,4645.769,4779.103,0,0
334,96,0,2943,4743.846,4370.385,4833.205,4588.077,4687.436,4795.385,4769.103,4785.0,4785.769,4757.9490000000005,4775.255999999999,4791.923,4667.0509999999995,4793.718,0,0
335,97,0,3086,4733.59,4365.128,4819.487,4585.641,4672.179,4795.513,4759.231,4771.026,4775.128,4745.769,4766.923,4775.769,4655.513,4783.718,0,0
336,98,0,3363,4722.821,4362.564,4807.9490000000005,4585.128,4678.846,4786.026,4756.154,4760.641,4773.718,4742.179,4757.692,4763.333,4647.9490000000005,4776.538,0,0
337,99,0,3359,4728.718,4376.538,4813.333,4588.205,4708.462,4784.744000000001,4769.359,4770.769,4780.513,4754.487,4765.897,4768.077,4661.154,4783.59,0,0
338,100,0,2943,4726.667,4373.333,4802.821,4582.436,4696.154,4780.128,4758.974,4765.897,4768.462,4744.103,4761.667,4761.154,4657.0509999999995,4776.282,0,0
339,101,0,3086,4717.564,4368.205,4793.59,4580.255999999999,4675.897,4775.128,4740.255999999999,4755.128,4757.179,4731.41,4751.795,4753.718,4641.026,4766.538,0,0
340,102,0,3363,4720.255999999999,4383.718,4810.128,4587.9490000000005,4695.0,4781.41,4748.462,4762.821,4766.538,4746.41,4760.769,4763.846,4645.0,4777.692,0,0
341,103,0,3359,4723.462,4389.744000000001,4816.026,4588.718,4701.795,4781.538,4752.564,4764.615,4768.333,4754.359,4766.41,4769.103,4649.615,4782.821,0,0
342,104,0,2943,4718.718,4380.128,4802.564,4585.0,4684.487,4773.205,4739.103,4750.0,4754.615,4735.897,4753.462,4760.128,4636.795,4770.0,0,0
343,105,0,3086,4713.718,4378.846,4792.564,4582.9490000000005,4683.974,4767.436,4735.897,4739.103,4748.846,4722.308,4741.795,4750.897,4624.744000000001,4761.154,0,0
344,106,0,3363,4700.0,4378.205,4784.103,4575.0,4685.128,4760.513,4736.667,4731.667,4742.9490000000005,4716.282,4738.59,4737.821,4616.667,4753.59,0,0
345,107,0,3359,4690.769,4373.333,4777.0509999999995,4569.487,4681.667,4764.487,4735.385,4729.487,4738.333,4712.308,4736.667,4731.154,4613.974,4745.769,0,0
346,108,0,2943,4692.692,4381.667,4771.923,4571.282,4686.41,4765.513,4734.744000000001,4732.0509999999995,4742.821,4715.641,4726.538,4736.41,4618.077,4746.923,0,0
347,109,0,3086,4691.795,4395.641,4764.359,4570.128,4685.255999999999,4752.436,4730.0,4728.846,4744.487,4714.231,4719.231,4730.513,4618.333,4750.385,0,0
348,110,0,3363,4684.103,4393.205,4759.487,4562.821,4669.359,4753.205,4727.179,4721.667,4739.359,4704.872,4724.744000000001,4717.564,4612.564,4744.872,0,0
349,111,0,3359,4681.41,4389.744000000001,4766.923,4568.846,4662.436,4765.641,4735.897,4724.487,4740.255999999999,4702.9490000000005,4734.615,4723.59,4617.564,4745.0,0,0
350,112,0,2943,4683.205,4391.154,4769.103,4578.462,4669.487,4749.872,4734.744000000001,4725.897,4740.513,4710.513,4732.564,4732.564,4621.667,4751.41,0,0
351,113,0,3086,4687.821,4394.103,4762.9490000000005,4574.231,4677.436,4730.769,4725.641,4721.41,4733.077,4722.308,4728.462,4731.154,4620.128,4753.974,0,0
352,114,0,3363,4702.821,4411.41,4774.359,4576.923,4690.385,4747.0509999999995,4739.231,4735.897,4742.9490000000005,4741.667,4742.692,4743.846,4636.923,4765.128,0,0
353,115,0,3359,4703.333,4420.385,4783.59,4582.436,4689.615,4748.718,4743.846,4746.923,4755.641,4747.308,4749.744000000001,4751.795,4645.641,4770.385,0,0
354,116,0,2943,4677.9490000000005,4399.615,4766.41,4571.795,4665.769,4726.923,4715.769,4725.0,4740.255999999999,4725.897,4728.333,4732.308,4622.692,4746.538,0,0
355,117,0,3086,4670.0,4392.692,4759.487,4567.692,4656.795,4730.769,4703.205,4709.615,4725.769,4711.538,4714.487,4723.974,4610.897,4733.462,0,0
356,118,0,3363,4693.333,4421.282,4783.846,4586.923,4679.103,4749.487,4725.641,4729.231,4740.641,4720.897,4731.282,4744.359,4626.41,4756.667,0,0
357,119,0,3359,4707.9490000000005,4436.667,4800.385,4601.282,4695.897,4758.59,4737.821,4742.564,4754.231,4730.128,4745.385,4756.795,4635.255999999999,4772.692,0,0
358,120,0,2943,4702.308,4430.0,4797.179,4601.154,4694.744000000001,4764.359,4732.0509999999995,4734.231,4746.923,4727.821,4741.795,4752.436,4630.769,4769.872,0,0
359,121,0,3086,4696.538,4429.103,4791.538,4595.769,4694.231,4761.282,4729.615,4732.308,4742.179,4724.872,4734.359,4747.0509999999995,4629.487,4766.154,0,0
360,122,0,3363,4688.077,4427.0509999999995,4786.41,4586.538,4690.255999999999,4746.41,4722.692,4732.436,4742.179,4722.0509999999995,4725.255999999999,4741.154,4628.974,4757.692,0,0
361,123,0,3359,4693.462,4433.077,4791.41,4593.333,4693.718,4746.154,4723.59,4736.667,4744.744000000001,4728.077,4731.795,4747.821,4632.308,4762.436,0,0
362,124,0,2943,4698.333,4439.744000000001,4792.436,4601.667,4695.513,4748.59,4723.59,4736.41,4741.282,4730.641,4738.333,4751.026,4625.128,4767.308,0,0
363,125,0,3086,4672.0509999999995,4423.077,4772.821,4586.667,4678.333,4733.077,4707.179,4715.255999999999,4722.436,4709.872,4714.615,4730.897,4598.333,4743.205,0,0
364,126,0,3363,4661.026,4415.513,4767.436,4577.436,4672.436,4730.769,4713.718,4706.538,4714.103,4701.41,4700.513,4724.103,4588.205,4732.308,0,0
365,127,0,52,4683.718,4433.59,4787.692,4591.154,4688.462,4746.923,4741.795,4730.897,4728.077,4718.205,4715.128,4743.846,4607.9490000000005,4750.513,0,0
366,0,0,3093,4689.872,4441.795,4796.538,4598.462,4691.923,4752.308,4739.615,4749.359,4740.641,4725.0,4720.769,4749.872,4629.231,4752.0509999999995,0,0
367,1,0,2855,4690.0,4449.231,4795.513,4601.667,4692.0509999999995,4757.179,4727.179,4752.308,4750.0,4734.872,4723.718,4748.333,4645.128,4752.436,0,0
368,2,0,3400,4703.077,4469.103,4797.564,4612.692,4704.231,4766.795,4732.9490000000005,4758.59,4756.154,4751.026,4735.0,4753.59,4649.231,4767.308,0,0
369,3,0,3450,4690.769,4466.026,4786.282,4608.462,4696.923,4753.077,4722.179,4740.769,4738.077,4730.513,4721.795,4740.897,4629.872,4756.923,0,0
370,4,0,3478,4674.103,4451.923,4774.744000000001,4594.872,4687.564,4734.359,4702.692,4714.103,4720.641,4703.333,4701.154,4725.385,4612.692,4740.255999999999,0,0
371,5,0,3005,4695.255999999999,4472.0509999999995,4787.179,4606.282,4706.026,4752.179,4715.385,4730.769,4738.333,4720.255999999999,4716.41,4742.564,4620.0,4756.154,0,0
372,6,0,2964,4718.718,4505.385,4807.436,4633.974,4727.0509999999995,4774.231,4744.615,4757.179,4757.179,4746.026,4739.872,4766.026,4635.0,4778.846,0,0
373,7,0,3415,4711.282,4503.205,4806.538,4636.026,4724.231,4754.359,4736.41,4740.385,4744.872,4742.179,4735.385,4759.615,4632.436,4772.821,0,0
374,8,0,2859,4683.462,4474.487,4781.154,4610.385,4697.564,4723.077,4695.641,4706.795,4720.128,4718.718,4709.615,4735.255999999999,4606.667,4744.487,0,0
375,9,0,3553,4666.667,4468.462,4765.897,4595.769,4677.308,4727.564,4702.436,4706.41,4716.026,4705.385,4696.282,4728.077,4589.615,4732.0509999999995,0,0
376,10,0,3373,4686.667,4494.231,4788.846,4611.795,4700.769,4758.59,4763.718,4733.462,4737.692,4731.667,4722.436,4748.59,4616.282,4759.231,0,0
377,11,0,3363,4703.077,4500.513,4802.436,4626.282,4727.308,4766.282,4780.128,4745.255999999999,4751.41,4757.436,4741.154,4760.255999999999,4641.538,4777.436,0,0
378,12,0,2950,4676.923,4472.692,4780.128,4612.436,4706.923,4748.718,4743.205,4733.077,4741.41,4736.538,4713.333,4741.282,4626.795,4748.718,0,0
379,13,0,3092,4662.9490000000005,4471.795,4775.769,4606.795,4697.308,4749.872,4742.821,4736.026,4738.077,4725.641,4700.769,4733.718,4626.538,4734.744000000001,0,0
380,14,0,3373,4671.154,4490.385,4783.205,4613.333,4711.795,4759.487,4757.9490000000005,4741.538,4740.513,4736.026,4717.0509999999995,4742.308,4637.0509999999995,4748.846,0,0
381,15,0,3363,4657.692,4478.462,4762.179,4601.923,4698.333,4745.897,4736.923,4720.641,4726.154,4717.308,4705.769,4730.385,4615.769,4739.487,0,0
382,16,0,0,4649.487,4473.205,4754.359,4601.795,4688.59,4731.795,4732.0509999999995,4721.41,4725.0,4704.615,4691.795,4720.255999999999,4604.103,4727.692,0,0
383,17,0,0,4662.9490000000005,4489.744000000001,4769.103,4620.769,4702.564,4737.821,4748.462,4740.513,4742.0509999999995,4721.154,4707.436,4730.128,4618.846,4740.255999999999,0,0
384,18,0,0,4653.333,4474.103,4754.872,4614.487,4688.718,4731.538,4739.615,4721.282,4732.0509999999995,4707.821,4707.692,4720.385,4610.897,4734.487,0,0
385,19,0,0,4634.487,4455.641,4735.385,4599.744000000001,4669.872,4714.487,4728.59,4703.59,4717.308,4680.0,4695.0,4701.795,4596.282,4715.641,0,0
386,20,0,0,4645.897,4481.538,4746.154,4613.846,4689.615,4725.897,4741.282,4729.872,4737.0509999999995,4697.9490000000005,4709.615,4713.846,4607.9490000000005,4725.513,0,0
387,21,0,0,4654.103,4495.769,4755.385,4622.821,4702.308,4746.795,4758.333,4744.487,4750.897,4718.077,4722.564,4724.615,4613.59,4736.282,0,0
388,22,0,0,4640.513,4478.846,4747.821,4611.154,4691.667,4733.974,4768.846,4718.462,4728.333,4700.513,4710.0,4708.974,4602.9490000000005,4723.077,0,0
389,23,0,0,4628.59,4474.872,4737.9490000000005,4606.154,4686.41,4706.282,4762.564,4698.718,4711.026,4677.821,4698.077,4696.923,4594.487,4706.154,0,0
390,24,0,0,4615.128,4469.872,4724.615,4599.359,4669.487,4699.744000000001,4733.333,4692.0509999999995,4706.41,4665.897,4690.385,4690.897,4584.103,4693.974,0,0
391,25,0,0,4613.077,4464.487,4724.103,4597.0509999999995,4657.179,4706.538,4723.333,4689.872,4704.615,4662.564,4686.538,4689.359,4581.667,4694.231,0,0
392,26,0,0,4633.205,4480.897,4744.615,4610.0,4669.744000000001,4708.205,4736.41,4698.205,4713.718,4671.795,4692.821,4702.436,4595.897,4707.564,0,0
393,27,0,0,4639.744000000001,4497.564,4750.0,4614.359,4672.308,4704.487,4731.795,4698.846,4717.692,4681.026,4694.231,4711.538,4602.9490000000005,4711.923,0,0
394,28,0,0,4618.59,4488.974,4730.255999999999,4602.179,4655.255999999999,4703.462,4719.231,4683.718,4704.744000000001,4669.615,4681.41,4699.231,4587.9490000000005,4698.077,0,0
395,29,0,0,4608.077,4474.103,4721.41,4596.923,4655.641,4706.026,4718.718,4671.154,4693.077,4651.538,4670.0,4686.154,4575.641,4682.9490000000005,0,0
396,30,0,0,4619.231,4480.255999999999,4733.59,4601.538,4673.077,4700.0,4723.462,4673.462,4698.205,4652.564,4670.385,4691.282,4581.667,4684.487,0,0
397,31,0,0,4619.744000000001,4492.0509999999995,4737.692,4599.103,4670.0,4696.923,4721.923,4678.59,4708.077,4665.513,4675.769,4699.231,4587.692,4692.0509999999995,0,0
398,32,0,0,4605.897,4482.821,4716.41,4583.333,4647.564,4698.846,4708.462,4673.718,4702.308,4664.231,4671.282,4686.026,4581.41,4684.103,0,0
399,33,0,0,4597.692,4468.846,4691.538,4568.462,4645.128,4676.154,4692.9490000000005,4659.744000000001,4682.436,4645.128,4653.846,4659.744000000001,4571.026,4668.205,0,0
400,34,0,0,4595.769,4479.744000000001,4690.641,4572.436,4659.744000000001,4656.795,4690.513,4656.538,4676.282,4642.179,4650.769,4653.333,4566.923,4668.846,0,0
401,35,0,0,4601.41,4505.641,4706.026,4588.974,4660.897,4685.0,4701.795,4675.0,4692.0509999999995,4667.436,4671.538,4671.41,4579.872,4685.897,0,0
402,36,0,0,4606.282,4510.641,4702.0509999999995,4587.179,4654.103,4703.333,4706.923,4679.487,4693.974,4676.41,4674.744000000001,4676.41,4590.769,4692.821,0,0
403,37,0,0,4594.744000000001,4493.462,4678.59,4567.179,4648.846,4667.436,4694.744000000001,4657.436,4674.359,4648.333,4649.103,4654.487,4571.923,4677.821,0,0
404,38,0,0,4590.0,4491.154,4678.462,4566.282,4649.103,4653.974,4685.0,4650.385,4669.615,4639.744000000001,4641.795,4647.308,4556.923,4671.154,0,0
405,39,0,0,4619.872,4515.769,4709.744000000001,4593.077,4666.026,4687.308,4695.769,4674.359,4695.385,4676.282,4669.487,4680.385,4587.0509999999995,4698.974,0,0
406,40,0,0,4634.103,4525.641,4718.846,4600.769,4668.846,4688.59,4694.231,4681.41,4705.0,4687.564,4680.641,4694.615,4604.872,4713.718,0,0
407,41,0,0,4608.462,4515.513,4697.692,4582.692,4650.641,4660.128,4670.385,4657.179,4681.538,4654.872,4659.359,4667.821,4575.385,4691.667,0,0
408,42,0,0,4603.59,4518.718,4695.513,4584.615,4648.846,4663.59,4670.769,4653.59,4674.103,4652.0509999999995,4654.872,4660.128,4571.667,4684.359,0,0
409,43,0,0,4619.615,4529.487,4710.128,4600.128,4664.103,4685.897,4688.59,4674.744000000001,4692.9490000000005,4675.897,4672.692,4680.385,4608.462,4699.359,0,0
410,44,0,0,4611.667,4527.179,4701.282,4592.308,4665.128,4683.205,4678.205,4674.359,4692.9490000000005,4664.103,4666.282,4675.897,4608.59,4689.231,0,0
411,45,0,0,4593.846,4516.282,4685.0,4579.487,4651.282,4670.255999999999,4662.179,4654.231,4673.974,4638.077,4636.923,4652.0509999999995,4572.821,4662.692,0,0
412,46,0,0,4597.179,4516.538,4691.026,4586.154,4646.795,4673.59,4677.0509999999995,4652.308,4669.359,4648.333,4633.333,4650.897,4569.872,4662.0509999999995,0,0
413,47,0,0,4602.564,4530.385,4691.41,4590.385,4660.897,4677.821,4684.872,4664.872,4681.795,4661.41,4648.846,4656.41,4588.974,4675.513,0,0
414,48,0,0,4593.205,4538.333,4675.385,4582.436,4666.923,4669.359,4676.923,4667.9490000000005,4693.205,4653.846,4646.795,4650.255999999999,4585.769,4675.897,0,0
415,49,0,0,4586.026,4525.385,4676.154,4582.0509999999995,4649.615,4662.564,4718.59,4656.538,4681.026,4646.538,4631.795,4646.282,4570.641,4665.897,0,0
416,50,0,0,4582.436,4509.103,4689.615,4584.359,4636.667,4661.538,4782.308,4641.282,4659.103,4639.103,4622.0509999999995,4648.59,4566.795,4654.744000000001,0,0
417,51,0,0,4573.462,4506.026,4684.231,4574.615,4636.026,4654.615,4765.897,4633.974,4657.9490000000005,4632.308,4617.179,4645.255999999999,4560.769,4642.179,0,0
418,52,0,0,4562.821,4503.462,4669.103,4563.462,4629.487,4644.359,4697.179,4627.821,4658.205,4629.359,4610.385,4637.179,4539.231,4634.103,0,0
419,53,0,0,4565.897,4505.769,4675.255999999999,4572.564,4629.103,4648.974,4679.103,4628.718,4650.897,4628.974,4611.667,4642.564,4542.564,4636.538,0,0
420,54,0,0,4574.872,4519.744000000001,4689.103,4587.179,4644.103,4663.333,4696.282,4637.179,4657.179,4630.513,4618.205,4654.103,4571.282,4642.692,0,0
421,55,0,0,4573.077,4525.128,4685.385,4585.128,4646.667,4666.923,4684.103,4637.821,4664.487,4630.897,4617.436,4652.436,4571.923,4643.974,0,0
422,56,0,0,4570.128,4521.282,4678.846,4583.846,4624.103,4660.128,4660.385,4633.974,4657.436,4629.744000000001,4616.282,4646.41,4553.077,4644.615,0,0
423,57,0,0,4571.41,4521.538,4679.103,4587.821,4614.103,4653.718,4653.718,4633.718,4652.436,4626.41,4615.0,4646.538,4550.513,4646.41,0,0
424,58,0,0,4566.795,4514.487,4673.718,4580.385,4632.436,4648.718,4655.641,4628.462,4646.282,4618.077,4606.923,4638.718,4546.667,4637.308,0,0
425,59,0,0,4558.846,4505.0,4668.205,4570.513,4646.538,4650.128,4660.0,4624.231,4643.077,4610.255999999999,4600.255999999999,4630.385,4537.0509999999995,4629.487,0,0
426,60,0,0,4554.615,4509.103,4672.821,4571.282,4639.359,4654.744000000001,4661.026,4628.974,4649.231,4612.436,4602.9490000000005,4637.692,4538.462,4636.795,0,0
427,61,0,0,4553.333,4511.026,4676.282,4574.231,4629.231,4650.897,4654.103,4629.744000000001,4651.026,4616.282,4602.436,4643.59,4540.513,4642.692,0,0
428,62,0,0,4563.718,4512.436,4675.641,4578.333,4631.154,4646.923,4650.641,4629.872,4655.897,4618.462,4604.231,4641.795,4538.077,4644.103,0,0
429,63,0,0,4577.0509999999995,4521.282,4675.0,4582.179,4635.0,4652.821,4660.0,4632.692,4657.564,4609.744000000001,4605.641,4641.795,4538.718,4646.538,0,0
430,64,0,3101,4576.667,4527.308,4675.769,4581.795,4635.769,4661.667,4666.538,4635.128,4647.179,4606.282,4604.487,4644.487,4547.436,4643.59,0,0
431,65,0,2852,4565.0,4521.667,4675.897,4583.462,4629.359,4660.255999999999,4656.41,4639.744000000001,4647.308,4630.0,4607.821,4644.744000000001,4556.026,4632.821,0,0
432,66,0,3407,4557.308,4513.462,4668.333,4583.205,4621.282,4650.255999999999,4647.0509999999995,4636.538,4654.231,4645.897,4608.205,4639.615,4548.59,4630.385,0,0
433,67,0,3444,4557.9490000000005,4513.462,4662.692,4576.667,4618.59,4646.538,4651.667,4626.538,4643.974,4629.103,4603.59,4635.0,4536.154,4638.333,0,0
434,68,0,3471,4567.692,4521.41,4669.231,4579.872,4617.436,4648.462,4655.513,4625.128,4639.615,4625.769,4611.795,4640.641,4542.179,4646.795,0,0
435,69,0,3018,4581.538,4530.769,4675.255999999999,4589.231,4621.923,4649.615,4655.769,4629.359,4655.897,4648.205,4627.564,4649.872,4552.9490000000005,4654.359,0,0
436,70,0,2974,4584.359,4536.795,4675.385,4590.769,4640.513,4652.821,4661.154,4626.538,4652.692,4646.41,4630.0,4649.615,4553.846,4656.667,0,0
437,71,0,3430,4575.513,4539.103,4676.795,4588.205,4643.333,4652.564,4657.436,4621.026,4639.744000000001,4628.718,4628.077,4649.359,4550.641,4654.744000000001,0,0
438,72,0,2875,4569.487,4538.462,4674.744000000001,4590.897,4610.255999999999,4644.103,4647.0509999999995,4625.255999999999,4649.103,4634.744000000001,4632.436,4655.513,4545.255999999999,4652.0509999999995,0,0
439,73,0,3562,4579.231,4535.897,4672.0509999999995,4597.0509999999995,4602.564,4643.205,4654.615,4626.795,4654.872,4639.359,4628.462,4660.0,4544.615,4650.255999999999,0,0
440,74,0,3367,4579.872,4533.077,4675.641,4597.179,4627.564,4640.897,4660.641,4609.487,4636.282,4620.128,4618.462,4658.205,4536.667,4649.487,0,0
441,75,0,3369,4568.333,4544.231,4681.154,4599.103,4629.231,4632.308,4647.821,4593.077,4618.974,4607.821,4618.718,4655.897,4525.641,4653.59,0,0
442,76,0,2963,4575.513,4563.59,4682.821,4606.154,4620.385,4632.179,4637.9490000000005,4595.897,4616.538,4606.154,4618.59,4655.128,4525.255999999999,4660.641,0,0
443,77,0,3099,4569.872,4542.179,4660.513,4588.333,4605.128,4623.205,4624.872,4580.897,4608.462,4576.667,4586.41,4635.128,4504.359,4637.436,0,0
444,78,0,3367,4548.077,4515.0,4641.795,4564.231,4582.692,4611.154,4613.077,4562.564,4600.255999999999,4549.872,4555.897,4616.923,4485.897,4606.41,0,0
445,79,0,3369,4564.615,4547.308,4666.923,4581.667,4599.615,4623.974,4629.231,4586.41,4599.487,4561.795,4576.282,4636.154,4521.026,4625.769,0,0
446,80,0,2963,4579.487,4569.231,4676.41,4590.641,4613.974,4633.205,4638.59,4604.744000000001,4608.846,4577.436,4592.436,4645.255999999999,4550.769,4647.308,0,0
447,81,0,3099,4541.282,4532.308,4633.462,4551.282,4575.385,4612.0509999999995,4615.769,4584.872,4624.872,4573.077,4559.231,4611.538,4528.205,4617.821,0,0
448,82,0,3367,4513.846,4515.897,4607.564,4527.179,4563.077,4595.513,4599.615,4569.615,4605.385,4563.077,4529.487,4587.308,4513.718,4593.718,0,0
449,83,0,3369,4515.897,4529.872,4611.026,4528.205,4580.641,4590.641,4591.795,4561.282,4567.692,4546.923,4525.897,4588.205,4514.615,4599.103,0,0
450,84,0,2963,4493.462,4513.205,4591.667,4506.282,4552.0509999999995,4573.718,4573.718,4543.077,4567.308,4523.718,4511.667,4573.718,4495.897,4585.513,0,0
451,85,0,3099,4463.974,4487.692,4567.9490000000005,4483.59,4524.103,4556.667,4563.718,4533.205,4583.718,4508.333,4485.641,4551.795,4482.9490000000005,4558.846,0,0
452,86,0,3367,4463.205,4488.077,4571.282,4490.513,4539.872,4556.154,4569.231,4540.128,4573.974,4504.231,4475.513,4551.923,4491.026,4554.872,0,0
453,87,0,3369,4465.897,4476.667,4573.846,4488.974,4536.667,4556.667,4565.513,4535.897,4559.487,4498.462,4476.667,4553.974,4488.718,4555.0,0,0
454,88,0,2963,4455.128,4455.513,4566.795,4471.41,4516.795,4552.564,4555.385,4521.795,4569.103,4493.974,4470.897,4545.385,4470.897,4546.667,0,0
455,89,0,3099,4454.615,4465.897,4569.872,4469.487,4527.308,4561.41,4559.744000000001,4524.103,4570.641,4496.923,4469.487,4545.897,4471.667,4553.846,0,0
456,90,0,3367,4469.231,4487.436,4578.333,4480.385,4546.41,4574.103,4571.282,4540.0,4560.385,4504.487,4482.821,4558.205,4488.974,4569.231,0,0
457,91,0,3369,4472.821,4487.9490000000005,4573.462,4481.538,4540.641,4569.231,4573.846,4541.667,4564.231,4508.718,4482.821,4559.615,4490.513,4565.128,0,0
458,92,0,2963,4462.0509999999995,4479.744000000001,4562.179,4470.769,4525.769,4562.9490000000005,4566.795,4530.641,4568.59,4500.128,4472.564,4548.846,4480.128,4553.077,0,0
459,93,0,3099,4467.821,4489.359,4570.0,4474.359,4541.538,4574.103,4570.255999999999,4538.718,4566.026,4500.0,4488.077,4554.615,4492.692,4567.821,0,0
460,94,0,3367,4493.462,4517.179,4592.564,4498.077,4574.103,4587.564,4593.077,4570.128,4591.923,4530.897,4514.744000000001,4582.821,4527.821,4600.128,0,0
461,95,0,3369,4496.795,4524.615,4593.718,4508.846,4572.179,4581.538,4598.333,4577.821,4615.513,4546.154,4513.59,4591.795,4538.718,4603.462,0,0
462,96,0,2963,4464.231,4495.641,4564.103,4489.744000000001,4540.128,4562.821,4568.205,4545.385,4581.923,4513.59,4487.564,4558.333,4504.615,4567.692,0,0
463,97,0,3099,4450.769,4481.923,4551.667,4482.436,4536.41,4567.9490000000005,4558.718,4530.897,4557.564,4493.718,4472.436,4536.795,4483.205,4546.282,0,0
464,98,0,3367,4475.385,4504.103,4571.667,4500.0,4553.59,4589.231,4588.077,4554.744000000001,4580.0,4514.615,4489.615,4556.026,4507.179,4567.179,0,0
465,99,0,3369,4492.9490000000005,4523.077,4585.641,4510.255999999999,4556.923,4589.231,4603.333,4568.462,4593.974,4529.487,4518.462,4573.205,4525.769,4589.103,0,0
466,100,0,2963,4497.9490000000005,4532.179,4588.718,4514.487,4560.513,4584.231,4597.436,4566.795,4591.41,4526.026,4525.128,4575.128,4526.41,4590.769,0,0
467,101,0,3099,4505.385,4538.462,4596.667,4521.923,4559.231,4595.128,4600.128,4571.154,4592.821,4526.282,4524.872,4580.385,4531.282,4595.385,0,0
468,102,0,3367,4505.897,4541.538,4607.9490000000005,4530.641,4557.179,4604.231,4611.538,4575.385,4597.564,4536.795,4537.821,4592.0509999999995,4539.231,4609.359,0,0
469,103,0,3369,4516.41,4557.179,4619.744000000001,4544.359,4576.026,4602.436,4616.538,4579.744000000001,4607.308,4548.59,4553.974,4606.538,4547.821,4626.026,0,0
470,104,0,2963,4544.487,4572.821,4625.128,4554.872,4591.795,4603.462,4616.41,4588.974,4610.513,4548.333,4557.821,4612.692,4552.308,4636.154,0,0
471,105,0,3099,4557.436,4574.231,4621.41,4556.282,4594.487,4610.128,4621.282,4594.615,4602.692,4536.667,4550.255999999999,4607.179,4550.513,4635.255999999999,0,0
472,106,0,3367,4549.103,4568.974,4618.59,4552.821,4597.179,4610.128,4615.513,4582.179,4593.462,4523.462,4541.795,4600.0,4544.359,4624.615,0,0
473,107,0,3369,4534.872,4558.718,4616.026,4544.615,4583.974,4600.641,4598.462,4562.821,4583.333,4518.333,4530.128,4590.641,4533.718,4607.9490000000005,0,0
474,108,0,2963,4524.487,4552.692,4614.487,4534.615,4567.564,4602.821,4605.128,4574.103,4591.923,4529.872,4524.615,4587.0509999999995,4533.846,4601.41,0,0
475,109,0,3099,4521.41,4541.538,4611.282,4526.795,4572.692,4609.359,4614.359,4589.103,4603.718,4537.436,4519.872,4589.744000000001,4541.41,4598.846,0,0
476,110,0,3367,4513.846,4514.744000000001,4598.59,4515.897,4567.821,4591.282,4593.205,4567.9490000000005,4589.359,4522.9490000000005,4502.9490000000005,4579.615,4528.333,4583.205,0,0
477,111,0,3369,4516.154,4516.026,4600.641,4521.282,4564.231,4588.077,4595.769,4565.0,4587.9490000000005,4521.538,4505.385,4581.923,4523.333,4582.564,0,0
478,112,0,2963,4537.308,4545.128,4619.744000000001,4540.897,4587.0509999999995,4618.205,4631.538,4602.436,4613.205,4540.513,4533.974,4601.667,4549.872,4604.872,0,0
479,113,0,3099,4555.385,4559.359,4632.0509999999995,4553.462,4602.179,4637.179,4648.077,4622.436,4628.462,4563.718,4554.872,4611.538,4571.667,4625.128,0,0
480,114,0,3367,4561.795,4567.308,4637.692,4564.744000000001,4603.974,4633.205,4648.846,4619.744000000001,4632.692,4584.231,4562.308,4617.564,4569.744000000001,4636.154,0,0
481,115,0,3369,4561.026,4570.513,4640.255999999999,4571.282,4610.769,4627.9490000000005,4646.154,4618.077,4627.564,4579.744000000001,4563.974,4620.385,4555.641,4633.077,0,0
482,116,0,2963,4557.9490000000005,4561.538,4631.795,4564.487,4609.615,4621.41,4630.513,4607.179,4604.872,4558.333,4558.59,4609.615,4547.0509999999995,4622.564,0,0
483,117,0,3099,4558.333,4555.641,4621.026,4551.41,4588.205,4609.615,4616.026,4588.974,4599.487,4544.615,4552.9490000000005,4600.769,4546.154,4615.769,0,0
484,118,0,3367,4555.128,4548.205,4612.9490000000005,4542.308,4568.462,4603.59,4612.436,4576.026,4608.333,4541.795,4546.923,4600.769,4539.231,4608.077,0,0
485,119,0,3369,4542.821,4538.974,4608.462,4540.641,4575.385,4602.9490000000005,4614.103,4572.9490000000005,4595.255999999999,4547.9490000000005,4535.897,4596.923,4528.718,4603.59,0,0
486,120,0,2963,4529.359,4538.462,4602.0509999999995,4535.769,4582.692,4595.0,4612.436,4571.026,4577.821,4549.103,4526.154,4587.821,4526.667,4598.718,0,0
487,121,0,3099,4512.692,4526.795,4583.462,4516.795,4558.59,4579.744000000001,4602.308,4558.718,4576.282,4530.897,4514.231,4571.026,4511.923,4580.513,0,0
488,122,0,3367,4494.487,4505.769,4567.179,4496.795,4534.231,4573.59,4592.0509999999995,4535.513,4571.154,4516.154,4499.231,4554.359,4482.179,4562.436,0,0
489,123,0,3369,4489.231,4505.641,4567.308,4491.923,4538.846,4567.0509999999995,4587.692,4521.026,4556.282,4521.41,4490.897,4550.897,4477.436,4557.692,0,0
490,124,0,2963,4490.641,4510.513,4570.0,4491.795,4541.282,4553.718,4582.179,4528.846,4545.255999999999,4517.692,4487.0509999999995,4552.436,4491.667,4554.744000000001,0,0
491,125,0,3099,4489.487,4505.897,4569.615,4491.538,4538.462,4552.564,4578.077,4538.59,4553.077,4508.718,4488.59,4554.487,4492.9490000000005,4556.41,0,0
492,126,0,3367,4487.692,4508.077,4571.026,4490.641,4545.769,4554.359,4579.487,4535.769,4567.692,4513.59,4491.795,4556.282,4484.231,4558.462,0,0
493,127,0,52,4488.718,4514.615,4575.255999999999,4491.154,4543.974,4555.513,4583.077,4532.179,4556.538,4522.179,4490.128,4557.179,4486.154,4555.641,0,0
494,0,0,3122,4492.0509999999995,4521.41,4581.41,4502.436,4540.769,4565.128,4587.436,4534.872,4543.205,4521.154,4490.897,4564.872,4493.333,4562.821,0,0
495,1,0,2871,4493.974,4534.487,4587.179,4512.564,4553.846,4566.923,4590.0,4531.282,4549.872,4509.615,4500.897,4569.872,4492.692,4569.359,0,0
496,2,0,3429,4492.9490000000005,4537.179,4586.538,4511.154,4557.179,4555.513,4588.333,4522.692,4548.718,4502.0509999999995,4511.026,4561.41,4491.026,4564.487,0,0
497,3,0,3452,4490.897,4523.59,4581.026,4506.154,4544.103,4552.308,4589.231,4522.436,4540.0,4504.359,4501.538,4557.308,4490.897,4560.641,0,0
498,4,0,3488,4493.974,4528.333,4582.9490000000005,4507.9490000000005,4542.179,4556.923,4598.077,4535.513,4550.513,4512.308,4501.795,4567.692,4488.333,4571.282,0,0
499,5,0,3037,4495.897,4537.9490000000005,4588.718,4508.59,4533.718,4556.282,4605.769,4550.641,4568.205,4523.205,4520.128,4574.359,4494.359,4577.821,0,0
500,6,0,2989,4489.872,4525.385,4582.0509999999995,4503.333,4524.615,4549.744000000001,4603.718,4551.923,4567.0509999999995,4532.0509999999995,4515.641,4567.9490000000005,4508.718,4561.41,0,0
501,7,0,3426,4489.231,4524.103,4578.205,4504.487,4545.641,4544.744000000001,4599.615,4552.308,4567.9490000000005,4542.308,4501.538,4566.923,4513.077,4557.564,0,0
502,8,0,2844,4494.359,4540.385,4582.564,4505.128,4556.538,4548.333,4603.333,4556.923,4568.846,4542.692,4508.077,4572.692,4506.667,4576.026,0,0
503,9,0,3558,4493.333,4538.59,4576.667,4494.103,4539.359,4550.769,4599.359,4551.538,4557.308,4530.897,4512.692,4570.385,4504.359,4578.974,0,0
504,10,0,3361,4492.179,4534.359,4570.641,4491.667,4534.744000000001,4541.923,4589.103,4546.154,4553.462,4531.154,4510.897,4567.436,4504.744000000001,4568.205,0,0
505,11,0,3386,4490.641,4538.718,4572.821,4502.308,4542.9490000000005,4534.359,4588.59,4547.692,4561.154,4535.641,4518.718,4570.128,4506.41,4571.41,0,0
506,12,0,2964,4491.795,4537.179,4571.667,4504.359,4543.718,4544.103,4592.821,4551.154,4567.564,4527.0509999999995,4524.231,4571.795,4515.897,4576.282,0,0
507,13,0,3108,4498.974,4542.436,4572.0509999999995,4505.255999999999,4550.897,4562.9490000000005,4592.436,4556.795,4567.564,4520.769,4513.974,4569.615,4524.103,4570.897,0,0
508,14,0,3361,4496.923,4551.795,4577.564,4508.718,4557.0509999999995,4572.179,4591.282,4559.487,4567.821,4526.795,4505.513,4569.231,4523.462,4571.667,0,0
509,15,0,3386,4493.077,4549.872,4579.487,4507.0509999999995,4549.231,4567.9490000000005,4595.897,4558.846,4567.821,4534.103,4513.205,4568.974,4525.0,4577.0509999999995,0,0
510,16,0,0,4502.9490000000005,4550.513,4581.795,4512.436,4549.744000000001,4565.513,4603.462,4562.9490000000005,4569.103,4537.308,4515.513,4567.308,4535.897,4580.0,0,0
511,17,0,0,4508.59,4560.641,4586.538,4522.692,4564.359,4575.255999999999,4617.308,4568.59,4570.128,4541.667,4503.333,4570.255999999999,4547.564,4580.128,0,0
512,18,0,0,4509.615,4573.205,4591.282,4523.846,4571.026,4586.026,4634.359,4574.872,4576.154,4547.436,4516.154,4578.59,4553.077,4581.795,0,0
513,19,0,0,4511.282,4577.564,4595.769,4521.282,4564.103,4588.205,4638.846,4584.744000000001,4591.154,4550.641,4541.41,4584.615,4559.359,4584.103,0,0
514,20,0,0,4516.538,4581.795,4601.538,4530.513,4576.154,4589.744000000001,4646.538,4599.744000000001,4603.205,4557.692,4540.897,4591.154,4577.564,4595.513,0,0
515,21,0,0,4542.436,4601.41,4612.308,4547.821,4606.154,4597.308,4659.359,4615.897,4611.538,4585.641,4543.846,4604.359,4598.462,4621.41,0,0
516,22,0,0,4563.718,4615.897,4617.821,4552.692,4610.385,4604.615,4654.615,4620.0,4620.385,4601.026,4559.744000000001,4611.795,4601.795,4628.59,0,0
517,23,0,0,4554.103,4607.564,4613.846,4548.077,4596.282,4605.385,4642.821,4610.769,4618.333,4586.41,4558.718,4611.154,4597.821,4617.179,0,0
518,24,0,0,4556.41,4605.255999999999,4621.923,4551.026,4598.718,4609.872,4652.308,4612.692,4614.487,4592.436,4557.692,4616.154,4603.974,4625.385,0,0
519,25,0,0,4575.769,4617.308,4637.179,4558.333,4609.231,4613.846,4668.077,4626.41,4622.436,4614.744000000001,4565.128,4618.974,4616.282,4637.308,0,0
520,26,1,0,4563.462,4608.718,4628.59,4551.538,4602.821,4608.333,4663.846,4618.846,4616.282,4607.9490000000005,4556.026,4610.0,4606.026,4626.282,0,0
521,27,1,0,4551.154,4600.128,4620.0,4544.744000000001,4596.41,4602.821,4659.615,4611.282,4610.128,4601.154,4546.923,4601.026,4595.769,4615.255999999999,0,0
522,28,1,0,4538.846,4591.538,4611.41,4537.9490000000005,4590.0,4597.308,4655.385,4603.718,4603.974,4594.359,4537.821,4592.0509999999995,4585.513,4604.231,0,0
523,29,1,0,4526.538,4582.9490000000005,4602.821,4531.154,4583.59,4591.795,4651.154,4596.154,4597.821,4587.564,4528.718,4583.077,4575.255999999999,4593.205,0,0
524,30,1,0,4514.231,4574.359,4594.231,4524.359,4577.179,4586.282,4646.923,4588.59,4591.667,4580.769,4519.615,4574.103,4565.0,4582.179,0,0
525,31,1,0,4501.923,4565.769,4585.641,4517.564,4570.769,4580.769,4642.692,4581.026,4585.513,4573.974,4510.513,4565.128,4554.744000000001,4571.154,0,0
526,32,0,0,4489.103,4556.667,4577.0509999999995,4510.128,4563.59,4574.872,4637.9490000000005,4573.205,4579.103,4566.41,4501.154,4556.154,4543.846,4559.872,0,0
527,33,0,0,4474.231,4546.923,4565.385,4501.026,4549.231,4571.026,4627.692,4567.0509999999995,4565.0,4555.897,4482.0509999999995,4543.718,4539.231,4530.513,0,0
528,34,0,0,4476.667,4552.0509999999995,4570.769,4505.769,4553.333,4566.282,4617.0509999999995,4559.872,4579.231,4573.974,4495.255999999999,4553.077,4547.821,4534.103,0,0
529,35,0,0,4485.255999999999,4556.923,4573.205,4514.103,4555.255999999999,4555.0,4607.0509999999995,4560.897,4581.538,4584.744000000001,4516.538,4557.821,4558.462,4556.282,0,0
530,36,0,0,4497.308,4563.462,4569.744000000001,4520.769,4562.821,4561.923,4605.769,4567.308,4575.897,4585.385,4519.231,4552.436,4561.923,4567.564,0,0
531,37,0,0,4510.385,4574.744000000001,4578.462,4524.231,4580.385,4571.795,4611.154,4570.897,4587.821,4597.308,4522.821,4560.769,4564.872,4574.744000000001,0,0
532,38,0,0,4505.385,4575.255999999999,4580.385,4519.744000000001,4573.846,4558.205,4598.205,4555.769,4582.0509999999995,4594.872,4528.077,4563.846,4553.205,4572.821,0,0
533,39,0,0,4491.154,4570.385,4568.077,4517.821,4550.641,4549.231,4582.436,4537.436,4561.282,4573.462,4517.0509999999995,4543.974,4532.821,4557.9490000000005,0,0
534,40,0,0,4488.846,4570.769,4568.462,4526.41,4558.718,4556.795,4588.974,4537.692,4565.128,4576.282,4506.154,4538.077,4526.795,4551.795,0,0
535,41,0,0,4492.179,4568.205,4572.308,4525.385,4569.103,4544.744000000001,4585.0,4536.795,4565.769,4576.923,4505.513,4548.59,4520.128,4552.692,0,0
536,42,0,0,4500.513,4574.359,4567.9490000000005,4517.0509999999995,4558.59,4541.282,4578.846,4535.128,4552.9490000000005,4565.641,4514.615,4553.205,4522.436,4558.333,0,0
537,43,0,0,4508.974,4584.872,4571.538,4518.846,4558.205,4562.821,4594.744000000001,4545.255999999999,4559.872,4582.436,4523.333,4553.333,4538.462,4568.333,0,0
538,44,0,0,4512.564,4584.744000000001,4579.872,4532.436,4573.205,4565.385,4609.872,4557.308,4575.128,4601.41,4522.0509999999995,4553.974,4541.667,4572.564,0,0
539,45,0,0,4518.718,4588.462,4583.718,4545.641,4582.9490000000005,4559.872,4611.538,4559.359,4571.154,4585.641,4529.103,4559.744000000001,4534.872,4576.282,0,0
540,46,0,0,4529.103,4604.231,4591.282,4554.231,4586.923,4570.255999999999,4605.385,4560.0,4565.897,4579.103,4541.026,4569.231,4546.538,4587.0509999999995,0,0
541,47,0,0,4529.231,4607.692,4593.205,4554.487,4586.667,4568.718,4591.795,4555.897,4571.154,4592.308,4531.923,4566.795,4558.462,4582.821,0,0
542,48,0,0,4518.333,4588.59,4580.385,4541.154,4568.846,4547.821,4576.667,4538.974,4557.179,4575.769,4513.077,4551.667,4543.718,4558.205,0,0
543,49,0,0,4520.769,4581.667,4581.538,4539.103,4565.897,4548.846,4588.205,4541.795,4556.795,4571.154,4523.333,4550.255999999999,4532.564,4554.103,0,0
544,50,0,0,4524.872,4590.769,4593.333,4550.385,4578.077,4558.59,4605.0,4555.255999999999,4578.333,4592.692,4541.667,4557.9490000000005,4529.359,4565.641,0,0
545,51,0,0,4508.205,4578.974,4578.718,4547.308,4565.0,4551.154,4599.359,4541.923,4562.0509999999995,4573.462,4531.795,4549.103,4512.9490000000005,4554.615,0,0
546,52,0,0,4483.718,4550.385,4552.0509999999995,4530.513,4544.615,4540.0,4587.9490000000005,4517.821,4527.308,4526.923,4506.026,4525.897,4498.333,4526.667,0,0
547,53,0,0,4488.205,4554.103,4556.026,4534.872,4556.795,4532.308,4584.615,4522.436,4535.128,4532.564,4512.821,4524.872,4511.282,4528.205,0,0
548,54,0,0,4517.179,4586.026,4582.308,4557.436,4579.615,4545.385,4599.103,4549.231,4564.103,4573.59,4547.821,4554.103,4537.436,4560.0,0,0
549,55,0,0,4518.333,4585.769,4578.077,4552.0509999999995,4562.436,4557.9490000000005,4601.41,4549.744000000001,4559.231,4572.308,4548.59,4558.205,4548.974,4565.513,0,0
550,56,0,0,4489.359,4560.0,4550.385,4529.872,4535.641,4543.974,4577.179,4528.59,4536.026,4543.59,4521.282,4529.487,4540.385,4539.615,0,0
551,57,0,0,4465.897,4544.872,4533.462,4522.179,4534.615,4522.308,4555.897,4507.308,4517.692,4519.615,4502.436,4510.255999999999,4516.923,4514.231,0,0
552,58,0,0,4450.385,4531.282,4516.41,4510.255999999999,4518.846,4509.744000000001,4545.128,4483.59,4507.308,4494.487,4482.308,4493.462,4492.692,4494.487,0,0
553,59,0,0,4441.667,4520.513,4504.487,4491.282,4499.615,4507.564,4540.769,4475.641,4506.538,4479.872,4467.692,4476.538,4485.513,4484.744000000001,0,0
554,60,0,0,4446.41,4526.538,4511.026,4494.231,4518.333,4507.0509999999995,4542.564,4490.0,4504.487,4485.0,4475.255999999999,4482.308,4492.179,4488.462,0,0
555,61,0,0,4432.0509999999995,4520.897,4501.41,4491.538,4520.128,4491.923,4532.179,4481.154,4491.538,4471.795,4462.436,4477.436,4484.872,4474.744000000001,0,0
556,62,0,0,4396.154,4490.255999999999,4475.255999999999,4457.308,4472.564,4471.282,4507.179,4443.59,4471.667,4428.205,4419.872,4447.692,4461.923,4442.9490000000005,0,0
557,63,0,0,4384.359,4471.282,4467.821,4438.205,4447.821,4472.0509999999995,4501.154,4433.974,4470.255999999999,4414.615,4402.564,4437.308,4438.333,4427.9490000000005,0,0
558,64,0,3135,4392.821,4475.641,4470.513,4448.59,4465.385,4476.41,4512.0509999999995,4449.359,4478.333,4432.0509999999995,4407.436,4445.513,4437.564,4430.255999999999,0,0
559,65,0,2885,4384.231,4470.255999999999,4462.179,4450.128,4464.103,4461.154,4507.9490000000005,4443.974,4469.487,4422.179,4403.333,4436.667,4451.026,4422.9490000000005,0,0
560,66,0,3442,4350.513,4436.026,4438.974,4419.872,4431.026,4441.154,4488.077,4407.308,4438.718,4378.846,4373.718,4406.026,4427.179,4389.744000000001,0,0
561,67,0,3464,4324.872,4408.974,4413.718,4389.615,4412.436,4426.538,4470.255999999999,4376.795,4407.436,4352.436,4342.692,4383.718,4386.282,4360.0,0,0
562,68,0,3516,4322.821,4405.897,4408.59,4390.0,4412.564,4413.462,4463.59,4378.205,4405.897,4356.795,4344.359,4384.615,4381.923,4360.385,0,0
563,69,0,3040,4318.59,4399.872,4412.692,4393.333,4401.154,4400.769,4457.436,4380.769,4418.205,4352.692,4349.615,4384.744000000001,4386.923,4364.359,0,0
564,70,0,2985,4307.692,4392.692,4404.487,4381.667,4388.718,4394.872,4444.487,4370.255999999999,4410.385,4339.872,4331.538,4376.538,4370.897,4358.205,0,0
565,71,0,3437,4307.0509999999995,4395.513,4396.282,4375.128,4385.128,4393.205,4438.974,4365.385,4393.333,4337.179,4321.538,4375.513,4358.205,4353.077,0,0
566,72,0,2878,4308.205,4392.0509999999995,4398.077,4379.744000000001,4378.077,4393.462,4446.154,4365.769,4395.641,4335.769,4329.744000000001,4374.359,4359.487,4348.974,0,0
567,73,0,3592,4300.385,4382.564,4392.564,4374.615,4375.128,4390.513,4446.154,4357.0509999999995,4395.0,4325.513,4316.667,4361.795,4360.0,4340.897,0,0
568,74,0,3373,4290.513,4375.385,4376.923,4361.41,4374.487,4379.615,4434.872,4344.231,4382.821,4319.103,4294.744000000001,4351.667,4350.255999999999,4326.154,0,0
569,75,0,3402,4284.231,4368.077,4372.9490000000005,4356.41,4368.333,4372.821,4427.436,4342.0509999999995,4384.359,4321.538,4297.0509999999995,4351.795,4340.641,4310.385,0,0
570,76,0,2978,4278.718,4366.154,4377.436,4355.641,4358.846,4367.821,4422.308,4342.692,4380.255999999999,4315.255999999999,4298.333,4347.821,4343.974,4308.718,0,0
571,77,0,3126,4273.846,4360.641,4366.538,4349.231,4338.333,4355.513,4408.718,4328.462,4360.385,4301.795,4283.462,4333.718,4341.923,4312.436,0,0
572,78,0,3373,4262.436,4343.846,4349.872,4334.359,4318.846,4347.308,4391.026,4308.59,4349.231,4293.333,4273.846,4323.077,4326.026,4301.923,0,0
573,79,0,3402,4246.41,4338.718,4348.718,4327.0509999999995,4335.769,4348.846,4385.255999999999,4308.333,4352.0509999999995,4294.103,4276.154,4322.564,4321.667,4293.462,0,0
574,80,0,2978,4243.974,4345.385,4347.0509999999995,4332.564,4347.436,4345.897,4390.128,4311.026,4355.255999999999,4300.0,4269.487,4316.41,4327.692,4296.41,0,0
575,81,0,3126,4251.026,4342.0509999999995,4338.718,4332.308,4321.923,4336.41,4384.487,4297.692,4351.026,4299.359,4260.0,4305.897,4321.667,4291.795,0,0
576,82,0,3373,4252.692,4340.897,4341.41,4327.9490000000005,4325.255999999999,4336.41,4377.0509999999995,4294.487,4343.462,4296.538,4270.897,4311.795,4316.923,4289.231,0,0
577,83,0,3402,4237.436,4336.154,4333.333,4317.436,4341.538,4332.0509999999995,4371.154,4291.41,4329.872,4283.59,4262.9490000000005,4306.41,4304.487,4281.41,0,0
578,84,0,2978,4203.462,4295.0,4297.821,4290.0,4296.538,4304.103,4345.385,4258.974,4303.718,4246.282,4223.077,4269.872,4267.308,4244.872,0,0
579,85,0,3126,4187.692,4269.359,4279.103,4273.333,4252.436,4280.641,4322.564,4240.255999999999,4290.385,4229.231,4212.179,4251.923,4253.974,4221.41,0,0
580,86,0,3373,4222.564,4310.385,4310.769,4298.846,4291.154,4307.0509999999995,4351.154,4279.872,4323.974,4272.9490000000005,4251.538,4284.744000000001,4297.308,4256.538,0,0
581,87,0,3402,4256.795,4345.385,4340.897,4326.795,4339.615,4342.692,4389.744000000001,4323.205,4358.846,4305.897,4282.821,4316.667,4331.282,4295.385,0,0
582,88,0,2978,4236.795,4315.641,4322.179,4315.128,4318.846,4324.872,4377.692,4314.615,4347.436,4285.0,4269.231,4301.282,4308.846,4277.564,0,0
583,89,0,3126,4217.821,4293.205,4302.0509999999995,4301.154,4294.103,4299.615,4355.641,4297.179,4334.231,4275.641,4246.667,4278.462,4289.103,4252.821,0,0
584,90,0,3373,4210.513,4298.974,4296.923,4295.513,4290.897,4301.41,4347.308,4285.513,4322.436,4268.333,4235.513,4270.255999999999,4283.205,4246.538,0,0
585,91,0,3402,4187.179,4283.59,4279.744000000001,4280.513,4278.077,4295.128,4332.436,4263.333,4296.026,4242.0509999999995,4226.667,4256.026,4265.641,4231.026,0,0
586,92,0,2978,4190.128,4276.41,4279.744000000001,4279.359,4276.41,4292.692,4335.0,4268.333,4299.487,4254.744000000001,4232.9490000000005,4257.9490000000005,4265.769,4229.744000000001,0,0
587,93,0,3126,4216.795,4293.718,4300.897,4293.077,4286.41,4306.923,4352.308,4290.385,4324.487,4286.026,4249.231,4276.667,4284.103,4247.692,0,0
588,94,0,3373,4216.026,4297.308,4299.615,4293.974,4286.154,4306.41,4345.641,4282.179,4323.59,4278.205,4248.718,4273.333,4287.9490000000005,4249.231,0,0
589,95,0,3402,4206.538,4293.333,4294.103,4289.359,4289.872,4301.538,4337.9490000000005,4275.128,4319.744000000001,4273.974,4242.0509999999995,4266.026,4290.513,4243.59,0,0
590,96,0,2978,4216.154,4293.077,4304.231,4293.462,4296.41,4306.923,4351.923,4293.333,4328.59,4285.385,4250.128,4275.255999999999,4298.59,4249.359,0,0
591,97,0,3126,4216.026,4285.513,4297.564,4287.308,4285.385,4298.718,4346.41,4284.872,4314.872,4267.308,4247.308,4268.718,4280.0,4244.872,0,0
592,98,0,3373,4221.538,4304.744000000001,4298.462,4291.41,4294.487,4298.846,4336.282,4272.692,4307.179,4266.667,4250.769,4267.308,4272.564,4253.718,0,0
593,99,0,3402,4263.205,4356.923,4339.615,4329.744000000001,4337.308,4330.0,4373.205,4313.974,4345.769,4313.974,4294.359,4306.923,4317.0509999999995,4297.436,0,0
594,100,0,2978,4297.692,4378.974,4366.538,4355.385,4349.744000000001,4352.179,4410.513,4350.0,4370.897,4341.154,4332.308,4335.255999999999,4348.462,4324.103,0,0
595,101,0,3126,4290.255999999999,4363.077,4351.667,4343.333,4328.462,4343.718,4392.179,4333.846,4352.692,4324.744000000001,4328.462,4323.59,4332.0509999999995,4313.077,0,0
596,102,0,3373,4273.59,4355.897,4343.077,4336.282,4326.667,4329.359,4368.205,4320.513,4347.0509999999995,4322.0509999999995,4320.897,4317.821,4322.821,4308.974,0,0
597,103,0,3402,4285.0,4364.744000000001,4358.718,4349.872,4348.333,4328.974,4379.744000000001,4336.026,4365.769,4348.333,4335.769,4333.59,4338.462,4322.564,0,0
598,104,0,2978,4300.255999999999,4368.59,4365.0,4353.59,4356.026,4338.077,4389.744000000001,4341.538,4365.897,4354.231,4342.436,4338.718,4343.462,4317.9490000000005,0,0
599,105,0,3126,4287.821,4360.513,4350.513,4342.821,4347.308,4342.692,4379.872,4328.462,4350.255999999999,4335.255999999999,4323.462,4323.077,4336.795,4300.513,0,0
600,106,0,3373,4263.974,4345.0,4331.41,4329.744000000001,4334.231,4327.821,4365.255999999999,4314.872,4342.9490000000005,4317.821,4301.026,4303.077,4326.41,4291.154,0,0
601,107,0,3402,4255.769,4333.846,4326.282,4323.333,4323.462,4313.333,4356.667,4311.41,4341.538,4314.872,4296.41,4295.641,4313.59,4284.872,0,0
602,108,0,2978,4253.974,4329.487,4326.538,4320.513,4325.513,4319.872,4357.179,4310.0,4336.282,4311.667,4298.205,4294.744000000001,4309.487,4278.974,0,0
603,109,0,3126,4245.0,4326.538,4318.077,4313.205,4326.923,4322.308,4358.205,4303.59,4330.385,4300.769,4289.231,4286.795,4312.821,4277.692,0,0
604,110,0,3373,4237.564,4318.077,4308.205,4308.718,4312.308,4310.513,4350.513,4294.872,4326.154,4292.179,4278.333,4276.282,4311.154,4270.897,0,0
605,111,0,3402,4232.0509999999995,4309.103,4307.0509999999995,4307.308,4304.615,4305.513,4345.255999999999,4287.564,4324.231,4290.385,4274.872,4273.974,4304.615,4259.359,0,0
606,112,0,2978,4231.026,4315.0,4313.077,4309.359,4313.59,4308.846,4352.9490000000005,4300.641,4332.436,4294.744000000001,4280.128,4282.436,4310.513,4266.795,0,0
607,113,0,3126,4237.179,4321.282,4316.282,4312.692,4313.077,4309.359,4356.154,4312.0509999999995,4337.308,4295.769,4288.077,4287.692,4316.538,4275.897,0,0
608,114,0,3373,4232.0509999999995,4309.103,4305.0,4302.821,4297.179,4304.744000000001,4337.179,4279.359,4316.538,4283.462,4278.077,4276.923,4290.641,4261.026,0,0
609,115,0,3402,4211.923,4290.513,4283.974,4279.359,4282.179,4288.333,4309.615,4238.718,4285.641,4254.231,4252.436,4257.436,4258.846,4239.615,0,0
610,116,0,2978,4207.564,4285.641,4276.795,4272.821,4277.564,4270.255999999999,4300.128,4246.026,4281.667,4240.513,4244.231,4251.282,4261.923,4233.462,0,0
611,117,0,3126,4234.744000000001,4303.718,4300.255999999999,4296.923,4295.641,4290.513,4320.385,4281.282,4308.462,4271.923,4274.103,4274.487,4292.692,4253.974,0,0
612,118,0,3373,4254.231,4325.641,4327.9490000000005,4319.872,4317.0509999999995,4317.179,4345.0,4306.923,4334.231,4305.641,4307.0509999999995,4300.897,4317.0509999999995,4285.513,0,0
613,119,0,3402,4246.154,4320.385,4321.923,4312.564,4301.026,4296.538,4333.59,4307.308,4333.333,4298.59,4304.103,4296.923,4316.923,4285.641,0,0
614,120,0,2978,4253.59,4318.205,4315.128,4307.692,4297.436,4280.513,4325.128,4297.821,4325.128,4288.846,4295.897,4291.667,4308.718,4275.897,0,0
615,121,0,3126,4281.538,4344.615,4337.436,4327.436,4329.103,4307.821,4356.795,4307.436,4332.179,4308.333,4309.103,4309.103,4312.564,4297.0509999999995,0,0
616,122,0,3373,4283.59,4350.641,4340.0,4332.564,4325.255999999999,4319.872,4365.0,4308.205,4330.128,4312.308,4312.821,4310.513,4312.308,4306.282,0,0
617,123,0,3402,4271.026,4337.9490000000005,4319.487,4319.231,4307.564,4305.513,4338.462,4288.077,4319.487,4301.154,4301.667,4293.846,4303.974,4290.641,0,0
618,124,0,2978,4279.103,4350.769,4326.795,4326.026,4332.564,4307.821,4341.795,4294.615,4327.9490000000005,4315.769,4307.564,4297.179,4314.231,4298.718,0,0
619,125,0,3126,4275.255999999999,4350.641,4329.872,4331.282,4336.538,4305.641,4342.308,4299.615,4325.128,4316.282,4312.0509999999995,4298.077,4314.487,4304.103,0,0
620,126,0,3373,4257.0509999999995,4329.231,4310.0,4317.179,4306.923,4290.0,4313.59,4276.026,4306.795,4288.59,4300.385,4284.359,4296.154,4284.103,0,0
621,127,0,52,4280.0,4352.179,4330.255999999999,4331.154,4329.615,4305.385,4329.487,4295.385,4328.846,4308.846,4319.103,4303.718,4319.103,4302.179,0,0
622,0,0,3133,4322.179,4394.872,4371.667,4367.179,4369.872,4333.462,4381.154,4352.436,4371.923,4362.0509999999995,4355.513,4340.641,4361.282,4349.487,0,0
623,1,0,2880,4323.59,4393.077,4370.385,4372.692,4359.359,4336.923,4390.513,4357.436,4374.872,4362.0509999999995,4356.923,4341.667,4361.282,4353.974,0,0
624,2,0,3436,4291.154,4360.385,4336.795,4345.769,4327.692,4320.255999999999,4362.436,4311.41,4342.308,4318.205,4327.692,4312.564,4328.462,4318.333,0,0
625,3,0,3458,4280.385,4350.0,4325.128,4335.385,4321.923,4310.641,4355.255999999999,4293.077,4325.513,4300.769,4319.487,4304.231,4313.333,4303.462,0,0
626,4,0,3510,4298.205,4365.641,4342.564,4347.821,4337.821,4317.564,4370.385,4314.615,4334.872,4315.513,4336.667,4322.436,4321.923,4320.385,0,0
627,5,0,3045,4300.128,4366.795,4344.359,4347.179,4337.9490000000005,4316.923,4366.667,4324.359,4339.103,4321.154,4341.026,4323.077,4323.462,4326.154,0,0
628,6,0,2986,4284.487,4351.154,4328.718,4338.205,4323.718,4309.231,4352.0509999999995,4316.923,4334.103,4308.846,4338.59,4309.487,4315.897,4316.026,0,0
629,7,0,3442,4277.692,4346.667,4325.0,4341.667,4316.282,4310.897,4346.667,4308.462,4328.974,4300.0,4341.41,4308.333,4312.179,4311.026,0,0
630,8,0,2876,4272.564,4344.231,4324.231,4344.487,4315.641,4306.282,4337.0509999999995,4296.795,4320.0,4298.846,4334.615,4305.0,4304.872,4306.538,0,0
631,9,0,3568,4259.487,4326.41,4308.077,4335.0,4308.59,4290.255999999999,4323.333,4288.077,4307.9490000000005,4278.59,4323.462,4283.974,4290.385,4293.205,0,0
632,10,0,3377,4259.487,4325.128,4308.59,4334.872,4304.744000000001,4294.231,4326.923,4296.667,4310.769,4263.462,4329.103,4277.179,4292.308,4286.026,0,0
633,11,0,3392,4255.897,4328.333,4312.9490000000005,4335.385,4302.179,4296.667,4329.615,4296.538,4313.718,4269.872,4323.333,4279.615,4283.846,4280.769,0,0
634,12,0,2974,4242.692,4310.128,4299.103,4322.308,4291.923,4278.846,4321.667,4282.436,4302.821,4269.231,4305.255999999999,4269.487,4258.59,4270.769,0,0
635,13,0,3117,4254.359,4310.0,4303.333,4321.923,4294.872,4282.9490000000005,4331.282,4289.231,4306.41,4268.462,4318.59,4273.718,4275.0,4276.923,0,0
636,14,0,3377,4267.308,4326.667,4318.718,4334.231,4308.333,4297.308,4344.487,4302.308,4316.154,4277.821,4334.231,4288.59,4298.974,4287.436,0,0
637,15,0,3392,4255.513,4323.462,4310.897,4331.026,4311.538,4288.974,4334.615,4305.0,4318.077,4279.487,4320.641,4285.769,4282.821,4280.128,0,0
638,16,0,0,4241.282,4305.769,4289.744000000001,4314.615,4296.41,4271.026,4313.59,4295.255999999999,4308.333,4266.795,4308.333,4269.744000000001,4269.487,4267.436,0,0
639,17,0,0,4236.41,4297.179,4280.255999999999,4305.769,4278.846,4263.718,4299.103,4278.462,4295.897,4258.077,4310.255999999999,4262.436,4280.385,4260.385,0,0
640,18,0,0,4232.436,4299.359,4283.333,4302.9490000000005,4281.282,4267.179,4297.179,4280.513,4299.359,4258.974,4312.564,4263.333,4282.9490000000005,4252.564,0,0
641,19,0,0,4233.077,4306.538,4287.436,4305.385,4291.795,4276.026,4304.231,4289.487,4305.897,4265.255999999999,4310.0,4264.872,4279.359,4248.718,0,0
642,20,0,0,4233.462,4307.0509999999995,4283.974,4306.923,4285.128,4281.795,4311.282,4272.821,4298.718,4266.026,4302.0509999999995,4259.103,4276.026,4249.359,0,0
643,21,0,0,4225.0,4293.077,4273.333,4295.513,4272.692,4276.026,4308.59,4255.255999999999,4288.205,4252.564,4293.974,4246.795,4259.103,4242.179,0,0
644,22,0,0,4225.897,4293.974,4281.154,4294.487,4284.103,4276.026,4309.487,4274.487,4294.872,4256.41,4304.359,4253.59,4258.974,4241.795,0,0
645,23,0,0,4235.128,4307.564,4294.615,4306.41,4302.436,4281.154,4312.9490000000005,4290.255999999999,4302.9490000000005,4268.974,4314.872,4266.667,4278.846,4252.436,0,0
646,24,0,0,4232.0509999999995,4302.821,4287.821,4303.846,4295.255999999999,4274.103,4300.255999999999,4274.872,4298.462,4259.487,4305.0,4258.462,4281.667,4250.0,0,0
647,25,0,0,4217.0509999999995,4289.615,4276.282,4291.41,4279.103,4261.282,4288.846,4268.205,4294.615,4253.59,4293.205,4246.41,4264.872,4235.128,0,0
648,26,0,0,4212.308,4289.744000000001,4277.179,4292.692,4278.846,4259.487,4300.255999999999,4276.41,4292.821,4260.769,4295.128,4246.923,4255.897,4230.769,0,0
649,27,0,0,4225.0,4297.308,4280.897,4300.897,4283.462,4266.282,4309.744000000001,4275.385,4291.795,4258.59,4303.462,4252.436,4272.0509999999995,4239.487,0,0
650,28,0,0,4232.0509999999995,4297.9490000000005,4278.333,4301.41,4281.41,4265.769,4301.795,4273.974,4294.359,4255.897,4309.487,4256.795,4287.692,4245.0,0,0
651,29,0,0,4227.564,4295.641,4278.59,4301.923,4280.513,4261.667,4295.128,4279.231,4295.897,4260.255999999999,4310.0,4259.615,4279.487,4242.436,0,0
652,30,0,0,4227.308,4293.846,4280.385,4302.308,4278.205,4261.538,4288.462,4266.41,4287.436,4255.255999999999,4306.41,4260.255999999999,4273.205,4243.077,0,0
653,31,0,0,4232.436,4291.282,4282.0509999999995,4298.59,4270.513,4263.077,4275.0,4250.769,4278.462,4246.795,4306.154,4262.821,4283.846,4248.462,0,0
654,32,0,0,4229.487,4290.897,4285.255999999999,4298.846,4272.564,4260.513,4274.744000000001,4256.282,4274.487,4245.513,4306.667,4262.692,4282.308,4247.179,0,0
655,33,0,0,4230.769,4294.231,4291.538,4307.0509999999995,4284.231,4259.487,4288.077,4264.872,4276.41,4248.462,4305.128,4263.077,4275.641,4246.41,0,0
656,34,0,0,4249.872,4305.255999999999,4307.0509999999995,4318.974,4288.974,4270.513,4300.128,4275.513,4291.795,4266.795,4312.308,4275.641,4290.255999999999,4261.538,0,0
657,35,0,0,4265.0,4316.923,4317.436,4323.974,4295.769,4281.667,4305.385,4290.769,4305.128,4278.846,4323.205,4287.308,4298.077,4277.179,0,0
658,36,0,0,4255.641,4310.897,4309.103,4315.128,4297.9490000000005,4281.026,4303.846,4291.538,4300.128,4257.692,4321.41,4281.538,4288.333,4271.795,0,0
659,37,0,0,4228.59,4286.667,4289.872,4294.359,4272.308,4265.513,4293.333,4270.385,4281.538,4229.615,4295.128,4260.513,4270.641,4244.103,0,0
660,38,0,0,4210.769,4268.333,4275.128,4279.615,4243.974,4247.9490000000005,4280.385,4252.9490000000005,4267.564,4222.308,4275.641,4242.308,4253.846,4216.41,0,0
661,39,0,0,4223.333,4274.103,4279.103,4284.744000000001,4251.538,4252.436,4283.462,4263.974,4273.59,4227.9490000000005,4290.255999999999,4249.103,4253.333,4219.359,0,0
662,40,0,0,4248.205,4297.179,4295.385,4302.179,4281.282,4272.436,4301.026,4284.231,4286.795,4238.59,4311.282,4266.154,4265.897,4244.744000000001,0,0
663,41,0,0,4244.615,4299.359,4282.692,4297.821,4280.128,4259.359,4288.462,4267.564,4273.077,4233.077,4299.103,4250.641,4264.615,4245.128,0,0
664,42,0,0,4224.103,4280.128,4254.615,4275.641,4258.718,4228.333,4256.154,4239.359,4256.026,4215.0,4279.103,4223.333,4255.0,4225.897,0,0
665,43,0,0,4229.872,4285.0,4264.872,4281.282,4264.103,4237.564,4261.795,4258.333,4276.667,4228.462,4292.179,4235.128,4263.846,4232.179,0,0
666,44,0,0,4236.154,4301.41,4276.154,4293.59,4273.974,4251.538,4274.615,4274.872,4291.154,4245.513,4298.59,4246.538,4267.9490000000005,4239.103,0,0
667,45,0,0,4221.026,4285.641,4252.436,4276.282,4262.179,4236.41,4258.974,4247.821,4264.744000000001,4225.128,4275.0,4223.718,4253.846,4220.641,0,0
668,46,0,0,4205.0,4258.59,4236.026,4252.564,4250.769,4224.615,4248.59,4221.154,4237.9490000000005,4206.026,4256.538,4206.026,4239.744000000001,4204.487,0,0
669,47,0,0,4207.9490000000005,4263.462,4250.255999999999,4255.513,4262.692,4236.41,4266.282,4235.255999999999,4252.9490000000005,4218.59,4267.564,4218.333,4252.564,4213.205,0,0
670,48,0,0,4209.231,4275.255999999999,4253.718,4266.795,4266.538,4246.41,4280.385,4255.255999999999,4274.615,4226.795,4274.231,4225.385,4272.692,4220.128,0,0
671,49,0,0,4185.128,4260.641,4227.9490000000005,4255.385,4240.769,4232.0509999999995,4261.026,4234.231,4256.154,4208.077,4253.462,4206.538,4256.026,4197.436,0,0
672,50,0,0,4174.231,4253.077,4214.359,4241.538,4228.974,4217.179,4245.385,4212.436,4238.333,4200.128,4246.026,4198.333,4239.231,4182.179,0,0
673,51,0,0,4197.308,4274.359,4229.615,4254.359,4253.462,4226.538,4259.872,4230.385,4255.641,4217.692,4265.128,4215.513,4261.154,4206.795,0,0
674,52,0,0,4207.0509999999995,4282.0509999999995,4234.103,4268.718,4267.179,4236.538,4265.385,4240.0,4262.9490000000005,4222.179,4272.564,4219.744000000001,4270.769,4221.795,0,0
675,53,0,0,4191.41,4264.487,4220.255999999999,4256.154,4253.718,4227.564,4247.9490000000005,4218.462,4245.385,4207.179,4253.59,4203.974,4250.255999999999,4203.462,0,0
676,54,0,0,4185.385,4261.667,4218.205,4247.564,4247.564,4228.59,4241.667,4213.846,4243.333,4210.255999999999,4245.0,4200.255999999999,4249.103,4195.769,0,0
677,55,0,0,4179.487,4264.615,4211.667,4250.513,4242.9490000000005,4237.564,4247.0509999999995,4224.359,4250.255999999999,4215.641,4251.667,4196.41,4250.128,4196.538,0,0
678,56,0,0,4164.615,4255.641,4202.564,4247.0509999999995,4238.59,4231.667,4255.897,4220.897,4245.385,4199.231,4248.974,4187.9490000000005,4229.231,4186.154,0,0
679,57,0,0,4166.026,4256.282,4215.641,4247.821,4249.872,4221.538,4264.615,4218.718,4242.692,4195.641,4240.513,4193.974,4227.564,4183.974,0,0
680,58,0,0,4171.923,4265.769,4224.231,4252.564,4252.692,4215.641,4254.487,4222.692,4248.718,4207.9490000000005,4237.564,4198.718,4244.359,4186.538,0,0
681,59,0,0,4168.205,4257.308,4215.385,4249.487,4236.538,4216.282,4240.255999999999,4217.564,4244.103,4195.513,4235.128,4189.615,4242.9490000000005,4175.897,0,0
682,60,0,0,4164.872,4243.077,4212.436,4241.538,4229.231,4219.487,4245.128,4215.641,4235.0,4173.077,4227.308,4187.179,4232.308,4168.462,0,0
683,61,0,0,4172.0509999999995,4250.769,4221.795,4248.718,4240.641,4221.795,4262.0509999999995,4234.231,4245.385,4190.513,4231.923,4200.897,4235.385,4181.154,0,0
684,62,0,0,4174.103,4255.513,4218.59,4252.9490000000005,4244.103,4215.769,4264.872,4234.872,4247.821,4215.769,4234.359,4204.231,4233.846,4184.359,0,0
685,63,0,0,4156.154,4233.718,4199.103,4234.103,4229.231,4201.41,4248.077,4204.231,4220.897,4196.282,4220.128,4186.667,4217.0509999999995,4164.487,0,0
686,64,0,3145,4151.41,4227.436,4199.359,4230.641,4226.538,4202.692,4251.154,4199.487,4218.59,4178.59,4220.769,4180.513,4215.513,4163.077,0,0
687,65,0,2884,4171.538,4251.026,4221.282,4250.385,4240.0,4218.333,4278.718,4223.205,4241.795,4200.255999999999,4236.538,4197.564,4230.385,4184.231,0,0
688,66,0,3443,4167.821,4248.59,4213.718,4244.359,4228.462,4213.077,4271.923,4211.667,4224.872,4196.667,4222.308,4192.564,4219.103,4179.615,0,0
689,67,0,3470,4148.333,4227.564,4195.128,4225.255999999999,4207.179,4198.59,4248.077,4190.513,4202.692,4168.59,4201.667,4173.974,4198.333,4160.769,0,0
690,68,0,3517,4158.718,4231.41,4205.897,4231.026,4214.615,4201.667,4255.128,4203.077,4216.923,4174.744000000001,4211.923,4179.872,4203.462,4166.026,0,0
691,69,0,3053,4171.667,4235.769,4209.487,4234.103,4224.487,4200.897,4255.769,4204.103,4213.205,4178.462,4212.9490000000005,4180.641,4202.436,4169.359,0,0
692,70,0,2999,4163.974,4233.205,4201.795,4230.128,4210.897,4198.59,4245.0,4187.436,4195.255999999999,4154.872,4198.974,4170.513,4186.154,4161.923,0,0
693,71,0,3452,4153.333,4237.821,4199.231,4234.359,4200.128,4200.641,4245.897,4182.564,4196.538,4148.718,4199.615,4171.667,4180.128,4157.564,0,0
694,72,0,2893,4137.0509999999995,4218.077,4173.077,4215.897,4199.744000000001,4182.308,4228.718,4170.255999999999,4184.231,4144.487,4189.872,4159.744000000001,4167.564,4140.641,0,0
695,73,0,3587,4133.846,4197.821,4154.872,4197.0509999999995,4196.026,4176.154,4215.255999999999,4162.564,4174.359,4137.0509999999995,4178.718,4148.077,4163.205,4133.333,0,0
696,74,0,3392,4150.128,4216.667,4175.769,4208.846,4199.359,4197.436,4234.359,4183.846,4203.333,4159.744000000001,4198.333,4166.795,4189.744000000001,4154.359,0,0
697,75,0,3409,4154.487,4233.462,4188.462,4219.615,4210.255999999999,4205.897,4242.692,4202.436,4224.231,4185.769,4220.769,4180.385,4215.0,4170.513,0,0
698,76,0,2987,4162.436,4231.538,4191.026,4226.667,4221.538,4206.923,4241.923,4212.692,4225.513,4196.282,4228.59,4181.923,4229.231,4179.231,0,0
699,77,0,3129,4175.641,4228.462,4197.821,4232.308,4219.231,4211.026,4245.641,4216.667,4226.282,4200.769,4230.641,4182.9490000000005,4232.821,4180.128,0,0
700,78,0,3392,4161.923,4219.231,4185.0,4220.641,4204.487,4201.282,4231.282,4198.846,4212.436,4187.0509999999995,4220.255999999999,4172.564,4207.179,4163.974,0,0
701,79,0,3409,4153.462,4217.308,4175.641,4215.897,4204.103,4201.667,4230.0,4187.821,4201.667,4175.897,4208.077,4171.026,4186.41,4158.205,0,0
702,80,0,2987,4172.0509999999995,4234.231,4193.462,4232.436,4220.513,4220.385,4250.769,4202.436,4214.872,4188.205,4216.795,4190.255999999999,4208.59,4175.128,0,0
703,81,0,3129,4175.255999999999,4238.846,4195.385,4236.282,4224.744000000001,4212.436,4243.718,4206.154,4218.333,4190.513,4226.923,4190.128,4226.41,4181.026,0,0
704,82,0,3392,4168.462,4233.846,4181.026,4226.923,4213.846,4191.282,4222.436,4192.692,4207.0509999999995,4186.026,4223.462,4175.897,4209.872,4175.897,0,0
705,83,0,3409,4184.487,4243.718,4190.513,4232.308,4217.179,4201.026,4228.077,4200.897,4219.359,4198.333,4229.231,4188.718,4206.923,4185.385,0,0
706,84,0,2987,4199.872,4256.795,4205.769,4242.564,4229.487,4219.744000000001,4243.846,4222.436,4236.154,4208.846,4244.231,4205.128,4231.538,4195.385,0,0
707,85,0,3129,4201.282,4263.205,4206.154,4247.9490000000005,4236.41,4221.282,4246.41,4222.179,4227.9490000000005,4209.744000000001,4244.744000000001,4203.205,4236.795,4197.0509999999995,0,0
708,86,0,3392,4202.821,4259.487,4204.231,4245.385,4235.641,4219.744000000001,4240.769,4210.513,4217.821,4210.255999999999,4233.205,4200.255999999999,4220.255999999999,4198.462,0,0
709,87,0,3409,4201.026,4250.769,4199.231,4237.692,4222.0509999999995,4215.641,4232.692,4209.103,4220.897,4205.641,4232.179,4200.385,4220.513,4197.9490000000005,0,0
710,88,0,2987,4190.385,4245.641,4184.359,4229.487,4208.205,4202.821,4220.255999999999,4201.667,4216.795,4190.128,4230.385,4188.974,4221.41,4188.077,0,0
711,89,0,3129,4184.872,4250.128,4180.769,4228.462,4221.026,4207.692,4231.667,4198.718,4212.9490000000005,4187.308,4221.282,4180.769,4211.282,4181.282,0,0
712,90,0,3392,4188.59,4256.667,4187.179,4235.385,4241.795,4220.255999999999,4259.872,4214.615,4222.692,4197.179,4220.641,4186.538,4213.077,4185.769,0,0
713,91,0,3409,4176.41,4240.897,4171.282,4228.462,4227.821,4204.359,4243.205,4195.641,4210.769,4183.205,4214.615,4172.308,4211.282,4171.795,0,0
714,92,0,2987,4147.179,4208.846,4145.897,4209.744000000001,4191.026,4182.436,4197.692,4147.564,4179.487,4149.231,4195.513,4141.923,4189.744000000001,4141.282,0,0
715,93,0,3129,4135.0,4201.154,4144.872,4210.769,4179.744000000001,4175.513,4189.231,4145.385,4174.615,4135.641,4188.59,4138.205,4173.846,4134.103,0,0
716,94,0,3392,4147.179,4220.897,4159.872,4228.59,4197.179,4175.641,4203.205,4174.615,4192.692,4145.513,4204.231,4155.897,4179.615,4147.308,0,0
717,95,0,3409,4167.179,4232.179,4174.103,4237.9490000000005,4217.179,4190.0,4213.59,4187.564,4203.974,4162.308,4226.538,4170.897,4200.128,4162.436,0,0
718,96,0,2987,4171.923,4222.308,4177.308,4237.308,4217.436,4202.692,4218.974,4186.282,4204.487,4172.821,4229.744000000001,4175.128,4211.154,4171.538,0,0
719,97,0,3129,4161.795,4209.359,4169.103,4230.769,4198.974,4192.436,4211.026,4186.282,4205.897,4163.974,4216.41,4168.718,4203.718,4168.462,0,0
720,98,0,3392,4167.179,4222.308,4175.769,4233.59,4205.641,4197.436,4225.385,4210.255999999999,4221.026,4167.308,4225.513,4175.897,4207.9490000000005,4171.41,0,0
721,99,0,3409,4172.308,4235.769,4185.128,4242.0509999999995,4225.0,4210.255999999999,4243.59,4222.821,4226.923,4179.487,4237.821,4186.41,4214.744000000001,4175.897,0,0
722,100,0,2987,4154.359,4217.564,4168.974,4230.385,4210.769,4192.692,4212.821,4191.41,4203.462,4168.846,4217.821,4170.385,4198.462,4159.744000000001,0,0
723,101,0,3129,4151.795,4211.154,4159.487,4224.872,4201.026,4182.9490000000005,4196.282,4180.0,4195.0,4166.282,4210.255999999999,4160.0,4197.564,4153.718,0,0
724,102,0,3392,4169.359,4231.026,4171.923,4237.308,4213.205,4196.923,4221.154,4199.231,4209.872,4169.872,4223.846,4172.0509999999995,4215.769,4164.231,0,0
725,103,0,3409,4172.821,4234.615,4177.308,4237.436,4216.538,4205.128,4232.564,4197.692,4211.667,4161.667,4221.154,4176.667,4212.692,4163.59,0,0
726,104,0,2987,4161.538,4218.846,4169.103,4225.641,4208.077,4199.103,4221.154,4182.179,4199.103,4159.231,4210.897,4169.359,4193.846,4154.487,0,0
727,105,0,3129,4157.179,4214.872,4165.128,4225.897,4202.821,4187.692,4216.026,4182.692,4195.513,4170.513,4210.513,4171.538,4193.974,4152.821,0,0
728,106,0,3392,4163.462,4224.231,4173.077,4231.795,4202.564,4184.615,4226.282,4196.795,4210.769,4183.333,4217.821,4182.0509999999995,4224.359,4160.0,0,0
729,107,0,3409,4171.795,4234.487,4183.846,4233.846,4214.615,4198.077,4236.41,4209.231,4221.026,4188.333,4227.821,4191.795,4237.9490000000005,4172.9490000000005,0,0
730,108,0,2987,4169.487,4235.385,4176.795,4232.179,4216.795,4200.641,4220.641,4196.795,4207.564,4184.359,4226.538,4188.462,4212.564,4174.359,0,0
731,109,0,3129,4164.872,4227.179,4165.128,4226.795,4198.974,4182.821,4201.923,4178.718,4202.692,4186.026,4216.026,4178.462,4225.0,4166.923,0,0
732,110,0,3392,4173.462,4230.255999999999,4174.231,4233.205,4204.359,4183.718,4214.231,4189.872,4221.026,4198.333,4218.205,4185.513,4265.769,4177.564,0,0
733,111,0,3409,4172.564,4236.41,4177.692,4238.846,4217.692,4186.667,4214.487,4194.359,4212.692,4191.795,4221.795,4189.359,4239.744000000001,4182.692,0,0
734,112,0,2987,4157.436,4230.769,4165.0,4229.872,4203.718,4169.359,4192.564,4180.0,4187.821,4171.795,4215.897,4176.154,4187.436,4164.103,0,0
735,113,0,3129,4152.564,4226.795,4162.692,4227.564,4192.9490000000005,4168.333,4202.436,4182.821,4196.026,4166.795,4213.718,4169.872,4188.59,4159.103,0,0
736,114,0,3392,4154.487,4230.0,4168.333,4234.744000000001,4199.872,4189.103,4225.513,4188.59,4201.026,4167.821,4209.487,4174.744000000001,4191.026,4167.179,0,0
737,115,0,3409,4157.179,4236.41,4170.0,4235.769,4207.436,4198.205,4217.179,4180.641,4187.9490000000005,4171.538,4205.513,4176.923,4181.154,4165.385,0,0
738,116,0,2987,4154.615,4231.154,4163.59,4224.231,4197.9490000000005,4181.795,4191.154,4170.128,4184.231,4166.538,4199.359,4166.923,4187.436,4153.205,0,0
739,117,0,3129,4140.641,4210.0,4144.872,4205.0,4177.308,4160.513,4177.436,4156.282,4176.795,4147.564,4184.744000000001,4151.795,4177.564,4138.462,0,0
740,118,0,3392,4132.436,4203.718,4139.744000000001,4198.718,4173.462,4162.564,4180.0,4150.128,4166.41,4145.385,4179.103,4147.9490000000005,4167.9490000000005,4135.128,0,0
741,119,0,3409,4138.462,4209.359,4153.846,4203.846,4183.846,4170.255999999999,4182.692,4162.0509999999995,4176.41,4160.641,4186.41,4154.872,4183.333,4142.692,0,0
742,120,0,2987,4138.974,4205.641,4155.513,4203.59,4181.41,4158.59,4180.641,4169.231,4184.103,4161.538,4187.308,4155.128,4190.513,4142.0509999999995,0,0
743,121,0,3129,4136.923,4209.615,4150.255999999999,4207.308,4180.641,4153.718,4179.487,4166.795,4174.744000000001,4153.59,4181.667,4150.513,4184.103,4137.821,0,0
744,122,0,3392,4142.692,4223.974,4155.128,4213.077,4188.333,4164.744000000001,4176.538,4166.026,4173.974,4157.564,4185.128,4154.487,4183.59,4144.487,0,0
745,123,0,3409,4136.41,4212.821,4154.231,4201.795,4179.744000000001,4160.769,4169.231,4160.513,4176.026,4155.897,4185.769,4152.564,4179.103,4142.692,0,0
746,124,0,2987,4122.564,4196.41,4148.846,4192.308,4166.41,4152.0509999999995,4169.487,4152.179,4168.846,4140.641,4173.974,4144.231,4170.128,4126.667,0,0
747,125,0,3129,4121.667,4207.564,4151.923,4205.769,4171.538,4160.385,4181.282,4155.641,4167.564,4138.718,4167.564,4145.641,4168.846,4123.077,0,0
748,126,0,3392,4128.333,4216.795,4155.255999999999,4217.821,4181.026,4168.718,4187.308,4164.359,4172.436,4146.667,4178.59,4153.333,4168.718,4133.846,0,0
749,127,0,52,4142.821,4221.282,4163.205,4218.718,4188.205,4171.923,4188.205,4169.615,4172.9490000000005,4142.821,4188.974,4162.179,4176.154,4148.205,0,0
750,0,0,3155,4156.282,4230.513,4173.974,4220.255999999999,4191.923,4172.308,4187.179,4172.0509999999995,4172.692,4140.385,4186.795,4170.513,4183.205,4157.821,0,0
751,1,0,2892,4150.641,4230.255999999999,4170.641,4220.255999999999,4186.026,4169.103,4183.205,4168.846,4171.923,4147.692,4184.231,4168.462,4177.9490000000005,4156.41,0,0
752,2,0,3454,4147.564,4228.462,4166.667,4220.897,4186.667,4172.692,4185.0,4165.769,4169.487,4153.333,4188.205,4161.154,4174.487,4155.641,0,0
