,COUNTER, INTERPOLATED, RAW_CQ, AF3, F7, F3, FC5, T7, P7, O1, O2, P8, T8, FC6, F4, F8, AF4, MARKER_HARDWARE, MARKER
0,103,0,3397,4256.154,4243.846,4262.436,4259.103,4265.255999999999,4271.154,4277.692,4263.077,4267.9490000000005,4238.846,4274.359,4240.255999999999,4265.769,4272.692,0,0
1,104,0,2955,4234.359,4221.282,4236.923,4238.333,4239.744000000001,4241.667,4264.359,4245.897,4253.205,4214.359,4250.128,4215.769,4242.564,4246.154,0,0
2,105,0,3161,4215.385,4201.538,4219.359,4221.923,4224.359,4203.59,4246.41,4231.795,4240.641,4201.923,4223.718,4194.615,4212.564,4223.077,0,0
3,106,0,3399,4221.41,4210.255999999999,4228.59,4228.333,4244.359,4193.846,4256.538,4254.487,4255.128,4220.769,4230.385,4204.872,4219.615,4235.513,0,0
4,107,0,3397,4233.462,4219.615,4236.282,4232.821,4253.846,4188.205,4272.179,4284.872,4274.872,4239.615,4241.667,4218.846,4227.692,4248.718,0,0
5,108,0,2955,4229.872,4213.59,4231.538,4223.718,4233.846,4177.0509999999995,4253.846,4277.308,4267.9490000000005,4240.0,4235.0,4215.385,4215.0,4241.538,0,0
6,109,0,3161,4218.077,4206.026,4220.641,4212.436,4215.769,4195.385,4224.615,4237.436,4235.385,4222.0509999999995,4224.615,4205.128,4219.744000000001,4232.9490000000005,0,0
7,110,0,3399,4203.59,4203.077,4206.667,4202.564,4217.564,4225.769,4217.0509999999995,4218.462,4219.359,4202.9490000000005,4208.718,4190.897,4233.718,4218.718,0,0
8,111,0,3397,4195.513,4196.667,4201.282,4200.513,4215.513,4226.41,4218.462,4230.897,4228.333,4201.538,4197.692,4181.154,4230.128,4203.205,0,0
9,112,0,2955,4205.513,4189.359,4208.205,4203.333,4199.615,4212.692,4209.872,4221.923,4219.744000000001,4205.0,4201.923,4186.538,4221.667,4205.255999999999,0,0
10,113,0,3161,4215.513,4198.205,4226.923,4213.846,4216.923,4219.103,4213.077,4203.846,4213.462,4212.179,4213.974,4199.231,4225.385,4213.077,0,0
11,114,0,3399,4238.59,4237.564,4256.026,4245.385,4270.769,4255.385,4246.154,4241.795,4255.513,4253.077,4243.718,4227.436,4254.231,4236.282,0,0
12,115,0,3397,4271.154,4270.255999999999,4274.487,4270.513,4294.359,4272.308,4262.308,4274.615,4283.59,4273.077,4267.564,4252.308,4282.0509999999995,4270.0,0,0
13,116,0,2955,4264.103,4256.41,4264.103,4260.897,4275.128,4252.821,4243.718,4253.59,4265.385,4250.385,4260.0,4239.487,4272.179,4272.821,0,0
14,117,0,3161,4250.385,4248.333,4262.564,4261.154,4285.641,4260.513,4261.667,4257.564,4265.255999999999,4270.641,4267.821,4231.154,4260.255999999999,4268.333,0,0
15,118,0,3399,4270.255999999999,4268.846,4278.59,4287.0509999999995,4299.231,4283.333,4300.0,4285.641,4279.103,4302.692,4295.128,4250.128,4268.846,4286.923,0,0
16,119,0,3397,4262.308,4257.564,4264.103,4280.0,4261.41,4254.615,4269.744000000001,4262.179,4255.0,4270.128,4283.59,4240.0,4248.077,4276.154,0,0
17,120,0,2955,4210.385,4208.846,4225.0,4239.359,4236.795,4217.308,4216.538,4210.769,4213.718,4217.9490000000005,4238.974,4193.974,4196.538,4221.41,0,0
18,121,0,3161,4196.923,4191.923,4219.615,4226.923,4256.154,4236.667,4231.154,4213.59,4213.077,4208.846,4229.359,4182.821,4186.667,4203.333,0,0
19,122,0,3399,4193.333,4192.179,4217.436,4223.59,4246.795,4236.667,4243.974,4218.59,4220.128,4199.487,4237.308,4185.641,4188.974,4206.026,0,0
20,123,0,3397,4185.513,4197.179,4211.154,4221.538,4228.846,4212.821,4230.897,4205.897,4221.667,4204.231,4241.923,4180.385,4194.103,4210.128,0,0
21,124,0,2955,4224.487,4229.487,4241.923,4247.308,4259.359,4238.846,4254.744000000001,4233.462,4246.538,4245.385,4275.513,4208.462,4247.9490000000005,4249.359,0,0
22,125,0,3161,4266.026,4261.795,4278.846,4276.154,4292.821,4267.0509999999995,4283.333,4271.667,4271.923,4275.641,4324.872,4251.154,4291.795,4292.0509999999995,0,0
23,126,0,3399,4281.41,4281.795,4294.103,4292.179,4306.282,4273.205,4288.205,4285.897,4285.0,4304.487,4344.744000000001,4266.923,4291.282,4306.538,0,0
24,127,0,52,4290.385,4297.436,4301.154,4308.077,4316.538,4293.846,4300.128,4289.872,4286.154,4317.821,4333.718,4263.462,4290.128,4307.564,0,0
25,0,0,3154,4290.128,4299.231,4303.846,4315.769,4322.436,4306.282,4312.692,4288.846,4283.205,4306.923,4336.154,4264.103,4286.282,4310.513,0,0
26,1,0,2825,4289.744000000001,4295.897,4306.41,4311.923,4329.231,4298.333,4308.974,4281.282,4294.359,4313.59,4352.308,4271.154,4277.564,4315.255999999999,0,0
27,2,0,3467,4297.179,4301.667,4311.538,4312.564,4327.9490000000005,4300.255999999999,4305.0,4282.821,4295.0,4319.359,4350.641,4276.667,4287.821,4319.615,0,0
28,3,0,3453,4267.436,4279.359,4286.923,4297.308,4297.9490000000005,4285.255999999999,4287.436,4263.718,4251.154,4269.103,4311.667,4250.385,4269.359,4291.795,0,0
29,4,0,3545,4239.872,4257.308,4267.821,4282.179,4281.026,4268.205,4282.9490000000005,4242.692,4239.103,4242.9490000000005,4288.974,4230.0,4241.026,4267.0509999999995,0,0
30,5,0,2986,4268.462,4282.436,4293.205,4296.154,4308.846,4284.744000000001,4316.282,4263.333,4281.154,4295.255999999999,4320.641,4258.59,4271.667,4295.897,0,0
31,6,0,2949,4275.641,4294.744000000001,4301.41,4299.615,4325.897,4286.538,4321.923,4275.0,4283.59,4298.333,4327.308,4271.41,4289.359,4303.718,0,0
32,7,0,3463,4259.744000000001,4284.103,4289.872,4294.487,4313.846,4280.385,4302.436,4271.154,4270.128,4257.308,4295.385,4255.385,4274.103,4281.667,0,0
33,8,0,2874,4267.179,4274.231,4289.359,4292.0509999999995,4299.872,4290.385,4300.769,4274.872,4276.538,4263.077,4281.923,4253.205,4281.667,4278.974,0,0
34,9,0,3601,4259.103,4263.077,4279.615,4277.821,4295.897,4282.564,4293.462,4264.487,4263.59,4271.026,4267.308,4249.231,4282.564,4275.385,0,0
35,10,0,3383,4234.487,4265.0,4265.0,4271.667,4295.641,4271.154,4277.0509999999995,4247.564,4256.154,4254.231,4236.282,4230.769,4263.205,4261.538,0,0
36,11,0,3386,4241.154,4280.769,4266.795,4280.385,4295.385,4282.9490000000005,4278.333,4254.487,4280.0,4250.513,4235.128,4233.462,4268.462,4265.513,0,0
37,12,0,2946,4241.026,4265.0,4257.564,4267.308,4282.308,4273.462,4269.872,4246.026,4273.462,4237.9490000000005,4231.282,4233.846,4264.231,4256.41,0,0
38,13,0,3152,4206.667,4232.564,4231.667,4242.0509999999995,4254.487,4248.077,4244.872,4212.9490000000005,4230.897,4201.154,4198.718,4208.077,4233.846,4218.462,0,0
39,14,0,3383,4190.255999999999,4230.641,4226.795,4244.872,4244.615,4251.154,4239.744000000001,4205.255999999999,4216.282,4189.744000000001,4188.077,4194.744000000001,4229.487,4209.487,0,0
40,15,0,3386,4203.846,4236.795,4237.821,4258.333,4251.667,4260.255999999999,4248.59,4222.436,4239.103,4207.821,4195.128,4202.692,4245.513,4225.641,0,0
41,16,0,0,4186.026,4210.0,4216.282,4239.231,4227.179,4236.154,4225.0,4203.205,4232.564,4182.821,4172.179,4184.103,4223.718,4199.487,0,0
42,17,0,0,4137.436,4169.872,4177.9490000000005,4206.026,4189.231,4198.846,4182.436,4155.255999999999,4186.923,4117.436,4138.59,4141.667,4181.538,4155.385,0,0
43,18,0,0,4140.641,4178.333,4188.077,4217.179,4205.128,4205.641,4191.923,4160.0,4183.462,4118.205,4143.974,4142.9490000000005,4188.205,4169.103,0,0
44,19,0,0,4170.255999999999,4204.103,4208.718,4238.333,4228.205,4228.846,4225.0,4184.872,4212.821,4166.538,4155.0,4164.103,4208.846,4195.641,0,0
45,20,0,0,4170.385,4197.179,4195.513,4226.667,4212.821,4227.308,4226.41,4181.026,4218.077,4169.103,4146.282,4157.308,4206.795,4182.0509999999995,0,0
46,21,0,0,4154.103,4180.513,4175.128,4213.59,4201.795,4209.615,4207.308,4164.872,4191.026,4131.026,4131.795,4136.538,4197.179,4160.0,0,0
47,22,0,0,4132.179,4167.436,4165.641,4205.385,4193.846,4195.128,4197.692,4154.359,4166.41,4120.0,4114.872,4121.41,4183.333,4144.872,0,0
48,23,0,0,4129.103,4175.0,4173.974,4202.308,4188.077,4208.59,4210.255999999999,4170.128,4187.564,4149.103,4125.128,4133.718,4193.077,4146.154,0,0
49,24,0,0,4151.154,4195.128,4186.282,4215.385,4205.513,4227.692,4222.564,4190.128,4218.59,4170.897,4148.59,4154.103,4219.103,4156.026,0,0
50,25,0,0,4160.255999999999,4190.255999999999,4177.692,4216.667,4217.179,4220.897,4215.385,4181.026,4205.0,4168.974,4140.641,4147.9490000000005,4218.846,4152.821,0,0
51,26,0,0,4161.026,4188.59,4175.385,4211.538,4219.872,4219.872,4220.897,4184.872,4200.897,4187.0509999999995,4137.308,4144.744000000001,4217.436,4166.795,0,0
52,27,0,0,4191.154,4227.179,4207.308,4232.692,4250.897,4246.026,4251.667,4230.385,4247.308,4235.897,4176.41,4176.154,4256.282,4209.744000000001,0,0
53,28,0,0,4190.385,4229.487,4208.846,4230.513,4255.897,4245.513,4241.282,4222.9490000000005,4248.077,4230.897,4177.9490000000005,4177.179,4266.282,4203.974,0,0
54,29,0,0,4155.513,4187.692,4181.41,4199.359,4211.795,4217.564,4207.821,4177.436,4207.0509999999995,4197.821,4141.41,4149.487,4232.9490000000005,4163.974,0,0
55,30,0,0,4183.205,4213.333,4206.41,4221.923,4222.436,4231.923,4230.641,4214.487,4233.974,4240.641,4165.128,4179.615,4257.436,4189.359,0,0
56,31,0,0,4228.077,4267.179,4246.026,4264.872,4266.795,4262.821,4261.538,4259.615,4273.333,4287.9490000000005,4201.538,4221.41,4305.641,4234.103,0,0
57,32,0,0,4211.795,4252.821,4236.538,4253.333,4252.692,4252.436,4245.0,4232.564,4257.692,4266.795,4185.897,4210.128,4293.205,4223.205,0,0
58,33,0,0,4184.103,4217.308,4210.0,4222.308,4226.154,4231.154,4222.308,4207.564,4244.231,4242.564,4164.872,4184.615,4260.0,4195.128,0,0
59,34,0,0,4185.255999999999,4214.487,4201.667,4215.513,4225.513,4235.513,4225.128,4213.846,4239.103,4235.897,4158.333,4174.231,4256.667,4182.179,0,0
60,35,0,0,4186.667,4216.667,4204.615,4216.923,4224.615,4244.872,4236.154,4218.974,4224.103,4222.0509999999995,4155.128,4173.077,4266.923,4178.974,0,0
61,36,0,0,4176.795,4206.154,4201.154,4212.692,4218.462,4237.564,4238.462,4219.744000000001,4223.974,4227.308,4148.846,4172.821,4266.667,4177.821,0,0
62,37,0,0,4161.282,4190.0,4182.692,4195.769,4195.641,4220.513,4218.462,4196.538,4215.255999999999,4221.282,4122.436,4156.026,4249.487,4159.103,0,0
63,38,0,0,4147.692,4179.872,4169.487,4179.359,4171.41,4214.359,4196.923,4166.026,4191.538,4181.282,4109.103,4139.872,4226.41,4138.974,0,0
64,39,0,0,4155.641,4192.308,4186.026,4187.0509999999995,4193.205,4227.179,4210.385,4188.205,4207.692,4192.179,4134.231,4156.923,4232.821,4153.333,0,0
65,40,0,0,4157.692,4197.564,4190.769,4190.0,4205.128,4229.615,4221.282,4207.9490000000005,4229.872,4229.487,4133.077,4160.385,4246.026,4158.077,0,0
66,41,0,0,4142.436,4183.205,4171.154,4172.179,4169.615,4213.846,4200.385,4176.923,4205.641,4210.0,4103.59,4135.897,4236.795,4135.255999999999,0,0
67,42,0,0,4149.103,4180.769,4175.513,4167.692,4165.0,4214.231,4192.692,4167.308,4189.615,4189.872,4110.897,4141.026,4236.154,4141.282,0,0
68,43,0,0,4162.0509999999995,4178.59,4184.615,4172.9490000000005,4179.872,4218.333,4202.9490000000005,4185.769,4200.897,4200.255999999999,4124.615,4152.179,4242.308,4155.0,0,0
69,44,0,0,4154.359,4168.462,4173.974,4168.462,4168.846,4209.359,4198.846,4184.231,4209.487,4206.538,4115.769,4142.308,4236.282,4140.0,0,0
70,45,0,0,4153.846,4178.59,4172.436,4168.59,4173.846,4212.692,4195.769,4182.308,4216.026,4210.641,4116.41,4146.282,4235.897,4135.769,0,0
71,46,0,0,4157.821,4189.103,4174.103,4168.333,4180.769,4217.179,4199.487,4184.872,4209.615,4204.615,4114.615,4150.769,4235.769,4143.846,0,0
72,47,0,0,4157.436,4183.974,4173.462,4170.641,4166.154,4215.385,4202.436,4180.769,4192.9490000000005,4194.744000000001,4112.179,4144.103,4228.462,4145.641,0,0
73,48,0,0,4163.59,4190.513,4189.103,4183.59,4169.103,4222.308,4207.692,4188.205,4200.641,4217.692,4131.923,4155.128,4235.128,4157.821,0,0
74,49,0,0,4159.103,4192.9490000000005,4189.359,4179.872,4171.026,4217.692,4199.359,4183.333,4206.154,4225.0,4131.41,4157.0509999999995,4235.641,4157.9490000000005,0,0
75,50,0,0,4147.308,4179.744000000001,4168.462,4163.718,4148.59,4201.41,4180.128,4157.692,4183.846,4192.0509999999995,4104.231,4135.385,4216.41,4135.513,0,0
76,51,0,0,4155.897,4180.897,4172.821,4166.026,4147.179,4200.0,4181.795,4154.231,4176.667,4189.103,4098.59,4138.846,4210.385,4136.282,0,0
77,52,0,0,4163.333,4189.615,4193.077,4172.9490000000005,4163.333,4207.821,4198.59,4172.0509999999995,4193.462,4209.744000000001,4117.9490000000005,4159.744000000001,4221.41,4152.9490000000005,0,0
78,53,0,0,4148.718,4178.718,4194.359,4169.103,4157.179,4204.487,4198.077,4175.255999999999,4194.487,4200.769,4121.154,4157.9490000000005,4221.667,4144.615,0,0
79,54,0,0,4141.667,4163.077,4185.513,4167.179,4145.769,4192.179,4181.154,4156.795,4175.641,4175.513,4103.974,4147.564,4210.513,4128.333,0,0
80,55,0,0,4160.255999999999,4176.41,4191.154,4171.026,4158.462,4194.359,4186.154,4157.564,4178.077,4186.795,4112.821,4161.282,4221.154,4143.462,0,0
81,56,0,0,4151.41,4172.436,4179.231,4154.487,4155.128,4186.538,4186.026,4158.333,4183.333,4206.538,4122.179,4156.795,4218.718,4144.359,0,0
82,57,0,0,4116.923,4139.103,4143.974,4128.59,4119.359,4160.255999999999,4158.462,4132.436,4164.103,4181.795,4095.256,4120.513,4186.154,4111.795,0,0
83,58,0,0,4138.846,4158.974,4156.795,4143.462,4123.077,4177.179,4172.9490000000005,4150.0,4178.333,4184.744000000001,4107.0509999999995,4134.872,4203.59,4127.821,0,0
84,59,0,0,4184.487,4209.872,4200.897,4178.205,4168.333,4218.462,4218.077,4206.154,4224.487,4236.41,4155.897,4180.255999999999,4257.179,4172.821,0,0
85,60,0,0,4167.308,4204.872,4190.641,4174.744000000001,4173.846,4213.462,4213.59,4202.821,4219.744000000001,4239.487,4143.846,4167.692,4255.385,4164.487,0,0
86,61,0,0,4132.564,4176.667,4150.897,4150.0,4135.128,4189.359,4187.692,4163.333,4184.359,4196.41,4104.615,4129.615,4223.205,4133.59,0,0
87,62,0,0,4143.846,4180.385,4155.128,4145.641,4125.128,4195.513,4195.255999999999,4174.744000000001,4191.795,4200.255999999999,4117.179,4136.154,4225.769,4140.128,0,0
88,63,0,0,4157.692,4190.385,4174.872,4156.41,4159.744000000001,4208.333,4203.59,4192.821,4213.974,4232.821,4136.667,4156.026,4239.231,4153.077,0,0
89,64,0,3166,4141.795,4185.769,4165.385,4154.231,4172.9490000000005,4200.128,4185.385,4171.667,4202.0509999999995,4220.513,4126.282,4144.744000000001,4233.462,4140.513,0,0
90,65,0,2841,4128.846,4184.103,4148.718,4142.564,4143.974,4186.282,4171.923,4161.026,4184.487,4197.0509999999995,4117.821,4128.333,4220.513,4131.795,0,0
91,66,0,3474,4140.385,4189.615,4154.744000000001,4148.077,4131.026,4184.615,4180.641,4173.333,4186.923,4200.769,4121.41,4135.897,4218.077,4139.359,0,0
92,67,0,3464,4166.282,4203.205,4179.872,4168.974,4160.385,4199.487,4201.923,4187.436,4206.923,4221.923,4135.385,4158.974,4241.282,4156.667,0,0
93,68,0,3575,4175.769,4211.667,4187.564,4172.179,4175.897,4205.255999999999,4207.9490000000005,4192.9490000000005,4218.462,4232.564,4148.59,4159.744000000001,4257.821,4164.744000000001,0,0
94,69,0,3001,4174.487,4211.795,4180.641,4165.641,4168.077,4201.282,4199.872,4194.359,4209.103,4230.385,4150.385,4150.641,4249.231,4166.154,0,0
95,70,0,2972,4183.718,4214.359,4190.897,4172.692,4176.154,4211.795,4205.513,4201.026,4213.59,4235.513,4155.255999999999,4165.769,4247.9490000000005,4175.897,0,0
96,71,0,3474,4200.385,4226.026,4213.718,4184.231,4196.923,4231.026,4227.564,4219.103,4235.513,4249.872,4166.154,4186.667,4261.538,4192.436,0,0
97,72,0,2867,4209.103,4237.692,4222.9490000000005,4191.41,4207.436,4238.974,4239.103,4234.615,4242.179,4262.0509999999995,4175.513,4191.923,4268.205,4206.026,0,0
98,73,0,3597,4199.615,4228.462,4212.9490000000005,4185.255999999999,4190.513,4224.744000000001,4221.667,4223.718,4231.282,4255.255999999999,4167.436,4182.9490000000005,4255.0,4198.205,0,0
99,74,0,3394,4196.667,4219.744000000001,4214.872,4178.59,4173.077,4220.128,4213.59,4208.462,4226.538,4245.641,4161.538,4183.718,4243.205,4192.308,0,0
100,75,0,3400,4216.41,4235.255999999999,4231.538,4192.821,4184.615,4236.154,4231.538,4220.0,4231.026,4248.333,4177.308,4199.103,4254.359,4210.513,0,0
101,76,0,2959,4223.59,4240.641,4237.436,4203.974,4193.077,4234.615,4236.795,4235.255999999999,4230.897,4251.667,4188.974,4206.41,4266.282,4221.538,0,0
102,77,0,3161,4212.564,4230.128,4236.282,4197.564,4190.128,4222.564,4225.897,4231.923,4229.615,4255.897,4185.255999999999,4208.077,4260.769,4214.744000000001,0,0
103,78,0,3394,4223.205,4237.0509999999995,4246.154,4197.179,4199.872,4228.462,4228.077,4232.179,4235.0,4263.59,4183.462,4215.128,4262.564,4216.41,0,0
104,79,0,3400,4238.333,4247.308,4251.923,4205.641,4201.282,4238.59,4242.308,4244.744000000001,4241.538,4266.282,4189.615,4220.255999999999,4275.769,4223.846,0,0
105,80,0,2959,4225.0,4233.718,4241.154,4203.718,4187.564,4236.667,4248.462,4246.154,4244.872,4259.231,4185.513,4212.179,4271.282,4211.795,0,0
106,81,0,3161,4213.462,4228.205,4236.795,4196.795,4194.231,4232.0509999999995,4242.9490000000005,4239.487,4245.513,4257.308,4170.641,4201.795,4259.231,4196.667,0,0
107,82,0,3394,4221.282,4244.872,4241.667,4200.0,4207.564,4230.385,4237.308,4245.128,4240.769,4256.026,4166.795,4201.282,4268.846,4200.769,0,0
108,83,0,3400,4217.179,4247.9490000000005,4239.744000000001,4204.103,4191.795,4231.795,4239.487,4251.154,4233.205,4255.897,4178.205,4203.974,4273.333,4205.769,0,0
109,84,0,2959,4199.615,4230.385,4228.974,4195.255999999999,4174.487,4230.897,4238.205,4239.103,4228.974,4258.077,4180.0,4195.769,4251.154,4193.333,0,0
110,85,0,3161,4198.077,4231.026,4222.436,4192.0509999999995,4192.9490000000005,4230.769,4227.9490000000005,4231.026,4231.154,4261.026,4171.41,4190.513,4250.385,4190.641,0,0
111,86,0,3394,4210.0,4248.718,4221.538,4197.821,4211.923,4233.333,4218.333,4237.436,4235.0,4264.359,4172.179,4195.769,4275.385,4200.641,0,0
112,87,0,3400,4207.0509999999995,4241.41,4212.436,4191.538,4187.692,4222.9490000000005,4211.923,4227.436,4229.615,4253.205,4165.385,4185.0,4271.154,4192.9490000000005,0,0
113,88,0,2959,4187.9490000000005,4218.846,4201.923,4177.821,4169.359,4210.385,4214.872,4209.231,4224.103,4231.667,4152.179,4169.487,4250.641,4177.564,0,0
114,89,0,3161,4166.154,4211.667,4190.641,4165.255999999999,4182.0509999999995,4212.9490000000005,4214.103,4201.41,4221.154,4221.923,4151.538,4162.179,4243.974,4169.487,0,0
115,90,0,3394,4162.179,4213.333,4180.769,4156.026,4186.667,4214.872,4204.487,4196.795,4215.769,4234.231,4152.692,4153.846,4245.255999999999,4164.615,0,0
116,91,0,3400,4185.513,4221.41,4189.872,4166.41,4190.0,4215.128,4207.9490000000005,4200.897,4218.59,4251.795,4155.0,4161.795,4262.308,4176.923,0,0
117,92,0,2959,4203.077,4235.641,4219.487,4191.923,4193.077,4221.667,4227.692,4215.513,4230.897,4261.538,4172.308,4190.128,4281.795,4199.359,0,0
118,93,0,3161,4209.231,4242.821,4250.385,4210.255999999999,4187.308,4230.128,4244.744000000001,4228.974,4241.154,4271.282,4193.846,4212.692,4279.231,4208.718,0,0
119,94,0,3394,4233.718,4257.179,4267.308,4220.255999999999,4211.538,4241.923,4248.333,4248.205,4256.154,4290.385,4209.487,4230.513,4289.744000000001,4226.282,0,0
120,95,0,3400,4256.026,4280.385,4256.538,4212.692,4244.744000000001,4250.255999999999,4238.077,4267.436,4269.103,4307.9490000000005,4220.513,4230.897,4315.769,4248.333,0,0
121,96,0,2959,4246.026,4283.205,4225.641,4195.897,4240.769,4245.255999999999,4222.692,4267.821,4266.923,4312.692,4217.308,4201.41,4313.077,4245.0,0,0
122,97,0,3161,4245.0,4288.077,4226.154,4209.487,4243.846,4245.897,4231.923,4273.333,4274.359,4321.667,4215.385,4200.641,4312.308,4250.769,0,0
123,98,0,3394,4258.077,4299.103,4249.359,4227.308,4252.436,4253.462,4249.744000000001,4280.769,4281.538,4324.872,4227.179,4228.59,4321.41,4264.103,0,0
124,99,0,3400,4250.641,4284.103,4246.282,4213.462,4235.641,4246.154,4243.718,4261.154,4261.026,4307.9490000000005,4226.795,4222.9490000000005,4297.308,4247.308,0,0
125,100,0,2959,4257.821,4281.667,4250.769,4218.974,4245.513,4243.333,4248.462,4263.077,4260.769,4307.564,4228.59,4219.359,4288.59,4248.974,0,0
126,101,0,3161,4293.077,4316.667,4283.974,4256.41,4286.282,4270.769,4277.179,4305.385,4295.128,4331.41,4254.872,4257.564,4334.103,4291.154,0,0
127,102,0,3394,4300.897,4326.538,4294.359,4263.333,4293.718,4292.9490000000005,4288.974,4318.59,4304.103,4349.103,4268.462,4274.615,4355.513,4305.641,0,0
128,103,0,3400,4280.513,4307.308,4274.103,4243.59,4273.333,4288.205,4276.667,4303.333,4297.436,4356.923,4265.385,4249.872,4329.231,4289.359,0,0
129,104,0,2959,4277.436,4310.0,4271.026,4243.846,4279.231,4282.692,4271.795,4314.359,4317.0509999999995,4360.385,4275.385,4242.9490000000005,4325.255999999999,4292.0509999999995,0,0
130,105,0,3161,4281.41,4317.9490000000005,4280.255999999999,4250.897,4297.436,4284.744000000001,4275.513,4328.462,4321.795,4357.821,4278.59,4255.0,4348.333,4301.667,0,0
131,106,0,3394,4275.769,4309.103,4267.436,4244.359,4282.0509999999995,4279.103,4270.255999999999,4311.923,4290.769,4355.0,4261.795,4247.821,4352.692,4292.9490000000005,0,0
132,107,0,3400,4276.667,4304.615,4254.103,4241.154,4262.308,4273.974,4266.795,4297.0509999999995,4281.154,4359.103,4259.103,4238.077,4341.795,4284.487,0,0
133,108,0,2959,4278.333,4305.897,4266.154,4250.128,4277.821,4280.769,4269.744000000001,4294.231,4293.974,4356.667,4263.077,4243.333,4327.821,4285.513,0,0
134,109,0,3161,4285.769,4311.538,4290.385,4267.9490000000005,4296.026,4289.487,4277.436,4300.769,4291.667,4343.59,4266.923,4256.282,4322.821,4294.487,0,0
135,110,0,3394,4307.9490000000005,4327.564,4305.255999999999,4290.385,4297.564,4293.846,4288.462,4320.769,4297.308,4342.0509999999995,4293.462,4274.872,4337.821,4314.487,0,0
136,111,0,3400,4324.359,4340.255999999999,4310.513,4308.205,4308.462,4301.41,4301.667,4336.282,4317.0509999999995,4357.308,4318.718,4290.769,4350.897,4331.282,0,0
137,112,0,2959,4337.0509999999995,4354.359,4327.9490000000005,4327.179,4333.205,4319.487,4316.795,4350.385,4332.821,4380.513,4328.718,4302.179,4366.41,4345.897,0,0
138,113,0,3161,4335.0,4355.128,4329.872,4331.026,4327.564,4317.821,4309.872,4346.923,4328.846,4375.385,4324.359,4298.718,4378.333,4342.564,0,0
139,114,0,3394,4310.0,4329.487,4301.923,4318.974,4289.744000000001,4290.897,4297.821,4313.462,4311.667,4343.846,4305.128,4278.718,4353.718,4318.205,0,0
140,115,0,3400,4324.615,4334.615,4308.333,4332.564,4300.385,4301.41,4321.282,4316.667,4317.308,4352.179,4313.205,4288.59,4342.308,4328.846,0,0
141,116,0,2959,4366.923,4370.0,4345.255999999999,4358.333,4353.333,4334.103,4345.641,4355.255999999999,4336.538,4392.692,4343.077,4322.564,4379.231,4365.513,0,0
142,117,0,3161,4355.385,4366.026,4340.255999999999,4353.462,4356.154,4322.179,4327.9490000000005,4353.077,4332.0509999999995,4388.59,4339.615,4322.179,4388.333,4358.59,0,0
143,118,0,3394,4327.308,4342.308,4316.538,4344.487,4326.026,4302.308,4312.436,4329.231,4320.385,4356.026,4319.872,4303.462,4357.564,4332.0509999999995,0,0
144,119,0,3400,4343.718,4354.231,4328.59,4356.026,4337.179,4323.974,4331.923,4338.333,4326.026,4363.974,4328.846,4312.692,4356.026,4343.59,0,0
145,120,0,2959,4356.923,4369.615,4339.487,4360.769,4355.897,4339.615,4336.41,4352.9490000000005,4328.333,4368.974,4342.0509999999995,4323.846,4370.0,4358.077,0,0
146,121,0,3161,4347.436,4366.795,4334.744000000001,4361.923,4348.846,4327.564,4326.282,4357.179,4328.333,4342.0509999999995,4339.872,4322.0509999999995,4366.923,4355.0,0,0
147,122,0,3394,4338.974,4358.205,4333.974,4365.641,4338.59,4322.564,4329.487,4356.795,4337.9490000000005,4342.308,4331.026,4317.692,4362.308,4350.0,0,0
148,123,0,3400,4335.128,4353.205,4330.128,4356.154,4338.974,4328.333,4326.667,4351.154,4340.128,4374.615,4323.077,4308.974,4364.487,4343.974,0,0
149,124,0,2959,4353.59,4368.333,4335.0,4355.641,4354.103,4340.128,4325.769,4359.615,4342.821,4398.59,4333.846,4318.718,4385.255999999999,4356.282,0,0
150,125,0,3161,4373.333,4374.872,4346.154,4363.59,4351.154,4345.0,4337.692,4368.077,4351.538,4390.513,4352.564,4339.103,4401.282,4373.718,0,0
151,126,0,3394,4364.359,4356.538,4343.205,4349.872,4334.231,4331.538,4336.154,4360.769,4348.59,4373.077,4355.513,4336.154,4384.359,4365.641,0,0
152,127,0,52,4354.103,4353.205,4338.077,4339.231,4344.872,4326.026,4319.359,4357.308,4339.487,4383.333,4351.667,4325.128,4375.128,4356.154,0,0
153,0,0,3157,4357.564,4367.9490000000005,4346.41,4352.308,4365.769,4339.744000000001,4321.667,4360.385,4344.103,4403.333,4355.769,4330.897,4392.9490000000005,4365.513,0,0
154,1,0,2832,4354.487,4363.718,4350.769,4352.692,4360.0,4341.026,4332.0509999999995,4359.103,4351.538,4393.846,4361.154,4336.795,4398.718,4367.564,0,0
155,2,0,3466,4352.179,4353.846,4344.872,4339.487,4349.615,4326.923,4327.564,4358.333,4347.436,4385.641,4359.487,4333.333,4388.974,4357.692,0,0
156,3,0,3454,4358.462,4360.897,4341.923,4338.846,4352.821,4324.487,4324.487,4361.41,4343.846,4399.744000000001,4359.615,4331.282,4383.974,4356.282,0,0
157,4,0,3564,4352.9490000000005,4362.0509999999995,4341.923,4342.564,4343.974,4333.846,4329.487,4358.333,4342.9490000000005,4389.487,4360.641,4327.692,4376.282,4360.0,0,0
158,5,0,3003,4342.436,4353.718,4340.128,4343.205,4336.154,4337.0509999999995,4330.513,4351.154,4340.0,4378.462,4351.795,4317.692,4372.0509999999995,4357.0509999999995,0,0
159,6,0,2974,4340.513,4350.255999999999,4336.026,4343.333,4339.231,4328.846,4327.564,4349.615,4341.282,4396.923,4347.0509999999995,4312.179,4381.795,4352.308,0,0
160,7,0,3448,4337.179,4351.667,4331.41,4333.718,4337.308,4326.667,4326.282,4350.128,4338.59,4388.59,4354.615,4313.333,4381.282,4348.077,0,0
161,8,0,2859,4321.154,4340.255999999999,4313.205,4314.103,4329.615,4326.154,4316.282,4335.641,4325.897,4350.769,4344.744000000001,4300.128,4358.333,4331.154,0,0
162,9,0,3575,4309.487,4324.359,4294.872,4300.769,4327.564,4317.308,4306.41,4325.385,4320.769,4345.128,4320.897,4283.077,4343.846,4312.308,0,0
163,10,0,3383,4320.128,4332.564,4305.641,4307.0509999999995,4330.641,4320.0,4317.564,4339.615,4328.205,4365.385,4325.128,4291.538,4360.0,4321.41,0,0
164,11,0,3385,4329.744000000001,4346.538,4321.923,4320.128,4319.872,4324.615,4322.179,4345.769,4328.846,4370.128,4340.128,4304.103,4376.41,4337.9490000000005,0,0
165,12,0,2936,4319.231,4337.9490000000005,4314.359,4313.59,4304.487,4305.255999999999,4302.308,4322.436,4317.436,4360.0,4328.974,4294.744000000001,4364.744000000001,4325.128,0,0
166,13,0,3148,4309.487,4321.923,4302.692,4298.846,4309.615,4291.667,4293.846,4308.333,4311.667,4347.179,4317.564,4285.897,4351.667,4308.077,0,0
167,14,0,3383,4303.205,4314.359,4300.641,4296.538,4311.667,4297.692,4292.436,4311.667,4305.769,4333.077,4315.513,4284.872,4346.41,4308.205,0,0
168,15,0,3385,4292.436,4307.179,4295.0,4292.821,4299.615,4292.436,4279.487,4306.154,4295.255999999999,4328.846,4307.0509999999995,4277.308,4332.308,4305.513,0,0
169,16,0,0,4298.333,4311.026,4294.744000000001,4291.795,4301.538,4288.205,4286.282,4308.462,4302.308,4326.795,4313.974,4276.667,4332.692,4307.821,0,0
170,17,0,0,4302.564,4313.974,4300.769,4303.462,4307.0509999999995,4300.641,4306.41,4318.718,4316.282,4317.821,4331.282,4285.0,4345.0,4313.974,0,0
171,18,0,0,4276.154,4293.59,4292.308,4296.41,4291.154,4295.0,4295.128,4310.128,4301.795,4311.795,4315.897,4276.41,4326.538,4297.9490000000005,0,0
172,19,0,0,4272.179,4291.538,4291.923,4286.667,4294.872,4282.436,4288.462,4302.821,4284.231,4317.9490000000005,4297.9490000000005,4271.667,4307.9490000000005,4291.026,0,0
173,20,0,0,4312.436,4322.436,4314.359,4308.333,4324.359,4304.487,4318.462,4322.564,4303.974,4333.077,4323.974,4292.308,4335.769,4321.026,0,0
174,21,0,0,4331.538,4333.333,4327.692,4326.026,4325.385,4325.0,4328.718,4340.385,4329.359,4350.641,4346.667,4308.462,4354.231,4338.59,0,0
175,22,0,0,4310.897,4314.103,4312.692,4312.308,4298.718,4299.103,4295.385,4315.128,4312.821,4337.0509999999995,4326.154,4295.255999999999,4329.872,4316.41,0,0
176,23,0,0,4296.538,4302.9490000000005,4296.026,4298.846,4287.692,4276.923,4270.897,4291.154,4291.795,4304.487,4310.385,4281.026,4323.077,4304.231,0,0
177,24,0,0,4301.154,4303.718,4298.462,4296.538,4287.9490000000005,4280.641,4272.0509999999995,4304.231,4305.769,4318.077,4318.59,4285.769,4335.385,4315.385,0,0
178,25,0,0,4294.487,4291.026,4295.128,4288.205,4277.436,4267.9490000000005,4266.667,4297.821,4302.692,4326.795,4307.179,4275.513,4317.821,4303.59,0,0
179,26,0,0,4284.231,4281.795,4290.641,4286.026,4274.615,4260.128,4256.667,4267.308,4273.077,4290.513,4288.462,4259.231,4303.718,4283.205,0,0
180,27,0,0,4296.026,4300.128,4302.179,4295.385,4291.667,4286.795,4264.487,4278.333,4279.744000000001,4295.385,4299.872,4273.333,4322.179,4296.154,0,0
181,28,0,0,4297.9490000000005,4311.538,4304.615,4297.436,4298.846,4300.513,4273.846,4301.026,4296.154,4330.513,4314.487,4282.692,4325.897,4308.462,0,0
182,29,0,0,4279.872,4297.0509999999995,4291.026,4293.974,4295.0,4290.385,4275.0,4284.744000000001,4280.128,4316.795,4308.974,4265.769,4307.692,4292.308,0,0
183,30,0,0,4283.718,4294.744000000001,4291.795,4295.641,4295.641,4288.846,4273.718,4278.333,4276.923,4292.0509999999995,4309.744000000001,4267.692,4308.205,4291.923,0,0
184,31,0,0,4300.769,4302.564,4300.385,4297.308,4297.179,4288.077,4267.9490000000005,4295.385,4290.0,4311.538,4315.513,4283.718,4314.744000000001,4309.231,0,0
185,32,0,0,4295.385,4297.692,4292.9490000000005,4292.821,4293.205,4277.0509999999995,4262.308,4296.154,4279.487,4321.923,4309.615,4276.154,4307.0509999999995,4303.462,0,0
186,33,0,0,4293.462,4302.692,4291.795,4297.179,4283.462,4273.974,4267.821,4290.128,4270.641,4292.821,4313.333,4275.0,4306.795,4294.103,0,0
187,34,0,0,4299.103,4303.846,4298.333,4298.077,4277.436,4278.59,4269.615,4286.282,4279.103,4274.103,4319.615,4281.026,4311.667,4293.846,0,0
188,35,0,0,4288.974,4286.538,4297.0509999999995,4284.103,4278.333,4281.667,4266.026,4284.744000000001,4282.692,4299.231,4306.923,4272.821,4302.0509999999995,4287.9490000000005,0,0
189,36,0,0,4281.41,4284.359,4293.077,4278.462,4277.564,4279.744000000001,4262.436,4276.923,4272.9490000000005,4313.077,4292.9490000000005,4269.359,4292.0509999999995,4285.0,0,0
190,37,0,0,4282.0509999999995,4287.179,4283.205,4279.103,4277.308,4271.923,4250.897,4260.255999999999,4257.308,4293.59,4292.0509999999995,4268.077,4292.564,4283.974,0,0
191,38,0,0,4282.0509999999995,4283.59,4282.436,4275.128,4289.231,4275.385,4255.641,4266.795,4264.615,4297.564,4300.897,4266.667,4295.897,4284.487,0,0
192,39,0,0,4282.436,4288.59,4291.282,4270.641,4295.897,4282.564,4272.308,4281.282,4282.436,4295.641,4305.255999999999,4271.923,4294.231,4289.744000000001,0,0
193,40,0,0,4275.255999999999,4284.487,4284.872,4264.872,4286.026,4271.282,4261.538,4268.846,4270.897,4276.538,4298.462,4266.538,4294.487,4284.615,0,0
194,41,0,0,4272.308,4275.513,4276.538,4260.641,4277.436,4266.667,4244.359,4264.487,4257.564,4293.462,4292.692,4258.718,4303.846,4275.897,0,0
195,42,0,0,4284.103,4285.128,4286.154,4268.205,4279.103,4280.385,4250.0,4275.641,4265.641,4303.59,4297.564,4266.41,4307.436,4282.564,0,0
196,43,0,0,4277.308,4277.436,4279.103,4266.41,4276.923,4273.205,4248.846,4262.0509999999995,4262.821,4273.205,4292.821,4258.846,4285.641,4277.821,0,0
197,44,0,0,4268.077,4266.795,4267.821,4257.9490000000005,4275.641,4259.231,4245.769,4261.667,4262.564,4276.026,4289.615,4250.255999999999,4278.205,4267.436,0,0
198,45,0,0,4291.154,4294.872,4289.231,4272.179,4290.641,4276.026,4260.385,4289.744000000001,4281.795,4315.513,4311.538,4273.718,4305.255999999999,4285.385,0,0
199,46,0,0,4296.026,4303.974,4292.308,4278.59,4286.282,4280.128,4257.179,4278.846,4270.513,4318.077,4317.436,4276.026,4310.0,4293.205,0,0
200,47,0,0,4271.923,4277.821,4264.872,4261.795,4261.41,4258.077,4243.333,4251.795,4245.641,4297.564,4296.923,4249.359,4288.718,4272.436,0,0
201,48,0,0,4268.59,4273.974,4258.846,4250.128,4264.615,4260.128,4241.667,4262.692,4253.59,4283.974,4291.026,4246.154,4290.641,4263.974,0,0
202,49,0,0,4275.0,4283.59,4266.667,4249.872,4283.333,4275.255999999999,4237.692,4268.077,4262.179,4277.564,4295.513,4250.513,4301.795,4267.564,0,0
203,50,0,0,4262.564,4277.9490000000005,4262.0509999999995,4255.255999999999,4286.41,4267.308,4235.897,4254.615,4260.128,4279.487,4290.385,4239.231,4294.231,4264.487,0,0
204,51,0,0,4260.0,4277.436,4265.897,4265.513,4286.282,4257.308,4247.179,4256.026,4260.255999999999,4289.231,4288.333,4238.846,4292.308,4266.154,0,0
205,52,0,0,4274.359,4281.538,4275.385,4262.308,4284.103,4263.718,4254.615,4256.41,4254.744000000001,4289.487,4290.128,4248.974,4296.538,4269.103,0,0
206,53,0,0,4283.462,4279.744000000001,4275.897,4254.359,4274.231,4263.077,4254.744000000001,4249.487,4251.923,4265.128,4291.282,4254.487,4286.667,4264.487,0,0
207,54,0,0,4279.744000000001,4280.897,4279.487,4261.026,4281.41,4259.231,4266.154,4263.718,4265.385,4262.0509999999995,4293.974,4257.692,4277.692,4265.255999999999,0,0
208,55,0,0,4268.718,4272.9490000000005,4276.795,4260.255999999999,4284.231,4264.615,4268.205,4269.487,4264.615,4295.897,4285.641,4252.692,4279.359,4266.667,0,0
209,56,0,0,4260.641,4256.154,4258.974,4243.462,4262.9490000000005,4260.128,4248.462,4244.872,4248.846,4307.0509999999995,4273.59,4240.513,4281.026,4256.154,0,0
210,57,0,0,4246.923,4243.077,4243.718,4229.744000000001,4250.769,4245.769,4226.282,4229.872,4246.41,4262.0509999999995,4276.154,4232.179,4271.923,4241.538,0,0
211,58,0,0,4230.897,4235.0,4239.872,4225.513,4257.308,4240.897,4213.974,4228.846,4239.744000000001,4224.744000000001,4277.564,4227.821,4256.923,4237.9490000000005,0,0
212,59,0,0,4231.667,4234.872,4243.462,4228.59,4261.795,4246.923,4218.846,4229.231,4230.128,4248.077,4270.513,4229.487,4260.641,4242.308,0,0
213,60,0,0,4249.231,4247.692,4255.128,4238.462,4265.128,4258.077,4237.308,4253.077,4247.821,4289.359,4282.692,4243.846,4293.205,4255.641,0,0
214,61,0,0,4265.128,4260.897,4266.026,4247.821,4278.718,4267.9490000000005,4252.179,4281.154,4278.333,4313.59,4306.41,4255.513,4315.769,4271.923,0,0
215,62,0,0,4266.282,4260.128,4263.462,4246.538,4282.692,4265.513,4245.0,4271.667,4276.538,4311.282,4305.255999999999,4250.0,4310.128,4268.846,0,0
216,63,0,0,4260.128,4255.769,4258.077,4242.821,4271.795,4257.9490000000005,4235.128,4256.41,4262.9490000000005,4297.179,4296.026,4244.231,4310.0,4257.179,0,0
217,64,0,3154,4261.41,4262.9490000000005,4266.154,4249.487,4276.026,4259.359,4244.359,4273.974,4274.103,4294.103,4307.821,4257.179,4313.846,4269.487,0,0
218,65,0,2830,4268.077,4266.154,4273.846,4255.769,4282.564,4263.974,4249.487,4285.897,4279.103,4293.59,4313.718,4265.513,4300.385,4283.333,0,0
219,66,0,3461,4264.487,4254.615,4267.179,4246.667,4267.564,4265.513,4246.41,4274.615,4265.513,4278.333,4298.846,4254.103,4286.026,4272.0509999999995,0,0
220,67,0,3455,4250.385,4246.923,4256.282,4234.359,4259.359,4255.255999999999,4247.821,4259.615,4255.769,4271.795,4289.872,4241.154,4282.692,4258.205,0,0
221,68,0,3534,4235.128,4243.974,4243.462,4230.769,4260.255999999999,4231.026,4237.0509999999995,4241.282,4249.103,4282.179,4284.359,4234.744000000001,4275.255999999999,4249.359,0,0
222,69,0,2997,4230.385,4233.462,4237.9490000000005,4231.026,4239.359,4225.641,4215.385,4231.154,4238.462,4267.436,4275.128,4230.128,4266.026,4240.513,0,0
223,70,0,2979,4235.513,4229.487,4247.0509999999995,4230.128,4227.436,4249.231,4221.41,4240.897,4236.795,4249.231,4275.513,4231.154,4263.59,4242.692,0,0
224,71,0,3459,4235.513,4233.077,4252.0509999999995,4226.026,4246.795,4259.487,4242.564,4249.231,4241.923,4261.923,4275.897,4234.359,4261.41,4247.692,0,0
225,72,0,2863,4234.744000000001,4233.846,4246.795,4226.282,4258.462,4249.615,4247.308,4249.359,4247.564,4260.513,4274.615,4234.744000000001,4260.255999999999,4245.0,0,0
226,73,0,3600,4231.795,4234.872,4244.487,4232.308,4246.667,4250.641,4247.308,4252.179,4250.255999999999,4231.154,4278.333,4233.462,4262.436,4243.077,0,0
227,74,0,3379,4216.923,4228.333,4236.538,4224.359,4237.821,4245.641,4235.769,4240.769,4238.077,4225.385,4264.615,4220.385,4253.205,4232.692,0,0
228,75,0,3381,4213.59,4219.744000000001,4224.487,4212.0509999999995,4241.026,4227.692,4216.41,4225.769,4225.769,4250.385,4249.744000000001,4209.487,4240.897,4224.359,0,0
229,76,0,2939,4233.462,4229.872,4232.308,4220.897,4245.385,4232.564,4215.128,4234.231,4236.41,4268.077,4262.564,4224.487,4251.41,4239.359,0,0
230,77,0,3147,4240.641,4240.255999999999,4239.615,4234.103,4237.436,4239.615,4207.9490000000005,4229.359,4240.385,4250.769,4271.795,4232.308,4264.487,4245.0,0,0
231,78,0,3379,4227.692,4230.128,4230.641,4234.744000000001,4225.128,4224.359,4199.615,4210.0,4220.128,4215.641,4259.103,4216.154,4251.282,4228.462,0,0
232,79,0,3381,4233.077,4230.769,4236.795,4238.846,4236.667,4227.436,4231.154,4224.359,4220.641,4223.718,4261.282,4218.846,4246.282,4230.897,0,0
233,80,0,2939,4247.821,4246.41,4250.255999999999,4253.974,4252.179,4246.026,4250.641,4242.179,4236.154,4255.641,4275.641,4235.769,4262.564,4246.41,0,0
234,81,0,3147,4241.282,4241.41,4241.795,4264.231,4238.718,4238.718,4220.255999999999,4222.436,4228.59,4238.462,4272.9490000000005,4227.308,4256.795,4240.255999999999,0,0
235,82,0,3379,4224.359,4222.0509999999995,4222.692,4258.333,4215.128,4218.205,4198.333,4199.103,4212.564,4196.923,4259.872,4207.9490000000005,4239.872,4221.41,0,0
236,83,0,3381,4204.615,4203.59,4207.436,4237.821,4203.846,4212.9490000000005,4198.205,4189.231,4203.974,4190.128,4249.744000000001,4195.0,4229.359,4206.795,0,0
237,84,0,2939,4183.846,4185.769,4193.846,4225.897,4197.692,4210.641,4188.333,4180.255999999999,4200.255999999999,4192.308,4241.41,4182.308,4203.974,4193.205,0,0
238,85,0,3147,4185.385,4187.179,4195.513,4241.026,4193.974,4203.333,4183.974,4187.179,4210.513,4196.795,4244.615,4185.385,4199.744000000001,4194.487,0,0
239,86,0,3379,4204.615,4204.872,4210.0,4254.103,4202.821,4202.0509999999995,4191.538,4200.641,4221.154,4220.128,4257.564,4203.846,4236.923,4208.333,0,0
240,87,0,3381,4197.436,4194.231,4202.308,4240.255999999999,4199.231,4202.436,4180.769,4189.103,4206.282,4206.795,4255.513,4201.026,4242.564,4207.0509999999995,0,0
241,88,0,2939,4176.795,4168.718,4185.128,4224.103,4182.179,4198.846,4170.255999999999,4172.179,4193.077,4171.538,4240.128,4184.359,4206.667,4192.692,0,0
242,89,0,3147,4190.513,4181.795,4198.718,4234.744000000001,4187.436,4196.154,4186.154,4189.872,4207.179,4193.205,4249.615,4195.641,4210.769,4204.103,0,0
243,90,0,3379,4215.0,4208.077,4220.128,4252.179,4205.0,4198.462,4201.667,4213.462,4216.026,4227.308,4274.487,4220.513,4240.0,4228.462,0,0
244,91,0,3381,4216.538,4206.923,4220.128,4252.564,4202.9490000000005,4207.0509999999995,4202.0509999999995,4202.308,4206.154,4216.282,4275.897,4221.795,4238.077,4227.564,0,0
245,92,0,2939,4211.41,4200.128,4216.282,4249.359,4193.846,4217.9490000000005,4202.0509999999995,4190.385,4203.077,4208.974,4261.282,4213.59,4230.255999999999,4216.282,0,0
246,93,0,3147,4215.385,4208.462,4221.154,4249.103,4202.179,4219.231,4202.821,4199.231,4216.282,4230.385,4260.128,4216.538,4235.385,4216.923,0,0
247,94,0,3379,4223.718,4217.9490000000005,4227.564,4250.769,4218.462,4213.846,4200.385,4205.0,4226.923,4236.538,4269.872,4221.538,4237.179,4223.462,0,0
248,95,0,3381,4230.769,4218.077,4232.9490000000005,4257.692,4231.41,4217.308,4202.9490000000005,4208.333,4223.59,4230.641,4271.026,4222.436,4236.282,4228.846,0,0
249,96,0,2939,4233.59,4216.923,4233.974,4263.205,4237.436,4223.333,4202.9490000000005,4218.205,4219.744000000001,4237.436,4265.385,4219.487,4243.59,4230.897,0,0
250,97,0,3147,4231.154,4223.333,4231.538,4261.41,4232.179,4220.385,4198.205,4217.821,4222.9490000000005,4249.103,4269.744000000001,4216.667,4256.667,4231.41,0,0
251,98,0,3379,4233.846,4233.077,4235.385,4264.231,4235.0,4218.846,4201.282,4215.769,4231.538,4252.9490000000005,4282.0509999999995,4220.769,4261.282,4234.359,0,0
252,99,0,3381,4234.872,4232.436,4238.59,4265.897,4246.923,4224.487,4205.385,4219.103,4235.641,4237.0509999999995,4280.769,4222.179,4252.564,4236.538,0,0
253,100,0,2939,4225.255999999999,4224.359,4230.385,4254.359,4240.897,4226.795,4204.872,4210.641,4224.231,4227.0509999999995,4270.0,4216.923,4247.308,4230.385,0,0
254,101,0,3147,4213.974,4211.154,4216.923,4245.769,4209.615,4217.436,4195.641,4194.487,4206.154,4228.077,4261.282,4208.077,4245.641,4219.872,0,0
255,102,0,3379,4209.103,4198.077,4210.255999999999,4244.359,4194.744000000001,4208.718,4183.205,4185.255999999999,4195.641,4218.333,4248.846,4197.436,4236.538,4209.231,0,0
256,103,0,3381,4222.436,4207.179,4219.615,4245.769,4224.615,4220.0,4192.692,4195.513,4210.385,4221.41,4253.077,4205.0,4236.41,4216.41,0,0
257,104,0,2939,4238.846,4229.744000000001,4234.615,4255.897,4256.282,4235.513,4214.231,4218.718,4231.538,4238.846,4275.255999999999,4230.255999999999,4251.667,4240.128,0,0
258,105,0,3147,4240.255999999999,4235.641,4241.41,4265.897,4249.231,4235.128,4219.103,4228.462,4232.692,4241.795,4278.846,4238.718,4263.333,4249.359,0,0
259,106,0,3379,4234.359,4225.0,4237.564,4257.308,4230.0,4230.0,4212.0509999999995,4219.872,4227.9490000000005,4232.564,4265.769,4224.359,4260.128,4237.821,0,0
260,107,0,3381,4229.615,4219.615,4232.821,4246.667,4231.026,4231.923,4207.9490000000005,4216.795,4231.282,4230.513,4262.821,4219.359,4248.333,4231.795,0,0
261,108,0,2939,4222.692,4218.718,4229.359,4246.538,4237.692,4231.795,4203.077,4218.974,4226.282,4233.333,4258.59,4218.974,4239.872,4231.667,0,0
262,109,0,3147,4212.564,4209.359,4218.718,4237.821,4230.128,4224.872,4197.692,4212.308,4212.9490000000005,4230.769,4246.154,4206.026,4234.872,4217.308,0,0
263,110,0,3379,4210.513,4205.769,4210.641,4226.538,4225.769,4219.744000000001,4195.897,4209.231,4211.795,4225.897,4243.077,4197.821,4231.538,4206.026,0,0
264,111,0,3381,4211.282,4213.462,4212.0509999999995,4227.564,4228.59,4215.128,4194.872,4207.179,4213.974,4218.718,4244.103,4199.231,4234.744000000001,4209.744000000001,0,0
265,112,0,2939,4216.667,4217.821,4215.641,4233.718,4227.9490000000005,4221.538,4207.308,4211.41,4220.769,4214.872,4246.41,4202.436,4246.154,4217.308,0,0
266,113,0,3147,4216.282,4212.821,4215.641,4233.718,4225.255999999999,4232.308,4219.872,4216.41,4226.538,4215.513,4243.59,4199.487,4246.026,4213.846,0,0
267,114,0,3379,4203.077,4209.872,4211.154,4229.487,4225.128,4224.872,4207.9490000000005,4205.385,4207.9490000000005,4217.179,4231.538,4189.103,4231.026,4202.9490000000005,0,0
268,115,0,3381,4203.205,4213.974,4209.744000000001,4232.564,4232.308,4217.179,4205.769,4198.59,4192.692,4221.154,4230.897,4190.513,4230.641,4206.154,0,0
269,116,0,2939,4217.821,4219.487,4222.436,4245.385,4235.641,4225.897,4232.692,4216.026,4209.615,4221.154,4247.308,4207.692,4242.179,4221.026,0,0
270,117,0,3147,4224.103,4222.692,4236.538,4254.487,4227.436,4232.564,4238.974,4227.564,4224.744000000001,4214.872,4251.41,4213.205,4238.462,4223.462,0,0
271,118,0,3379,4216.154,4216.154,4230.0,4241.923,4222.9490000000005,4226.154,4216.41,4211.538,4216.538,4206.667,4237.9490000000005,4201.923,4225.769,4212.692,0,0
272,119,0,3381,4214.103,4213.205,4220.641,4230.641,4229.359,4218.59,4209.487,4205.128,4211.282,4211.282,4231.538,4204.872,4231.923,4214.744000000001,0,0
273,120,0,2939,4223.462,4217.436,4227.308,4240.255999999999,4230.385,4216.282,4215.641,4221.154,4217.692,4224.872,4238.846,4216.154,4247.308,4225.769,0,0
274,121,0,3147,4234.615,4221.154,4237.179,4250.128,4228.59,4225.0,4218.205,4236.795,4223.333,4227.564,4248.846,4221.026,4253.333,4233.462,0,0
275,122,0,3379,4236.282,4221.538,4231.795,4243.718,4233.59,4235.0,4223.846,4233.205,4220.897,4212.436,4246.282,4220.513,4254.487,4233.333,0,0
276,123,0,3381,4217.821,4210.385,4216.154,4229.231,4217.692,4224.487,4215.0,4207.9490000000005,4212.564,4183.462,4225.769,4208.205,4244.487,4214.872,0,0
277,124,0,2939,4206.026,4204.231,4216.795,4225.641,4202.436,4215.128,4202.9490000000005,4207.308,4215.641,4189.872,4214.359,4202.564,4238.333,4203.718,0,0
278,125,0,3147,4202.179,4200.255999999999,4218.333,4218.077,4205.897,4213.718,4205.0,4219.615,4217.9490000000005,4215.0,4207.436,4198.974,4234.744000000001,4200.385,0,0
279,126,0,3379,4191.154,4189.615,4202.692,4203.077,4197.9490000000005,4202.0509999999995,4198.846,4202.179,4202.308,4197.821,4183.846,4186.026,4216.282,4187.692,0,0
280,127,0,52,4181.923,4180.255999999999,4194.744000000001,4193.462,4183.59,4188.59,4183.077,4177.0509999999995,4184.872,4168.077,4167.436,4177.821,4201.026,4177.0509999999995,0,0
281,0,0,3162,4172.692,4169.103,4196.41,4184.359,4176.41,4179.872,4174.103,4172.436,4177.0509999999995,4158.077,4169.103,4173.846,4194.487,4172.436,0,0
282,1,0,2837,4166.282,4167.308,4193.718,4181.667,4176.538,4175.128,4175.513,4172.179,4174.359,4155.128,4167.9490000000005,4167.564,4189.487,4168.077,0,0
283,2,0,3471,4175.897,4185.128,4193.205,4193.59,4183.718,4178.462,4178.59,4162.0509999999995,4167.179,4153.974,4165.128,4168.59,4189.359,4172.0509999999995,0,0
284,3,0,3467,4199.103,4207.179,4206.667,4211.795,4204.231,4190.641,4185.255999999999,4167.821,4163.846,4171.538,4185.897,4184.359,4204.103,4195.0,0,0
285,4,0,3550,4209.231,4210.769,4213.846,4213.974,4214.744000000001,4191.538,4189.231,4179.487,4173.077,4186.282,4209.615,4194.744000000001,4213.333,4210.641,0,0
286,5,0,2999,4209.487,4212.692,4214.744000000001,4212.821,4212.821,4192.308,4191.026,4185.769,4190.385,4199.103,4214.744000000001,4199.231,4215.897,4213.59,0,0
287,6,0,2978,4221.282,4227.179,4225.0,4225.513,4221.282,4209.231,4204.487,4204.231,4206.538,4218.205,4223.333,4210.897,4229.487,4226.41,0,0
288,7,0,3465,4229.744000000001,4236.154,4234.231,4236.282,4233.077,4213.974,4214.615,4223.077,4219.103,4223.59,4241.667,4222.308,4243.59,4240.0,0,0
289,8,0,2859,4225.0,4234.103,4234.487,4236.538,4237.308,4208.077,4215.897,4225.128,4224.872,4231.923,4251.538,4223.846,4246.795,4239.103,0,0
290,9,0,3593,4217.436,4223.59,4226.667,4227.9490000000005,4227.436,4212.308,4211.538,4215.769,4215.641,4241.41,4240.255999999999,4211.154,4241.41,4227.0509999999995,0,0
291,10,0,3397,4227.308,4228.462,4233.077,4231.026,4235.385,4228.462,4217.0509999999995,4226.282,4220.255999999999,4256.538,4241.667,4213.333,4247.308,4232.692,0,0
292,11,0,3394,4239.487,4241.667,4248.333,4242.436,4258.718,4233.846,4229.231,4245.0,4234.231,4266.41,4265.385,4232.308,4257.564,4250.128,0,0
293,12,0,2952,4227.0509999999995,4228.333,4237.821,4240.255999999999,4242.436,4223.59,4225.0,4234.103,4224.744000000001,4243.974,4256.795,4225.0,4245.897,4237.179,0,0
294,13,0,3157,4208.077,4213.077,4219.744000000001,4228.077,4209.359,4215.769,4215.769,4213.974,4212.179,4223.846,4227.308,4204.103,4238.462,4212.0509999999995,0,0
295,14,0,3397,4211.923,4225.897,4228.846,4230.255999999999,4223.205,4219.872,4216.026,4219.615,4217.0509999999995,4240.513,4234.744000000001,4211.923,4257.692,4222.821,0,0
296,15,0,3394,4230.897,4242.308,4245.0,4246.026,4257.0509999999995,4230.128,4220.513,4236.282,4226.154,4260.0,4257.821,4234.359,4274.744000000001,4246.41,0,0
297,16,0,0,4229.744000000001,4234.103,4233.974,4241.795,4251.41,4229.231,4220.769,4234.744000000001,4229.872,4246.795,4253.846,4229.487,4263.333,4237.821,0,0
298,17,0,0,4217.821,4226.538,4224.359,4228.077,4240.641,4229.872,4220.385,4227.308,4229.487,4241.667,4242.564,4216.538,4251.538,4227.179,0,0
299,18,0,0,4217.692,4230.769,4231.282,4229.744000000001,4254.744000000001,4228.846,4219.872,4226.282,4223.077,4241.923,4243.077,4218.077,4250.769,4233.846,0,0
300,19,0,0,4208.718,4216.41,4222.564,4227.308,4243.846,4217.436,4212.308,4217.0509999999995,4208.205,4221.923,4232.179,4209.359,4235.897,4223.846,0,0
301,20,0,0,4192.692,4197.308,4207.692,4211.667,4216.41,4216.538,4211.795,4207.821,4195.513,4212.0509999999995,4216.282,4194.231,4222.308,4208.333,0,0
302,21,0,0,4203.718,4208.333,4218.974,4212.9490000000005,4225.0,4231.41,4233.59,4218.846,4209.615,4234.872,4221.282,4201.667,4239.359,4219.487,0,0
303,22,0,0,4236.282,4236.026,4242.9490000000005,4234.615,4258.718,4245.0,4258.077,4242.179,4241.41,4267.9490000000005,4245.385,4226.154,4273.333,4243.718,0,0
304,23,0,0,4251.41,4247.692,4253.846,4246.026,4271.41,4253.846,4257.564,4258.59,4253.077,4283.205,4264.487,4241.154,4295.0,4257.0509999999995,0,0
305,24,0,0,4251.923,4248.974,4256.923,4243.974,4267.179,4262.436,4247.564,4264.744000000001,4252.436,4285.255999999999,4265.513,4244.615,4299.103,4259.359,0,0
306,25,0,0,4250.0,4249.487,4251.923,4240.513,4268.974,4258.59,4253.974,4261.154,4256.667,4265.769,4259.872,4240.385,4288.462,4253.718,0,0
307,26,0,0,4238.462,4238.718,4235.897,4231.026,4256.282,4242.0509999999995,4250.769,4242.821,4242.0509999999995,4232.564,4245.641,4223.205,4266.923,4237.0509999999995,0,0
308,27,0,0,4226.923,4226.923,4226.41,4223.077,4242.0509999999995,4239.615,4234.103,4226.795,4218.077,4232.692,4230.513,4210.769,4256.026,4225.513,0,0
309,28,0,0,4232.0509999999995,4229.615,4231.795,4226.538,4252.436,4245.128,4234.487,4232.9490000000005,4222.9490000000005,4266.41,4229.231,4216.154,4263.718,4232.436,0,0
310,29,0,0,4245.128,4239.487,4240.513,4233.077,4262.436,4240.769,4245.0,4240.897,4236.667,4267.436,4237.821,4227.9490000000005,4274.872,4245.128,0,0
311,30,0,0,4254.359,4252.0509999999995,4249.744000000001,4237.821,4259.744000000001,4238.846,4245.769,4244.487,4243.462,4244.359,4251.154,4239.615,4278.718,4257.0509999999995,0,0
312,31,0,0,4262.564,4260.769,4259.359,4245.385,4268.333,4250.769,4245.128,4258.462,4256.41,4260.897,4261.795,4249.615,4284.487,4265.255999999999,0,0
313,32,0,0,4260.897,4257.436,4261.41,4243.333,4278.462,4257.308,4248.462,4264.359,4261.538,4281.538,4262.692,4247.821,4291.282,4265.128,0,0
314,33,0,0,4250.769,4258.077,4256.41,4237.436,4268.205,4257.179,4250.0,4250.255999999999,4249.231,4272.308,4254.744000000001,4238.974,4287.821,4264.487,0,0
315,34,0,0,4250.255999999999,4263.846,4252.308,4240.513,4262.179,4259.103,4250.641,4246.41,4241.026,4252.9490000000005,4249.231,4240.255999999999,4282.436,4264.615,0,0
316,35,0,0,4253.205,4255.641,4251.667,4239.744000000001,4264.231,4254.487,4244.487,4248.205,4241.026,4237.0509999999995,4247.179,4240.385,4278.59,4257.0509999999995,0,0
317,36,0,0,4244.103,4243.59,4247.308,4231.795,4256.41,4248.718,4235.0,4239.231,4235.641,4243.974,4235.513,4226.795,4269.615,4246.667,0,0
318,37,0,0,4231.667,4237.436,4233.205,4222.0509999999995,4241.795,4241.667,4226.154,4231.667,4229.231,4260.255999999999,4221.41,4214.359,4264.487,4240.128,0,0
319,38,0,0,4223.974,4226.667,4220.641,4206.923,4223.333,4226.154,4210.513,4227.179,4226.026,4243.205,4216.026,4210.513,4261.154,4229.487,0,0
320,39,0,0,4209.872,4208.462,4212.179,4195.641,4199.231,4215.769,4195.255999999999,4217.308,4219.744000000001,4206.923,4207.564,4203.846,4241.795,4212.692,0,0
321,40,0,0,4197.436,4199.231,4202.821,4199.487,4196.923,4209.872,4193.718,4208.974,4211.538,4191.41,4196.41,4191.923,4225.513,4200.769,0,0
322,41,0,0,4196.795,4201.923,4199.744000000001,4206.282,4213.205,4210.128,4200.0,4201.41,4201.795,4190.385,4194.872,4185.513,4226.667,4200.897,0,0
323,42,0,0,4192.179,4198.205,4197.308,4205.128,4204.615,4213.59,4197.436,4189.872,4193.59,4197.564,4192.308,4184.615,4221.795,4200.128,0,0
324,43,0,0,4178.205,4182.564,4182.821,4204.231,4182.692,4204.744000000001,4183.718,4178.974,4189.872,4195.897,4185.769,4178.333,4210.255999999999,4187.308,0,0
325,44,0,0,4183.718,4186.41,4182.821,4216.026,4195.128,4198.974,4183.333,4182.308,4192.9490000000005,4186.282,4200.513,4177.308,4221.41,4191.538,0,0
326,45,0,0,4210.897,4219.744000000001,4211.923,4242.692,4226.41,4220.385,4208.333,4208.462,4207.0509999999995,4202.9490000000005,4229.872,4199.744000000001,4245.255999999999,4223.333,0,0
327,46,0,0,4219.487,4235.897,4222.821,4256.667,4231.667,4231.282,4222.436,4223.205,4215.641,4224.487,4235.641,4213.077,4250.128,4236.026,0,0
328,47,0,0,4213.205,4228.718,4215.513,4254.615,4235.0,4223.718,4219.231,4214.231,4215.513,4225.897,4233.462,4208.59,4252.436,4228.462,0,0
329,48,0,0,4224.744000000001,4232.0509999999995,4227.564,4258.974,4250.897,4237.692,4226.667,4221.538,4221.41,4231.154,4250.641,4218.974,4262.9490000000005,4238.462,0,0
330,49,0,0,4240.255999999999,4239.872,4240.769,4267.308,4254.103,4250.897,4233.974,4235.641,4227.308,4243.333,4262.821,4234.744000000001,4265.0,4253.333,0,0
331,50,0,0,4250.128,4247.179,4244.103,4275.769,4256.538,4245.255999999999,4240.641,4242.0509999999995,4239.359,4258.974,4261.538,4238.59,4273.846,4256.923,0,0
332,51,0,0,4269.487,4271.795,4260.641,4293.718,4278.077,4256.026,4262.0509999999995,4264.744000000001,4266.41,4280.385,4280.0,4252.692,4291.923,4272.179,0,0
333,52,0,0,4278.077,4285.385,4271.282,4302.692,4287.821,4272.9490000000005,4268.462,4277.179,4270.385,4274.487,4293.974,4265.513,4293.077,4286.923,0,0
334,53,0,0,4262.179,4266.795,4252.692,4285.513,4264.231,4261.154,4246.795,4251.026,4238.718,4250.255999999999,4272.179,4249.615,4286.667,4271.795,0,0
335,54,0,0,4254.487,4261.41,4242.692,4276.282,4257.436,4250.897,4241.667,4242.436,4232.0509999999995,4255.897,4264.231,4239.744000000001,4296.538,4258.974,0,0
336,55,0,0,4264.103,4278.59,4257.0509999999995,4284.744000000001,4280.897,4262.821,4260.897,4269.487,4258.59,4275.769,4282.436,4254.744000000001,4304.872,4272.308,0,0
337,56,0,0,4267.436,4279.359,4263.846,4281.667,4297.0509999999995,4268.205,4267.564,4275.385,4271.795,4277.821,4285.513,4264.872,4299.615,4282.692,0,0
338,57,0,0,4263.718,4272.308,4259.231,4274.103,4291.154,4264.744000000001,4261.923,4262.692,4266.667,4278.333,4277.179,4259.615,4294.359,4277.692,0,0
339,58,0,0,4270.128,4279.359,4264.103,4286.41,4283.077,4267.692,4264.359,4268.846,4265.0,4286.538,4281.41,4259.615,4299.359,4277.692,0,0
340,59,0,0,4281.026,4283.974,4269.359,4296.923,4288.718,4267.9490000000005,4270.641,4275.513,4262.436,4273.077,4282.692,4268.205,4304.872,4284.487,0,0
341,60,0,0,4277.821,4279.231,4262.308,4284.744000000001,4293.333,4260.128,4268.205,4266.923,4255.128,4256.538,4270.128,4262.436,4297.0509999999995,4278.974,0,0
342,61,0,0,4267.0509999999995,4278.205,4261.282,4277.9490000000005,4286.282,4261.538,4261.667,4263.846,4256.41,4269.487,4263.718,4250.0,4288.718,4272.436,0,0
343,62,0,0,4264.615,4275.385,4265.385,4281.538,4276.667,4264.872,4257.692,4267.308,4263.333,4281.538,4266.41,4250.385,4293.333,4273.205,0,0
344,63,0,0,4263.077,4265.513,4254.744000000001,4271.667,4273.462,4254.359,4250.897,4266.667,4264.359,4268.077,4263.205,4251.538,4297.564,4265.385,0,0
345,64,0,3150,4259.487,4260.255999999999,4244.359,4260.128,4274.487,4248.846,4243.974,4265.769,4259.615,4256.41,4258.462,4246.923,4296.795,4262.308,0,0
346,65,0,2818,4261.795,4264.744000000001,4248.59,4265.385,4277.692,4255.128,4244.231,4262.564,4253.205,4260.897,4265.385,4248.462,4297.821,4272.179,0,0
347,66,0,3452,4263.462,4265.513,4249.231,4268.718,4275.255999999999,4261.41,4249.872,4256.282,4246.667,4258.974,4267.179,4250.0,4296.538,4268.077,0,0
348,67,0,3451,4264.744000000001,4264.744000000001,4245.897,4262.9490000000005,4275.255999999999,4262.436,4253.462,4260.641,4253.718,4263.077,4261.154,4248.846,4293.718,4263.974,0,0
349,68,0,3533,4266.538,4266.923,4253.462,4261.795,4275.0,4257.564,4250.0,4264.615,4262.692,4280.641,4264.103,4252.436,4295.255999999999,4275.385,0,0
350,69,0,2996,4263.718,4263.205,4257.308,4260.513,4260.0,4251.538,4241.538,4261.795,4256.923,4281.282,4263.333,4249.615,4288.846,4269.872,0,0
351,70,0,2961,4268.462,4267.0509999999995,4259.615,4261.282,4268.462,4260.385,4242.564,4277.692,4266.667,4278.077,4265.0,4252.308,4289.872,4265.641,0,0
352,71,0,3446,4287.0509999999995,4289.231,4275.769,4276.282,4308.333,4281.41,4265.513,4305.255999999999,4293.462,4304.615,4284.231,4273.846,4318.718,4294.744000000001,0,0
353,72,0,2841,4281.923,4289.103,4272.564,4277.436,4304.487,4280.0,4272.436,4294.872,4279.872,4311.154,4281.026,4271.282,4319.359,4298.077,0,0
354,73,0,3578,4249.487,4258.718,4242.692,4251.154,4258.205,4257.436,4244.872,4253.59,4236.538,4261.026,4246.667,4239.103,4275.897,4256.538,0,0
355,74,0,3369,4254.744000000001,4261.154,4246.667,4252.308,4259.872,4260.0,4248.462,4260.513,4250.513,4249.103,4249.231,4242.9490000000005,4276.795,4257.564,0,0
356,75,0,3377,4287.821,4289.359,4275.128,4278.718,4288.846,4277.179,4280.128,4293.718,4288.462,4298.077,4278.205,4270.641,4311.41,4293.077,0,0
357,76,0,2935,4275.0,4271.538,4261.026,4262.0509999999995,4266.154,4261.026,4263.846,4272.692,4262.308,4287.308,4262.179,4256.282,4286.282,4279.231,0,0
358,77,0,3142,4237.9490000000005,4229.487,4227.436,4223.333,4221.026,4227.308,4223.205,4226.026,4216.154,4225.897,4226.923,4225.897,4242.0509999999995,4240.769,0,0
359,78,0,3369,4237.692,4225.128,4227.564,4223.718,4214.615,4216.41,4220.641,4215.385,4218.846,4226.026,4225.385,4225.769,4242.821,4240.255999999999,0,0
360,79,0,3377,4248.462,4235.641,4239.103,4233.077,4235.513,4217.9490000000005,4232.564,4227.308,4238.205,4261.795,4232.0509999999995,4231.795,4247.9490000000005,4250.255999999999,0,0
361,80,0,2935,4243.205,4233.846,4240.128,4226.923,4239.359,4223.077,4238.846,4237.564,4231.923,4250.897,4228.974,4231.923,4244.359,4243.974,0,0
362,81,0,3142,4252.436,4240.513,4250.769,4234.487,4233.718,4238.59,4254.872,4247.308,4226.154,4238.59,4238.077,4244.487,4256.41,4254.103,0,0
363,82,0,3369,4264.872,4251.795,4264.872,4249.744000000001,4243.59,4244.359,4262.564,4248.462,4240.128,4267.0509999999995,4249.103,4254.487,4264.744000000001,4272.308,0,0
364,83,0,3377,4263.718,4255.641,4266.667,4256.154,4262.821,4244.744000000001,4261.538,4253.59,4249.615,4282.821,4255.385,4256.154,4260.641,4275.897,0,0
365,84,0,2935,4269.231,4260.769,4267.436,4260.385,4268.333,4255.769,4266.538,4263.077,4244.487,4271.282,4263.846,4263.077,4263.077,4279.231,0,0
366,85,0,3142,4276.026,4262.692,4266.538,4261.538,4261.923,4258.205,4265.385,4254.103,4239.872,4262.436,4260.128,4263.59,4264.487,4278.077,0,0
367,86,0,3369,4274.359,4263.974,4262.9490000000005,4262.308,4259.872,4248.462,4263.205,4247.692,4245.897,4259.615,4252.564,4256.41,4264.231,4268.59,0,0
368,87,0,3377,4279.359,4272.436,4269.615,4269.359,4260.897,4246.282,4268.077,4256.026,4253.846,4262.9490000000005,4261.667,4259.103,4271.667,4269.487,0,0
369,88,0,2935,4292.436,4283.077,4282.308,4277.564,4273.333,4261.154,4275.385,4268.59,4262.308,4284.615,4276.026,4272.9490000000005,4283.462,4287.9490000000005,0,0
370,89,0,3142,4296.41,4291.154,4282.9490000000005,4278.333,4288.333,4274.359,4276.923,4273.974,4266.923,4298.462,4280.641,4280.769,4289.872,4297.308,0,0
371,90,0,3369,4296.795,4294.615,4281.41,4280.641,4287.692,4273.077,4272.436,4273.462,4267.179,4287.564,4281.41,4280.897,4290.128,4292.821,0,0
372,91,0,3377,4294.231,4289.359,4281.282,4280.897,4277.179,4256.026,4260.897,4262.692,4260.128,4273.718,4275.385,4275.128,4283.718,4290.128,0,0
373,92,0,2935,4282.564,4276.667,4272.436,4273.205,4266.667,4235.641,4249.359,4254.487,4251.538,4268.718,4267.692,4269.103,4270.641,4283.846,0,0
374,93,0,3142,4273.462,4265.641,4263.974,4262.0509999999995,4259.103,4233.59,4247.821,4257.821,4257.564,4273.077,4261.795,4261.795,4262.0509999999995,4271.667,0,0
375,94,0,3369,4264.744000000001,4262.179,4258.718,4255.385,4259.615,4242.436,4251.282,4254.744000000001,4261.667,4267.9490000000005,4252.179,4252.0509999999995,4261.41,4262.436,0,0
376,95,0,3377,4252.308,4258.462,4251.026,4246.538,4258.59,4248.205,4253.077,4246.795,4251.923,4248.846,4243.205,4247.179,4262.179,4256.282,0,0
377,96,0,2935,4247.9490000000005,4252.564,4245.897,4236.282,4250.513,4247.308,4253.59,4245.128,4244.359,4244.615,4236.923,4243.59,4264.487,4249.487,0,0
378,97,0,3142,4243.333,4245.897,4237.436,4232.436,4244.744000000001,4237.821,4245.769,4237.436,4238.462,4250.128,4227.179,4232.9490000000005,4262.308,4242.179,0,0
379,98,0,3369,4235.641,4239.615,4227.692,4230.769,4237.308,4229.103,4229.744000000001,4227.179,4234.103,4243.59,4222.9490000000005,4225.513,4256.795,4239.231,0,0
380,99,0,3377,4245.385,4246.41,4235.0,4231.282,4245.0,4238.333,4225.385,4240.0,4248.846,4253.077,4236.923,4232.564,4268.077,4248.462,0,0
381,100,0,2935,4255.513,4257.179,4246.41,4234.872,4261.026,4252.308,4232.564,4253.077,4257.692,4264.487,4242.821,4236.154,4278.846,4254.744000000001,0,0
382,101,0,3142,4249.231,4255.128,4242.692,4241.795,4257.0509999999995,4249.872,4232.436,4247.564,4247.9490000000005,4257.436,4234.615,4233.462,4270.513,4251.538,0,0
383,102,0,3369,4254.487,4257.308,4245.769,4249.359,4252.308,4246.795,4229.615,4253.718,4256.667,4271.923,4240.255999999999,4244.231,4274.744000000001,4257.692,0,0
384,103,0,3377,4270.385,4270.897,4257.692,4251.923,4265.513,4253.718,4232.179,4267.436,4275.385,4291.667,4254.359,4257.436,4292.564,4270.897,0,0
385,104,0,2935,4269.487,4269.615,4256.282,4249.359,4270.255999999999,4254.359,4233.59,4268.974,4273.718,4275.769,4252.9490000000005,4256.41,4287.436,4269.103,0,0
386,105,0,3142,4256.026,4251.41,4243.333,4241.795,4254.615,4237.179,4224.231,4250.897,4248.333,4246.026,4239.744000000001,4240.513,4265.385,4253.205,0,0
387,106,0,3369,4249.487,4245.255999999999,4239.359,4236.154,4244.872,4225.128,4216.282,4233.333,4230.255999999999,4244.872,4239.872,4232.179,4262.436,4247.436,0,0
388,107,0,3377,4249.872,4253.205,4245.641,4235.255999999999,4249.744000000001,4230.769,4213.462,4235.513,4237.692,4261.795,4244.487,4241.923,4272.0509999999995,4255.128,0,0
389,108,0,2935,4251.026,4253.462,4247.436,4230.769,4252.9490000000005,4232.9490000000005,4208.718,4242.0509999999995,4249.872,4265.769,4241.154,4251.667,4271.538,4259.231,0,0
390,109,0,3142,4245.0,4237.308,4236.795,4217.9490000000005,4238.333,4223.333,4201.026,4231.154,4241.41,4247.692,4234.231,4241.026,4258.462,4248.974,0,0
391,110,0,3369,4242.308,4232.9490000000005,4231.282,4217.179,4224.487,4221.795,4198.718,4222.692,4226.282,4234.872,4230.641,4231.154,4255.385,4245.0,0,0
392,111,0,3377,4250.513,4248.205,4239.359,4227.308,4231.923,4227.821,4203.974,4232.564,4231.282,4254.615,4235.0,4242.436,4267.436,4257.0509999999995,0,0
393,112,0,2935,4250.255999999999,4245.513,4240.513,4223.205,4234.487,4221.538,4197.821,4233.077,4235.641,4267.9490000000005,4236.026,4245.897,4260.255999999999,4256.41,0,0
394,113,0,3142,4233.846,4224.487,4228.333,4210.769,4229.872,4209.872,4190.0,4226.026,4235.385,4246.282,4225.255999999999,4229.744000000001,4236.923,4236.41,0,0
395,114,0,3369,4216.154,4214.487,4217.692,4205.513,4227.0509999999995,4209.744000000001,4194.103,4218.718,4229.872,4215.255999999999,4212.9490000000005,4212.436,4222.436,4215.641,0,0
396,115,0,3377,4215.513,4212.564,4221.41,4206.026,4216.923,4222.436,4202.308,4212.436,4215.641,4214.615,4212.9490000000005,4211.154,4230.385,4214.103,0,0
397,116,0,2935,4233.718,4220.385,4240.385,4217.692,4219.487,4235.128,4214.744000000001,4231.923,4225.255999999999,4249.615,4220.513,4225.513,4259.359,4233.077,0,0
398,117,0,3142,4251.538,4242.0509999999995,4251.538,4233.718,4242.564,4234.615,4217.0509999999995,4251.667,4252.308,4269.744000000001,4224.359,4236.41,4274.744000000001,4246.795,0,0
399,118,0,3369,4257.436,4253.205,4247.564,4232.564,4251.154,4228.205,4206.282,4234.103,4251.667,4253.974,4227.692,4237.436,4266.026,4247.9490000000005,0,0
400,119,0,3377,4263.974,4256.538,4254.487,4232.436,4247.0509999999995,4234.359,4210.128,4226.154,4240.513,4247.0509999999995,4240.0,4244.487,4270.641,4258.846,0,0
401,120,0,2935,4270.513,4266.282,4268.462,4246.026,4253.846,4246.282,4223.846,4249.487,4251.282,4261.41,4254.872,4255.897,4287.179,4273.077,0,0
402,121,0,3142,4252.308,4257.308,4251.538,4236.923,4243.718,4231.923,4208.718,4231.538,4239.872,4241.667,4240.641,4242.308,4268.462,4255.385,0,0
403,122,0,3369,4232.436,4234.359,4227.179,4214.231,4225.385,4209.103,4198.077,4193.205,4210.513,4214.231,4213.846,4223.333,4241.538,4235.0,0,0
404,123,0,3377,4241.795,4236.282,4231.41,4213.205,4235.513,4213.59,4213.077,4210.128,4218.077,4238.59,4219.487,4229.744000000001,4249.231,4244.359,0,0
405,124,0,2935,4250.897,4247.564,4236.41,4220.641,4245.385,4220.0,4207.436,4236.154,4238.077,4264.744000000001,4234.615,4236.41,4258.718,4250.641,0,0
406,125,0,3142,4245.0,4246.667,4232.179,4225.255999999999,4238.846,4215.0,4198.077,4228.205,4237.0509999999995,4254.487,4232.0509999999995,4232.436,4259.615,4245.769,0,0
407,126,0,3369,4246.923,4247.179,4237.308,4228.462,4241.538,4221.795,4214.103,4227.308,4236.795,4254.615,4234.615,4236.154,4273.205,4254.103,0,0
408,127,0,52,4253.718,4250.385,4238.718,4223.077,4246.538,4233.59,4223.59,4246.026,4250.128,4271.154,4244.744000000001,4241.795,4278.974,4260.385,0,0
409,0,0,3147,4248.974,4249.615,4233.462,4219.103,4238.846,4235.0,4219.744000000001,4250.641,4254.744000000001,4273.718,4241.154,4238.205,4268.974,4254.872,0,0
410,1,0,2820,4238.974,4242.436,4230.641,4220.0,4230.897,4228.333,4214.615,4235.0,4240.128,4267.0509999999995,4230.641,4229.744000000001,4261.154,4247.821,0,0
411,2,0,3450,4232.0509999999995,4233.718,4221.538,4214.615,4229.744000000001,4214.231,4204.487,4219.615,4218.333,4246.667,4227.9490000000005,4221.923,4253.846,4238.077,0,0
412,3,0,3453,4230.897,4233.077,4215.641,4212.179,4230.769,4212.821,4209.487,4214.872,4214.359,4225.385,4230.128,4225.128,4249.872,4234.872,0,0
413,4,0,3541,4231.923,4233.718,4220.641,4212.821,4227.308,4228.205,4226.026,4216.282,4226.667,4238.462,4230.769,4232.9490000000005,4252.564,4239.231,0,0
414,5,0,3000,4231.667,4229.744000000001,4220.641,4212.9490000000005,4228.846,4231.795,4221.41,4223.718,4232.308,4263.846,4229.744000000001,4229.487,4251.538,4235.513,0,0
415,6,0,2970,4230.513,4231.282,4221.026,4224.744000000001,4237.308,4227.0509999999995,4213.205,4232.436,4234.615,4256.026,4231.795,4228.077,4250.128,4231.538,0,0
416,7,0,3461,4222.821,4228.59,4227.179,4233.205,4223.974,4224.359,4216.41,4226.538,4233.205,4223.59,4228.205,4230.641,4248.974,4231.026,0,0
417,8,0,2875,4217.436,4220.128,4227.308,4230.897,4211.538,4214.615,4215.385,4222.9490000000005,4226.667,4220.0,4227.564,4226.282,4242.692,4226.282,0,0
418,9,0,3567,4234.487,4233.718,4232.564,4246.667,4243.205,4220.641,4224.231,4246.026,4240.128,4254.615,4249.615,4234.872,4252.436,4238.59,0,0
419,10,0,3387,4247.564,4247.9490000000005,4240.255999999999,4266.538,4263.59,4237.0509999999995,4236.026,4260.513,4255.255999999999,4266.538,4260.513,4245.385,4270.128,4253.205,0,0
420,11,0,3382,4235.128,4233.59,4231.41,4260.641,4235.897,4227.9490000000005,4222.0509999999995,4236.026,4237.692,4231.41,4241.154,4232.564,4264.872,4238.718,0,0
421,12,0,2933,4232.436,4226.41,4230.128,4261.795,4224.103,4215.0,4214.872,4230.128,4235.385,4217.564,4240.641,4227.9490000000005,4258.718,4235.0,0,0
422,13,0,3148,4245.513,4241.154,4243.462,4278.462,4238.846,4221.41,4226.923,4252.692,4260.513,4239.359,4254.231,4238.59,4263.205,4250.641,0,0
423,14,0,3387,4235.128,4237.9490000000005,4234.744000000001,4273.718,4235.769,4218.846,4216.41,4235.641,4243.462,4234.615,4237.821,4228.846,4254.872,4238.59,0,0
424,15,0,3382,4210.641,4217.436,4212.436,4257.179,4227.436,4211.41,4200.255999999999,4198.077,4205.128,4212.821,4217.9490000000005,4210.385,4240.769,4210.769,0,0
425,16,0,0,4214.487,4220.769,4215.641,4259.231,4232.692,4221.41,4211.923,4203.59,4214.872,4206.795,4223.846,4213.205,4243.718,4215.385,0,0
426,17,0,0,4236.667,4243.077,4230.513,4268.59,4234.744000000001,4227.9490000000005,4221.667,4221.538,4237.308,4210.897,4228.59,4221.667,4251.795,4232.692,0,0
427,18,0,0,4236.026,4245.641,4224.103,4264.872,4233.077,4219.359,4214.615,4217.179,4227.564,4216.282,4221.795,4214.744000000001,4248.718,4225.385,0,0
428,19,0,0,4219.231,4230.769,4210.128,4252.692,4235.385,4216.026,4214.615,4210.641,4212.821,4215.255999999999,4212.308,4204.744000000001,4241.154,4211.282,0,0
429,20,0,0,4215.641,4226.538,4211.41,4245.513,4231.282,4218.59,4218.205,4210.641,4215.385,4205.255999999999,4207.9490000000005,4206.154,4239.231,4212.692,0,0
430,21,0,0,4216.795,4232.308,4215.641,4246.795,4226.026,4213.846,4213.846,4212.564,4220.0,4190.769,4208.077,4207.308,4242.564,4215.128,0,0
431,22,0,0,4207.308,4228.974,4209.103,4243.718,4227.9490000000005,4211.282,4210.513,4217.179,4219.359,4186.538,4204.872,4200.0,4245.128,4210.0,0,0
432,23,0,0,4205.769,4225.513,4203.718,4236.795,4232.821,4222.308,4218.077,4223.205,4225.0,4208.333,4204.744000000001,4200.769,4245.128,4211.282,0,0
433,24,0,0,4220.769,4236.41,4213.974,4244.872,4241.026,4233.846,4231.282,4229.744000000001,4234.359,4233.974,4217.308,4215.255999999999,4249.744000000001,4220.128,0,0
434,25,0,0,4232.436,4248.077,4229.487,4257.564,4248.333,4235.385,4237.308,4234.103,4236.282,4230.897,4229.744000000001,4227.9490000000005,4261.026,4226.667,0,0
435,26,0,0,4238.846,4250.128,4232.692,4256.667,4248.846,4233.846,4237.0509999999995,4235.385,4236.282,4229.231,4235.513,4231.282,4269.487,4235.385,0,0
436,27,0,0,4235.128,4243.333,4223.077,4248.077,4245.769,4232.308,4236.41,4234.744000000001,4238.205,4241.154,4232.308,4224.615,4267.308,4236.154,0,0
437,28,0,0,4220.128,4232.821,4214.359,4242.564,4244.872,4230.513,4233.718,4231.026,4232.9490000000005,4229.744000000001,4221.538,4215.385,4258.974,4222.308,0,0
438,29,0,0,4219.231,4229.359,4216.538,4244.359,4250.0,4230.769,4233.59,4228.205,4230.641,4210.769,4217.179,4215.513,4259.231,4215.897,0,0
439,30,0,0,4228.077,4233.205,4223.846,4247.564,4244.359,4229.103,4234.744000000001,4223.205,4239.359,4210.897,4220.897,4217.821,4265.513,4221.538,0,0
440,31,0,0,4228.718,4233.846,4229.744000000001,4247.692,4236.026,4228.077,4232.308,4223.59,4240.385,4221.41,4220.0,4217.692,4269.744000000001,4226.795,0,0
441,32,0,0,4229.487,4234.615,4229.615,4248.333,4248.077,4234.103,4235.769,4232.0509999999995,4231.667,4232.9490000000005,4216.667,4218.974,4274.103,4225.385,0,0
442,33,0,0,4230.641,4237.179,4222.821,4245.385,4259.872,4236.923,4242.436,4230.897,4230.897,4231.923,4214.744000000001,4215.255999999999,4275.128,4218.205,0,0
443,34,0,0,4230.255999999999,4232.9490000000005,4225.0,4240.897,4252.179,4235.0,4247.564,4237.308,4244.487,4224.359,4215.897,4213.462,4277.692,4219.359,0,0
444,35,0,0,4236.538,4234.359,4234.744000000001,4245.769,4244.359,4236.41,4258.205,4251.026,4253.462,4230.641,4217.308,4223.974,4279.103,4230.513,0,0
445,36,0,0,4240.641,4246.154,4236.538,4254.744000000001,4248.718,4237.564,4263.205,4244.615,4244.103,4240.0,4215.897,4232.436,4272.821,4236.667,0,0
446,37,0,0,4231.154,4243.462,4232.179,4246.154,4250.385,4232.179,4250.255999999999,4230.641,4235.128,4231.026,4211.41,4225.128,4263.718,4231.026,0,0
447,38,0,0,4229.231,4232.179,4235.255999999999,4233.974,4248.077,4231.282,4242.436,4235.513,4239.103,4221.282,4214.615,4218.718,4264.359,4229.872,0,0
448,39,0,0,4235.0,4235.128,4238.59,4238.205,4241.41,4235.769,4245.897,4238.718,4239.359,4217.308,4222.436,4224.103,4268.205,4236.795,0,0
449,40,0,0,4218.59,4223.462,4220.0,4231.41,4218.333,4220.769,4236.667,4217.564,4224.744000000001,4207.436,4213.077,4215.897,4252.308,4226.282,0,0
450,41,0,0,4195.513,4197.308,4198.718,4213.205,4205.255999999999,4198.077,4223.205,4196.026,4209.231,4215.641,4193.718,4196.282,4228.077,4204.359,0,0
451,42,0,0,4201.795,4200.255999999999,4204.359,4210.769,4210.255999999999,4202.9490000000005,4226.026,4199.359,4208.333,4229.744000000001,4194.615,4199.359,4225.769,4205.513,0,0
452,43,0,0,4219.872,4218.846,4223.205,4219.359,4217.436,4220.897,4244.231,4217.308,4224.487,4218.462,4212.436,4216.795,4244.615,4224.615,0,0
453,44,0,0,4224.744000000001,4218.718,4228.59,4224.359,4227.308,4224.231,4261.923,4226.923,4240.897,4223.205,4219.231,4222.308,4252.9490000000005,4229.744000000001,0,0
454,45,0,0,4221.667,4214.103,4229.744000000001,4230.128,4224.487,4217.179,4261.41,4230.0,4240.513,4246.41,4215.0,4218.59,4248.718,4227.821,0,0
455,46,0,0,4224.103,4221.538,4233.718,4236.154,4203.974,4210.769,4253.333,4234.487,4233.077,4249.231,4220.255999999999,4221.667,4250.128,4234.231,0,0
456,47,0,0,4219.231,4216.795,4223.718,4230.769,4201.538,4205.641,4242.564,4223.846,4224.744000000001,4234.487,4219.487,4218.462,4240.513,4225.897,0,0
457,48,0,0,4198.59,4197.179,4202.179,4211.154,4219.872,4195.255999999999,4221.667,4198.846,4205.897,4204.744000000001,4199.359,4197.179,4213.333,4199.872,0,0
458,49,0,0,4188.333,4193.974,4198.462,4199.359,4219.103,4190.255999999999,4211.923,4192.308,4193.974,4186.282,4194.359,4190.255999999999,4209.359,4195.385,0,0
459,50,0,0,4205.641,4212.436,4215.769,4216.282,4215.641,4204.487,4228.974,4213.333,4209.103,4222.308,4218.462,4211.154,4238.205,4216.282,0,0
460,51,0,0,4227.179,4227.821,4230.769,4237.564,4232.0509999999995,4218.333,4244.231,4230.0,4230.0,4262.564,4233.846,4231.282,4251.795,4231.795,0,0
461,52,0,0,4234.487,4233.205,4238.718,4238.205,4240.513,4216.41,4244.744000000001,4231.41,4236.282,4250.769,4234.872,4241.282,4249.744000000001,4242.0509999999995,0,0
462,53,0,0,4237.821,4234.872,4241.923,4235.641,4230.769,4215.0,4246.026,4229.615,4232.692,4240.385,4240.128,4245.0,4258.59,4249.359,0,0
463,54,0,0,4233.974,4224.359,4235.0,4234.487,4220.128,4216.41,4248.333,4229.359,4227.9490000000005,4253.205,4233.718,4236.282,4259.359,4238.846,0,0
464,55,0,0,4229.872,4217.436,4231.667,4230.769,4220.255999999999,4216.667,4248.974,4232.9490000000005,4235.0,4251.41,4221.667,4231.154,4250.0,4231.538,0,0
465,56,0,0,4229.744000000001,4222.308,4231.41,4226.667,4224.103,4214.744000000001,4243.974,4228.333,4230.897,4230.128,4216.026,4232.308,4246.667,4232.9490000000005,0,0
466,57,0,0,4215.0,4213.59,4220.0,4220.255999999999,4215.0,4206.026,4227.692,4211.923,4211.154,4213.974,4203.333,4216.282,4235.255999999999,4219.103,0,0
467,58,0,0,4207.692,4203.846,4211.026,4212.9490000000005,4204.744000000001,4204.103,4217.179,4215.769,4218.974,4224.103,4199.231,4209.872,4229.487,4210.641,0,0
468,59,0,0,4215.897,4206.923,4208.333,4205.897,4203.205,4200.641,4215.385,4223.077,4229.231,4224.615,4207.436,4216.282,4232.821,4215.641,0,0
469,60,0,0,4212.692,4202.9490000000005,4201.41,4199.744000000001,4198.333,4184.615,4213.333,4197.9490000000005,4200.897,4202.692,4196.795,4205.769,4218.205,4211.795,0,0
470,61,0,0,4209.103,4202.179,4204.487,4204.359,4196.667,4187.692,4215.897,4187.692,4190.769,4207.9490000000005,4187.821,4201.795,4220.385,4210.513,0,0
471,62,0,0,4216.923,4216.41,4214.359,4208.846,4206.795,4204.359,4217.0509999999995,4209.359,4216.41,4227.821,4207.179,4214.872,4246.154,4220.0,0,0
472,63,0,0,4220.641,4225.0,4217.436,4206.795,4221.282,4201.026,4213.077,4219.872,4223.077,4227.308,4218.333,4220.0,4240.255999999999,4224.744000000001,0,0
473,64,0,3168,4217.564,4217.9490000000005,4212.0509999999995,4201.026,4220.255999999999,4191.538,4217.692,4210.897,4212.692,4213.846,4204.615,4212.692,4216.538,4222.179,0,0
474,65,0,2837,4212.9490000000005,4205.255999999999,4202.308,4190.897,4197.436,4186.154,4217.9490000000005,4201.41,4207.821,4200.0,4195.897,4205.897,4213.462,4215.769,0,0
475,66,0,3473,4207.179,4198.846,4202.692,4190.513,4181.282,4180.0,4205.385,4200.513,4205.897,4199.615,4197.436,4205.897,4218.077,4211.538,0,0
476,67,0,3471,4214.487,4208.333,4217.308,4204.359,4189.231,4188.077,4204.359,4206.41,4214.359,4212.308,4203.333,4215.385,4223.59,4219.359,0,0
477,68,0,3578,4229.872,4221.282,4223.205,4210.255999999999,4210.897,4201.154,4225.513,4209.872,4217.0509999999995,4216.923,4212.436,4225.897,4235.897,4228.59,0,0
478,69,0,3007,4227.692,4216.538,4212.9490000000005,4197.308,4215.769,4193.333,4232.692,4199.359,4205.0,4217.179,4207.9490000000005,4217.692,4234.872,4226.667,0,0
479,70,0,2973,4215.641,4204.487,4206.795,4187.564,4200.255999999999,4175.513,4212.436,4186.282,4198.205,4217.9490000000005,4193.718,4202.0509999999995,4218.205,4211.923,0,0
480,71,0,3471,4213.462,4204.615,4208.846,4191.923,4196.154,4178.077,4209.231,4184.487,4200.0,4206.282,4196.923,4199.487,4215.385,4202.821,0,0
481,72,0,2875,4211.923,4206.026,4207.564,4192.564,4199.231,4189.487,4223.846,4185.255999999999,4199.103,4196.667,4202.564,4202.179,4223.974,4203.333,0,0
482,73,0,3606,4195.513,4190.641,4197.692,4177.9490000000005,4186.538,4180.385,4209.359,4168.846,4189.615,4200.513,4182.308,4187.436,4206.282,4189.615,0,0
483,74,0,3387,4187.692,4187.692,4194.487,4171.538,4182.564,4175.897,4192.179,4164.231,4187.0509999999995,4203.333,4171.795,4178.205,4193.333,4184.487,0,0
484,75,0,3392,4206.538,4213.205,4212.0509999999995,4195.385,4200.769,4196.667,4213.59,4198.59,4207.564,4206.538,4198.077,4201.026,4232.179,4210.769,0,0
485,76,0,2948,4222.0509999999995,4227.179,4228.205,4211.667,4214.744000000001,4208.077,4230.0,4220.897,4225.385,4217.308,4221.538,4220.769,4262.821,4227.9490000000005,0,0
486,77,0,3151,4216.667,4216.538,4226.41,4200.641,4215.513,4193.333,4214.103,4202.436,4215.641,4227.0509999999995,4219.103,4215.769,4238.333,4221.41,0,0
487,78,0,3387,4202.308,4202.436,4211.282,4186.282,4203.59,4180.897,4207.436,4182.436,4197.308,4213.846,4204.359,4201.282,4210.513,4211.41,0,0
488,79,0,3392,4192.308,4195.385,4203.59,4181.667,4190.513,4180.641,4221.538,4182.436,4193.077,4191.795,4194.231,4193.077,4208.974,4203.333,0,0
489,80,0,2948,4204.359,4211.282,4220.385,4196.923,4201.667,4183.59,4235.385,4195.513,4206.026,4205.0,4207.179,4205.513,4222.564,4212.0509999999995,0,0
490,81,0,3151,4227.9490000000005,4232.692,4240.255999999999,4218.077,4209.103,4186.154,4237.308,4204.615,4218.974,4222.9490000000005,4226.538,4223.077,4237.0509999999995,4234.872,0,0
491,82,0,3387,4225.769,4216.026,4232.9490000000005,4208.462,4196.026,4188.974,4227.821,4203.846,4214.744000000001,4211.026,4220.0,4217.9490000000005,4231.154,4233.59,0,0
492,83,0,3392,4214.103,4201.795,4226.923,4194.744000000001,4205.897,4198.462,4225.513,4211.923,4213.077,4218.974,4211.41,4210.897,4228.846,4225.641,0,0
493,84,0,2948,4222.0509999999995,4219.487,4239.103,4211.41,4233.077,4204.103,4227.436,4215.641,4220.255999999999,4246.41,4220.128,4220.0,4241.795,4235.255999999999,0,0
494,85,0,3151,4219.103,4212.821,4228.205,4209.231,4223.718,4200.641,4216.154,4192.692,4210.641,4220.513,4214.744000000001,4212.308,4227.308,4224.487,0,0
495,86,0,3387,4196.667,4180.128,4203.077,4181.41,4186.923,4198.846,4209.231,4182.564,4196.282,4177.9490000000005,4194.615,4192.0509999999995,4200.769,4194.615,0,0
496,87,0,3392,4194.231,4183.077,4210.641,4185.513,4190.385,4198.59,4228.59,4207.564,4204.487,4195.0,4196.154,4198.333,4216.923,4199.487,0,0
497,88,0,2948,4216.667,4212.0509999999995,4234.359,4207.0509999999995,4227.0509999999995,4201.538,4254.744000000001,4234.359,4226.026,4228.974,4217.308,4219.872,4255.0,4228.846,0,0
498,89,0,3151,4225.255999999999,4214.744000000001,4233.205,4205.0,4232.821,4206.795,4253.59,4236.154,4237.436,4228.59,4225.641,4222.692,4262.9490000000005,4230.513,0,0
499,90,0,3387,4203.462,4190.641,4208.846,4186.538,4201.923,4201.026,4229.744000000001,4209.872,4224.872,4210.641,4208.59,4202.564,4244.231,4202.821,0,0
500,91,0,3392,4176.923,4169.744000000001,4188.59,4166.538,4176.41,4189.744000000001,4216.154,4183.846,4200.769,4197.0509999999995,4179.487,4178.333,4226.538,4178.59,0,0
501,92,0,2948,4167.564,4166.026,4182.564,4156.538,4169.872,4185.0,4215.0,4181.026,4191.41,4181.026,4164.615,4168.205,4215.128,4168.077,0,0
502,93,0,3151,4159.359,4165.897,4181.154,4153.974,4164.359,4176.795,4199.359,4176.923,4190.897,4166.41,4168.462,4166.282,4202.692,4163.59,0,0
503,94,0,3387,4158.846,4166.923,4182.9490000000005,4156.026,4168.462,4169.231,4181.026,4165.0,4182.821,4173.205,4179.103,4166.667,4196.41,4167.179,0,0
504,95,0,3392,4170.769,4169.615,4181.41,4160.128,4166.795,4170.255999999999,4179.487,4165.255999999999,4179.872,4181.923,4184.872,4166.795,4200.769,4172.179,0,0
505,96,0,2948,4165.897,4164.103,4172.179,4154.615,4144.231,4162.308,4179.615,4167.564,4182.9490000000005,4165.897,4181.41,4161.282,4197.564,4167.0509999999995,0,0
506,97,0,3151,4160.0,4163.846,4175.128,4151.154,4141.154,4152.821,4181.795,4173.077,4185.0,4158.59,4178.077,4160.385,4194.359,4165.255999999999,0,0
507,98,0,3387,4175.513,4178.077,4183.333,4161.795,4162.821,4162.9490000000005,4195.255999999999,4180.641,4191.026,4173.59,4174.487,4166.538,4206.538,4172.821,0,0
508,99,0,3392,4191.538,4191.538,4185.255999999999,4169.103,4179.103,4182.564,4207.692,4180.255999999999,4195.128,4181.667,4174.359,4173.077,4216.795,4182.0509999999995,0,0
509,100,0,2948,4205.255999999999,4200.897,4201.41,4176.154,4185.385,4199.487,4223.974,4203.59,4209.487,4190.513,4197.308,4188.718,4224.231,4199.103,0,0
510,101,0,3151,4219.487,4210.769,4219.872,4186.026,4190.513,4209.615,4237.308,4234.615,4231.795,4201.667,4213.462,4204.487,4243.462,4216.538,0,0
511,102,0,3387,4210.641,4203.077,4209.231,4177.9490000000005,4194.487,4204.615,4223.718,4218.462,4223.974,4191.923,4177.9490000000005,4194.872,4252.0509999999995,4205.0,0,0
512,103,0,3392,4192.564,4190.128,4193.333,4167.179,4198.077,4200.513,4207.692,4193.333,4201.667,4177.9490000000005,4148.077,4178.462,4235.0,4186.154,0,0
513,104,0,2948,4183.59,4188.333,4191.154,4168.846,4186.538,4201.41,4209.615,4195.385,4198.846,4169.359,4155.385,4175.897,4216.538,4183.077,0,0
514,105,0,3151,4167.436,4172.9490000000005,4178.846,4157.692,4164.872,4184.615,4199.744000000001,4187.692,4197.0509999999995,4155.255999999999,4141.667,4165.128,4209.103,4169.103,0,0
515,106,0,3387,4150.769,4152.179,4163.333,4141.282,4161.667,4169.103,4185.769,4173.59,4180.128,4150.897,4125.0,4148.718,4199.359,4147.821,0,0
516,107,0,3392,4137.436,4145.0,4150.641,4133.974,4152.821,4167.9490000000005,4182.436,4166.026,4168.59,4139.103,4131.026,4136.282,4178.077,4135.513,0,0
517,108,0,2948,4130.513,4143.333,4141.538,4136.41,4136.923,4163.974,4182.821,4162.0509999999995,4172.179,4116.795,4120.513,4128.718,4167.692,4128.59,0,0
518,109,0,3151,4157.692,4160.385,4167.436,4168.718,4162.821,4178.718,4206.923,4200.128,4202.179,4143.077,4121.538,4152.179,4204.231,4151.154,0,0
519,110,0,3387,4196.795,4200.513,4210.385,4212.308,4208.333,4218.846,4245.769,4250.897,4235.897,4198.077,4161.923,4194.359,4257.179,4199.615,0,0
520,111,0,3392,4210.513,4226.923,4224.487,4235.769,4229.231,4233.205,4253.462,4246.667,4228.205,4210.769,4181.282,4210.513,4266.538,4219.231,0,0
521,112,0,2948,4206.282,4222.821,4216.026,4244.744000000001,4217.564,4221.026,4237.179,4227.179,4210.897,4189.359,4171.282,4204.615,4242.179,4208.974,0,0
522,113,0,3151,4194.744000000001,4203.462,4205.641,4237.692,4188.462,4215.769,4230.255999999999,4229.231,4212.821,4181.795,4161.154,4194.231,4222.308,4197.821,0,0
523,114,0,3387,4183.333,4191.538,4200.513,4223.333,4182.692,4201.026,4232.692,4222.692,4208.077,4186.538,4145.385,4184.231,4213.846,4189.359,0,0
524,115,0,3392,4184.487,4198.077,4206.667,4226.538,4201.538,4186.667,4238.205,4209.872,4199.487,4185.641,4137.436,4186.795,4210.0,4188.718,0,0
525,116,0,2948,4193.59,4204.103,4218.846,4236.026,4206.795,4205.769,4249.615,4218.333,4211.538,4191.923,4149.744000000001,4202.0509999999995,4216.667,4200.513,0,0
526,117,0,3151,4209.487,4208.333,4226.923,4238.462,4205.128,4226.154,4257.564,4237.564,4229.744000000001,4211.154,4163.718,4213.333,4237.564,4214.615,0,0
527,118,0,3387,4236.923,4235.255999999999,4242.692,4253.333,4228.205,4231.41,4260.128,4258.846,4243.333,4237.179,4178.462,4226.795,4257.436,4231.795,0,0
528,119,0,3392,4255.641,4255.769,4260.0,4271.282,4246.538,4246.282,4266.026,4276.282,4259.359,4250.385,4195.255999999999,4244.744000000001,4269.487,4248.974,0,0
529,120,0,2948,4252.692,4240.513,4260.385,4267.436,4234.615,4253.59,4267.436,4270.769,4259.872,4241.282,4195.769,4244.872,4272.9490000000005,4248.333,0,0
530,121,0,3151,4245.641,4233.205,4256.41,4261.026,4236.154,4244.744000000001,4259.872,4250.255999999999,4244.487,4227.436,4183.718,4234.744000000001,4268.718,4240.641,0,0
531,122,0,3387,4251.282,4255.128,4264.872,4271.41,4263.59,4255.385,4267.692,4251.282,4242.0509999999995,4238.974,4183.718,4241.154,4270.128,4247.436,0,0
532,123,0,3392,4274.487,4278.333,4283.205,4289.744000000001,4280.128,4271.41,4291.795,4282.436,4263.974,4273.462,4202.564,4261.538,4292.821,4268.077,0,0
533,124,0,2948,4291.795,4280.513,4287.692,4293.077,4273.59,4266.795,4298.333,4294.231,4283.718,4292.436,4218.59,4270.769,4313.974,4281.282,0,0
534,125,0,3151,4290.641,4277.9490000000005,4284.231,4293.59,4276.282,4269.231,4289.615,4280.255999999999,4277.308,4285.641,4223.205,4270.513,4315.0,4280.385,0,0
535,126,0,3387,4293.462,4292.692,4294.231,4312.9490000000005,4285.897,4282.564,4291.026,4280.255999999999,4272.436,4270.128,4234.359,4278.718,4308.974,4284.615,0,0
536,127,0,52,4290.769,4293.974,4288.974,4306.282,4271.795,4274.359,4289.103,4275.0,4268.718,4252.9490000000005,4237.308,4270.255999999999,4295.255999999999,4277.821,0,0
537,0,0,3150,4256.154,4263.718,4257.821,4265.641,4246.282,4247.179,4266.667,4242.564,4243.718,4241.923,4213.333,4240.0,4273.333,4248.205,0,0
538,1,0,2827,4227.564,4240.0,4241.282,4251.41,4232.9490000000005,4233.59,4244.744000000001,4224.487,4226.41,4246.41,4197.821,4224.487,4259.103,4224.487,0,0
539,2,0,3457,4239.744000000001,4248.59,4248.462,4265.0,4230.128,4241.667,4247.692,4242.692,4243.205,4246.795,4218.59,4232.564,4265.769,4231.282,0,0
540,3,0,3451,4252.179,4261.154,4250.385,4265.769,4232.692,4248.974,4263.205,4253.462,4257.179,4235.255999999999,4233.333,4239.231,4277.0509999999995,4245.897,0,0
541,4,0,3545,4242.436,4257.179,4245.513,4259.615,4243.205,4240.513,4265.641,4238.846,4244.359,4229.359,4222.436,4234.359,4266.282,4240.128,0,0
542,5,0,3004,4230.385,4236.026,4234.487,4253.333,4224.615,4224.487,4243.974,4215.641,4220.128,4211.538,4208.718,4220.255999999999,4240.513,4216.923,0,0
543,6,0,2965,4214.615,4213.59,4217.564,4232.9490000000005,4189.615,4210.641,4219.359,4201.154,4205.385,4184.359,4200.513,4203.718,4222.436,4199.487,0,0
544,7,0,3459,4198.974,4213.846,4211.282,4221.154,4196.41,4204.359,4219.744000000001,4201.667,4207.0509999999995,4182.9490000000005,4198.333,4197.308,4219.359,4200.769,0,0
545,8,0,2877,4198.462,4216.795,4210.513,4217.9490000000005,4202.9490000000005,4204.359,4227.9490000000005,4207.308,4211.923,4187.308,4200.385,4195.255999999999,4216.667,4197.436,0,0
546,9,0,3593,4195.641,4199.359,4197.0509999999995,4204.872,4170.0,4197.692,4213.718,4201.282,4201.026,4166.667,4192.821,4181.41,4200.255999999999,4177.308,0,0
547,10,0,3375,4178.205,4185.769,4185.641,4199.359,4151.282,4188.974,4196.667,4190.513,4188.846,4146.795,4183.205,4169.103,4184.487,4160.255999999999,0,0
548,11,0,3383,4171.282,4184.103,4187.0509999999995,4200.769,4164.615,4181.282,4195.897,4183.205,4182.179,4140.769,4187.308,4170.513,4187.0509999999995,4157.564,0,0
549,12,0,2938,4167.692,4166.154,4179.615,4183.59,4151.41,4167.692,4185.385,4165.897,4174.359,4132.436,4182.9490000000005,4164.744000000001,4182.9490000000005,4154.359,0,0
550,13,0,3153,4151.923,4147.821,4168.333,4167.564,4121.026,4162.564,4171.41,4143.718,4163.59,4123.077,4168.974,4152.9490000000005,4161.41,4141.41,0,0
551,14,0,3375,4142.436,4155.0,4165.897,4174.615,4121.795,4168.59,4171.795,4130.0,4149.103,4113.718,4165.0,4149.487,4153.077,4129.359,0,0
552,15,0,3383,4126.41,4144.359,4146.923,4163.718,4126.538,4148.974,4152.692,4105.385,4124.744000000001,4087.308,4152.821,4128.718,4135.255999999999,4110.128,0,0
553,16,0,0,4109.872,4123.077,4128.974,4142.821,4113.718,4125.0,4132.308,4090.6409999999996,4114.231,4073.8459999999995,4143.333,4108.974,4107.821,4097.436,0,0
554,17,0,0,4154.872,4166.282,4168.462,4178.333,4135.897,4160.641,4171.795,4142.0509999999995,4161.667,4126.538,4191.026,4156.282,4151.282,4137.308,0,0
555,18,0,0,4215.0,4224.231,4212.308,4223.846,4190.0,4205.128,4219.487,4200.897,4215.128,4181.282,4241.538,4210.769,4221.795,4192.0509999999995,0,0
556,19,0,0,4190.255999999999,4196.923,4178.59,4199.103,4177.179,4182.564,4198.333,4175.769,4182.0509999999995,4153.205,4203.205,4172.436,4203.077,4178.59,0,0
557,20,0,0,4145.641,4149.744000000001,4131.154,4148.462,4126.282,4146.41,4168.846,4138.077,4143.846,4112.0509999999995,4162.436,4120.128,4153.718,4140.255999999999,0,0
558,21,0,0,4151.923,4157.308,4131.41,4141.538,4134.103,4153.205,4182.0509999999995,4159.487,4177.308,4124.487,4178.205,4129.615,4162.821,4138.333,0,0
559,22,0,0,4147.564,4167.692,4146.923,4167.179,4147.179,4167.821,4191.41,4178.077,4189.103,4130.641,4173.846,4143.59,4178.462,4134.103,0,0
560,23,0,0,4137.0509999999995,4158.974,4171.538,4193.462,4124.487,4169.744000000001,4189.615,4167.564,4157.821,4118.077,4158.077,4147.9490000000005,4171.667,4129.744000000001,0,0
561,24,0,0,4147.436,4148.077,4185.128,4188.077,4117.9490000000005,4165.0,4184.231,4159.872,4157.821,4113.718,4168.59,4152.436,4164.872,4133.205,0,0
562,25,0,0,4143.205,4142.9490000000005,4164.231,4161.538,4139.615,4156.282,4169.103,4162.9490000000005,4176.41,4109.487,4169.487,4143.205,4164.103,4124.103,0,0
563,26,0,0,4142.821,4159.103,4157.179,4164.103,4153.59,4167.436,4178.077,4177.308,4182.436,4124.103,4170.641,4147.0509999999995,4185.255999999999,4134.487,0,0
564,27,0,0,4150.769,4162.821,4158.333,4165.897,4141.282,4174.231,4189.487,4174.744000000001,4174.103,4126.538,4175.255999999999,4150.641,4196.154,4150.513,0,0
565,28,0,0,4138.333,4142.436,4129.744000000001,4137.436,4130.897,4151.923,4163.333,4155.0,4161.154,4099.231,4147.564,4123.333,4174.359,4131.41,0,0
566,29,0,0,4135.385,4144.359,4118.462,4131.41,4140.641,4145.0,4148.59,4161.795,4168.846,4104.872,4129.487,4112.692,4170.641,4119.359,0,0
567,30,0,0,4155.769,4165.769,4148.205,4160.128,4151.795,4167.436,4177.436,4187.564,4188.205,4137.179,4149.872,4141.282,4197.692,4142.821,0,0
568,31,0,0,4169.615,4183.846,4177.0509999999995,4183.846,4169.615,4183.462,4201.026,4205.0,4198.718,4155.641,4164.359,4164.615,4218.205,4171.026,0,0
569,32,0,0,4178.974,4197.9490000000005,4185.897,4189.615,4191.154,4185.769,4192.821,4220.128,4218.974,4175.0,4176.154,4175.255999999999,4225.641,4185.641,0,0
570,33,0,0,4182.179,4188.846,4173.205,4175.641,4180.897,4182.9490000000005,4174.615,4210.255999999999,4220.897,4171.154,4172.0509999999995,4168.333,4219.359,4173.205,0,0
571,34,0,0,4164.103,4163.718,4152.179,4151.923,4153.205,4171.667,4162.436,4182.436,4197.0509999999995,4139.487,4135.769,4142.308,4203.718,4147.564,0,0
572,35,0,0,4153.59,4167.821,4146.923,4150.0,4160.255999999999,4162.821,4165.769,4185.255999999999,4198.462,4149.103,4118.718,4135.641,4208.974,4151.154,0,0
573,36,0,0,4156.538,4179.744000000001,4141.154,4154.744000000001,4175.128,4164.487,4169.872,4189.231,4201.923,4173.846,4127.308,4141.282,4221.41,4158.846,0,0
574,37,0,0,4155.897,4168.974,4136.667,4149.744000000001,4167.179,4167.436,4163.718,4170.897,4180.769,4157.179,4122.692,4136.795,4214.744000000001,4146.795,0,0
575,38,0,0,4169.615,4171.154,4161.41,4160.769,4168.974,4172.692,4170.255999999999,4179.487,4184.231,4168.205,4129.231,4151.538,4211.154,4156.154,0,0
576,39,0,0,4194.359,4198.077,4191.282,4183.974,4195.385,4191.41,4194.359,4216.282,4222.564,4217.692,4151.41,4181.923,4227.308,4183.333,0,0
577,40,0,0,4195.769,4207.308,4196.026,4186.282,4214.103,4203.974,4205.128,4223.846,4226.026,4218.077,4141.41,4184.744000000001,4240.255999999999,4182.564,0,0
578,41,0,0,4176.026,4189.103,4182.308,4174.487,4194.744000000001,4186.41,4183.205,4196.538,4190.897,4180.513,4117.692,4166.154,4224.872,4158.718,0,0
579,42,0,0,4165.897,4175.255999999999,4170.0,4166.923,4166.154,4167.0509999999995,4160.897,4181.538,4181.538,4174.487,4117.564,4159.615,4201.282,4149.487,0,0
580,43,0,0,4171.154,4180.385,4175.513,4163.205,4179.487,4180.0,4175.255999999999,4193.333,4195.897,4187.564,4118.974,4168.077,4203.462,4160.769,0,0
581,44,0,0,4190.128,4198.462,4199.359,4175.513,4218.974,4201.282,4207.179,4210.641,4202.692,4203.846,4126.154,4186.154,4231.923,4183.974,0,0
582,45,0,0,4198.846,4206.282,4206.154,4188.077,4213.462,4191.667,4203.462,4210.255999999999,4203.462,4220.0,4134.231,4193.718,4246.154,4195.255999999999,0,0
583,46,0,0,4179.103,4190.513,4182.821,4176.154,4181.538,4171.795,4176.538,4194.359,4198.846,4212.308,4124.487,4178.333,4227.564,4171.923,0,0
584,47,0,0,4181.282,4195.641,4186.154,4178.077,4196.41,4183.205,4190.769,4201.538,4199.615,4218.205,4127.564,4182.692,4225.128,4168.718,0,0
585,48,0,0,4218.59,4231.154,4223.462,4211.538,4229.103,4209.744000000001,4228.718,4233.077,4220.641,4258.333,4159.359,4215.641,4254.359,4211.538,0,0
586,49,0,0,4222.308,4229.103,4221.41,4213.974,4226.026,4204.872,4222.179,4231.795,4227.9490000000005,4256.282,4162.436,4210.0,4245.255999999999,4219.359,0,0
587,50,0,0,4183.205,4187.308,4178.974,4175.0,4202.9490000000005,4177.0509999999995,4190.128,4193.718,4201.538,4207.308,4125.513,4165.897,4197.564,4177.821,0,0
588,51,0,0,4174.231,4183.077,4172.9490000000005,4166.282,4191.667,4181.923,4200.255999999999,4189.744000000001,4186.282,4195.385,4113.333,4161.795,4195.513,4170.385,0,0
589,52,0,0,4213.462,4221.795,4213.077,4199.744000000001,4215.128,4213.077,4234.487,4230.0,4204.615,4232.308,4151.667,4204.103,4242.821,4216.41,0,0
590,53,0,0,4238.59,4240.513,4235.128,4221.923,4242.564,4217.564,4234.487,4249.359,4229.615,4260.128,4182.436,4227.9490000000005,4265.385,4246.795,0,0
591,54,0,0,4232.9490000000005,4233.077,4233.462,4218.718,4225.897,4206.026,4224.744000000001,4241.154,4233.462,4264.744000000001,4175.513,4227.0509999999995,4258.333,4238.077,0,0
592,55,0,0,4240.128,4238.846,4239.359,4216.667,4221.154,4215.0,4240.769,4246.923,4230.128,4270.769,4176.923,4234.744000000001,4263.205,4235.385,0,0
593,56,0,0,4256.154,4249.744000000001,4240.385,4219.872,4250.128,4223.077,4244.359,4253.462,4238.462,4272.564,4192.0509999999995,4238.846,4267.308,4247.821,0,0
594,57,0,0,4251.667,4248.974,4237.821,4225.641,4256.923,4221.41,4232.9490000000005,4250.385,4245.769,4267.308,4187.564,4234.744000000001,4264.487,4251.282,0,0
595,58,0,0,4248.974,4252.821,4250.513,4233.718,4258.333,4234.615,4246.41,4259.615,4246.667,4276.026,4184.615,4239.103,4274.487,4251.026,0,0
596,59,0,0,4251.41,4249.615,4247.0509999999995,4228.718,4266.154,4236.026,4252.821,4264.103,4241.667,4273.077,4188.077,4234.359,4275.641,4247.821,0,0
597,60,0,0,4232.308,4229.615,4218.59,4211.41,4254.615,4216.923,4231.923,4247.179,4231.795,4239.231,4170.128,4215.513,4255.128,4230.0,0,0
598,61,0,0,4213.974,4221.026,4210.385,4205.897,4238.846,4214.231,4216.41,4233.974,4229.744000000001,4225.769,4150.897,4207.436,4245.0,4217.564,0,0
599,62,0,0,4214.615,4224.615,4221.026,4202.9490000000005,4234.359,4217.9490000000005,4213.333,4233.59,4228.077,4236.538,4153.462,4207.436,4251.538,4220.769,0,0
600,63,0,0,4213.718,4218.974,4213.718,4188.974,4224.872,4208.718,4211.538,4229.872,4217.179,4226.667,4158.205,4202.692,4246.026,4219.487,0,0
601,64,0,3165,4210.255999999999,4209.872,4203.59,4186.282,4220.641,4201.795,4209.487,4223.205,4215.769,4215.0,4155.513,4203.462,4236.026,4214.872,0,0
602,65,0,2844,4197.9490000000005,4206.154,4200.513,4189.103,4221.538,4196.795,4203.333,4212.9490000000005,4217.179,4219.744000000001,4148.205,4200.255999999999,4235.0,4208.974,0,0
603,66,0,3473,4174.103,4198.846,4192.308,4179.615,4208.462,4188.59,4202.0509999999995,4202.0509999999995,4206.154,4218.846,4140.0,4187.308,4226.923,4196.282,0,0
604,67,0,3466,4164.744000000001,4186.795,4182.308,4163.974,4193.462,4185.769,4202.564,4202.9490000000005,4198.205,4205.128,4131.923,4178.846,4208.974,4185.255999999999,0,0
605,68,0,3569,4172.308,4171.282,4174.487,4153.59,4181.538,4180.255999999999,4183.974,4199.103,4190.641,4189.744000000001,4127.692,4173.462,4195.769,4182.9490000000005,0,0
606,69,0,3008,4176.923,4166.538,4170.897,4155.641,4181.923,4168.59,4166.154,4188.462,4186.538,4185.128,4126.026,4170.513,4202.0509999999995,4185.255999999999,0,0
607,70,0,2980,4174.487,4176.923,4171.154,4165.255999999999,4185.255999999999,4168.718,4168.718,4185.769,4192.0509999999995,4185.255999999999,4125.897,4172.436,4207.308,4184.103,0,0
608,71,0,3467,4165.641,4177.308,4165.128,4170.0,4178.333,4175.513,4172.9490000000005,4182.308,4185.769,4171.282,4123.846,4166.923,4192.308,4174.103,0,0
609,72,0,2870,4152.0509999999995,4165.255999999999,4153.846,4166.154,4180.128,4170.769,4166.667,4166.41,4167.692,4150.385,4113.59,4152.821,4179.487,4160.128,0,0
610,73,0,3587,4152.821,4164.872,4154.744000000001,4171.282,4186.795,4166.282,4164.744000000001,4157.564,4165.385,4153.846,4109.231,4149.103,4182.436,4156.923,0,0
611,74,0,3379,4161.026,4172.564,4165.513,4182.436,4183.205,4169.487,4178.718,4165.897,4172.692,4168.333,4116.41,4155.385,4185.897,4164.487,0,0
612,75,0,3391,4159.359,4170.0,4167.692,4191.282,4179.872,4169.359,4185.897,4172.692,4170.0,4162.9490000000005,4126.795,4160.641,4184.615,4169.231,0,0
613,76,0,2948,4160.0,4168.59,4169.487,4200.641,4192.179,4168.462,4175.641,4176.923,4176.538,4152.564,4135.897,4164.231,4187.308,4165.769,0,0
614,77,0,3154,4161.667,4173.462,4171.923,4205.0,4189.487,4171.795,4168.333,4175.769,4182.821,4152.821,4139.744000000001,4163.205,4184.103,4161.026,0,0
615,78,0,3379,4156.154,4166.026,4159.359,4199.231,4163.59,4170.385,4167.692,4165.641,4171.538,4151.538,4126.41,4153.718,4170.513,4156.282,0,0
616,79,0,3391,4163.718,4165.769,4155.513,4197.0509999999995,4171.667,4169.359,4180.255999999999,4180.0,4174.487,4159.615,4123.205,4159.487,4173.077,4162.308,0,0
617,80,0,2948,4173.718,4177.9490000000005,4169.231,4204.359,4197.564,4173.205,4196.538,4201.795,4192.179,4172.9490000000005,4142.9490000000005,4170.897,4187.692,4173.974,0,0
618,81,0,3154,4163.718,4177.308,4169.744000000001,4203.333,4186.41,4170.769,4185.897,4185.385,4187.821,4166.923,4144.744000000001,4159.103,4183.974,4171.667,0,0
619,82,0,3379,4160.0,4170.0,4164.103,4200.255999999999,4168.59,4167.564,4170.897,4167.308,4175.255999999999,4162.179,4135.255999999999,4154.744000000001,4177.0509999999995,4167.821,0,0
620,83,0,3391,4168.333,4172.9490000000005,4163.718,4201.795,4181.026,4170.641,4179.359,4182.821,4182.0509999999995,4166.667,4140.128,4166.667,4184.231,4168.205,0,0
621,84,0,2948,4167.0509999999995,4179.231,4164.103,4199.231,4188.077,4177.179,4187.179,4192.564,4188.462,4162.9490000000005,4144.872,4166.154,4188.333,4164.231,0,0
622,85,0,3154,4164.359,4180.255999999999,4171.282,4202.179,4175.385,4183.333,4184.872,4180.769,4187.436,4164.359,4147.308,4162.564,4190.897,4163.59,0,0
623,86,0,3379,4179.615,4191.667,4189.872,4216.538,4188.077,4190.0,4198.077,4191.795,4199.744000000001,4188.462,4164.487,4180.0,4212.821,4181.923,0,0
624,87,0,3391,4196.026,4204.872,4197.821,4218.846,4213.077,4194.487,4210.385,4214.487,4212.692,4208.205,4178.718,4193.59,4230.128,4198.974,0,0
625,88,0,2948,4173.333,4181.538,4173.974,4187.692,4193.59,4175.897,4183.974,4187.179,4190.128,4181.282,4154.872,4167.436,4201.41,4172.692,0,0
626,89,0,3154,4135.128,4147.564,4144.359,4159.872,4158.333,4147.0509999999995,4153.718,4147.821,4156.41,4141.923,4123.333,4132.564,4164.487,4133.974,0,0
627,90,0,3379,4149.231,4166.795,4160.0,4180.0,4177.9490000000005,4165.641,4183.718,4181.923,4178.718,4160.897,4142.821,4146.154,4185.255999999999,4152.564,0,0
628,91,0,3391,4187.179,4202.436,4189.487,4209.744000000001,4213.59,4207.179,4225.385,4226.667,4218.59,4201.026,4173.974,4178.59,4220.255999999999,4187.436,0,0
629,92,0,2948,4175.513,4188.846,4176.538,4201.795,4196.282,4196.41,4206.923,4203.333,4209.103,4191.026,4161.667,4168.333,4210.769,4174.359,0,0
630,93,0,3154,4159.744000000001,4175.897,4168.077,4195.897,4185.385,4175.0,4197.821,4187.179,4195.769,4175.641,4154.872,4155.641,4199.359,4167.308,0,0
631,94,0,3379,4177.179,4188.333,4183.59,4201.923,4205.385,4192.821,4230.897,4206.282,4205.128,4188.846,4168.205,4170.128,4206.538,4184.744000000001,0,0
632,95,0,3391,4187.308,4186.41,4178.462,4191.923,4205.128,4203.718,4235.255999999999,4208.205,4201.923,4187.308,4165.385,4173.846,4202.9490000000005,4179.359,0,0
633,96,0,2948,4183.846,4183.077,4168.59,4186.538,4197.821,4190.385,4213.333,4199.744000000001,4195.128,4179.744000000001,4161.538,4168.974,4200.513,4168.59,0,0
634,97,0,3154,4178.59,4187.436,4169.872,4190.255999999999,4203.077,4178.077,4204.615,4190.897,4198.462,4183.077,4164.744000000001,4168.205,4201.026,4172.0509999999995,0,0
635,98,0,3379,4177.692,4186.538,4171.026,4191.41,4202.0509999999995,4177.179,4200.769,4184.103,4197.9490000000005,4186.667,4165.255999999999,4165.897,4196.923,4177.308,0,0
636,99,0,3391,4187.0509999999995,4191.282,4174.231,4194.615,4195.897,4185.641,4201.667,4193.846,4197.564,4193.205,4171.667,4167.821,4206.41,4186.538,0,0
637,100,0,2948,4187.692,4197.9490000000005,4173.205,4188.077,4197.9490000000005,4187.821,4201.667,4195.513,4198.974,4192.564,4170.0,4166.667,4214.231,4185.0,0,0
638,101,0,3154,4181.026,4198.205,4171.538,4179.872,4205.128,4186.923,4195.897,4188.333,4204.615,4190.0,4169.615,4166.795,4213.333,4177.692,0,0
639,102,0,3379,4193.462,4206.667,4186.795,4192.308,4213.974,4200.513,4209.615,4210.641,4217.436,4207.436,4196.154,4184.231,4226.41,4197.179,0,0
640,103,0,3391,4197.308,4203.59,4192.0509999999995,4193.59,4208.974,4201.41,4216.795,4220.641,4211.154,4214.359,4200.897,4192.436,4228.077,4208.077,0,0
641,104,0,2948,4177.564,4181.282,4177.179,4175.897,4196.026,4183.077,4200.513,4197.179,4194.744000000001,4192.692,4175.385,4179.744000000001,4208.333,4189.231,0,0
642,105,0,3154,4182.821,4188.59,4187.564,4187.9490000000005,4212.436,4190.897,4203.718,4206.538,4207.436,4197.9490000000005,4189.103,4189.744000000001,4213.462,4198.333,0,0
643,106,0,3379,4207.308,4220.769,4218.462,4210.897,4233.59,4216.154,4224.615,4239.231,4228.462,4226.41,4222.9490000000005,4220.0,4237.564,4229.615,0,0
644,107,0,3391,4205.513,4216.667,4215.769,4204.231,4218.59,4215.897,4226.538,4237.308,4230.255999999999,4223.974,4220.897,4218.59,4234.231,4224.487,0,0
645,108,0,2948,4199.103,4200.897,4201.795,4200.385,4215.513,4210.897,4228.846,4227.179,4230.255999999999,4219.615,4211.795,4201.795,4228.846,4209.615,0,0
646,109,0,3154,4208.718,4212.0509999999995,4210.897,4218.077,4244.487,4216.795,4237.179,4234.744000000001,4227.564,4231.154,4216.923,4205.385,4239.231,4218.846,0,0
647,110,0,3379,4192.821,4209.359,4203.59,4212.0509999999995,4233.462,4209.872,4214.744000000001,4218.846,4206.026,4213.846,4202.0509999999995,4198.205,4225.513,4208.205,0,0
648,111,0,3391,4171.538,4188.846,4180.641,4192.308,4194.615,4195.769,4188.333,4195.641,4200.769,4191.538,4187.308,4179.487,4202.436,4187.436,0,0
649,112,0,2948,4193.205,4202.821,4195.385,4205.128,4205.513,4201.026,4198.077,4213.077,4224.872,4211.026,4209.103,4192.9490000000005,4212.436,4203.333,0,0
650,113,0,3154,4210.897,4225.255999999999,4213.205,4217.821,4231.538,4210.0,4211.538,4226.923,4228.077,4222.821,4223.077,4207.9490000000005,4229.359,4216.667,0,0
651,114,0,3379,4184.487,4207.179,4187.821,4198.718,4214.103,4199.231,4194.231,4201.282,4199.103,4198.462,4198.59,4184.487,4216.795,4190.769,0,0
652,115,0,3391,4161.795,4183.205,4165.0,4185.128,4196.026,4183.59,4175.769,4178.974,4184.359,4180.897,4178.718,4160.128,4201.795,4167.564,0,0
653,116,0,2948,4166.795,4185.385,4168.205,4188.462,4206.282,4182.436,4186.41,4183.333,4199.487,4174.103,4182.179,4159.231,4203.462,4167.436,0,0
654,117,0,3154,4173.462,4192.564,4170.513,4188.718,4211.282,4190.255999999999,4203.205,4189.103,4203.846,4170.255999999999,4185.255999999999,4165.255999999999,4205.641,4171.923,0,0
655,118,0,3379,4173.59,4186.41,4168.59,4187.9490000000005,4197.821,4194.359,4202.9490000000005,4183.333,4186.282,4178.077,4184.103,4167.179,4202.9490000000005,4172.821,0,0
656,119,0,3391,4164.487,4173.205,4166.923,4181.538,4186.282,4184.487,4190.128,4173.974,4182.692,4180.513,4179.487,4160.0,4191.795,4164.359,0,0
657,120,0,2948,4155.385,4165.769,4165.641,4170.513,4182.821,4172.692,4182.179,4167.564,4185.897,4163.974,4171.795,4152.179,4174.872,4157.0509999999995,0,0
658,121,0,3154,4162.821,4168.205,4167.9490000000005,4168.462,4182.179,4176.154,4182.821,4166.538,4174.615,4154.744000000001,4174.872,4158.333,4168.077,4164.872,0,0
659,122,0,3379,4174.103,4175.0,4176.538,4173.077,4188.205,4182.564,4187.692,4172.9490000000005,4177.0509999999995,4165.385,4188.974,4169.744000000001,4178.333,4174.744000000001,0,0
660,123,0,3391,4165.128,4170.128,4174.359,4169.872,4190.255999999999,4175.128,4187.564,4175.0,4188.846,4168.718,4191.026,4169.872,4181.795,4170.255999999999,0,0
661,124,0,2948,4140.513,4153.462,4154.615,4155.897,4165.513,4160.769,4168.974,4153.846,4161.923,4146.41,4172.436,4155.769,4160.0,4155.0,0,0
662,125,0,3154,4122.436,4137.308,4135.128,4140.385,4135.513,4138.846,4140.641,4125.128,4132.179,4120.769,4154.872,4132.692,4131.795,4133.205,0,0
663,126,0,3379,4117.9490000000005,4129.487,4130.255999999999,4134.872,4140.641,4120.0,4134.872,4128.59,4143.974,4118.718,4148.974,4119.872,4122.436,4119.103,0,0
664,127,0,52,4124.359,4130.897,4136.667,4139.359,4158.462,4126.538,4153.718,4149.359,4159.103,4131.026,4151.154,4128.077,4135.0,4128.205,0,0
665,0,0,3161,4133.974,4137.179,4142.436,4137.9490000000005,4149.103,4140.255999999999,4159.103,4148.077,4157.308,4140.0,4161.667,4139.744000000001,4141.026,4140.0,0,0
666,1,0,2836,4137.9490000000005,4141.923,4144.103,4136.282,4135.255999999999,4139.615,4146.41,4137.179,4151.923,4137.692,4167.692,4138.974,4127.564,4137.179,0,0
667,2,0,3471,4124.359,4131.538,4139.744000000001,4134.872,4138.718,4136.41,4140.513,4135.769,4139.359,4121.154,4158.462,4130.385,4115.0,4130.897,0,0
668,3,0,3459,4117.179,4122.692,4138.077,4127.436,4140.769,4138.846,4144.872,4137.821,4136.795,4118.59,4157.9490000000005,4130.0,4123.462,4135.255999999999,0,0
669,4,0,3554,4135.128,4129.103,4143.974,4125.897,4136.026,4139.744000000001,4147.564,4141.667,4157.821,4140.385,4174.487,4140.641,4142.564,4144.103,0,0
670,5,0,3008,4139.103,4127.9490000000005,4143.333,4127.308,4136.41,4131.154,4142.692,4140.255999999999,4159.487,4145.513,4175.897,4143.205,4141.154,4141.538,0,0
671,6,0,2976,4126.41,4122.564,4140.513,4124.615,4138.59,4131.41,4139.872,4137.0509999999995,4142.179,4134.615,4170.128,4140.513,4130.641,4139.744000000001,0,0
672,7,0,3477,4124.744000000001,4124.872,4140.769,4124.103,4135.255999999999,4135.128,4142.9490000000005,4144.872,4152.308,4139.744000000001,4173.59,4140.255999999999,4139.103,4143.462,0,0
673,8,0,2873,4116.923,4113.205,4129.872,4119.872,4124.744000000001,4116.154,4140.513,4142.308,4158.077,4135.513,4161.026,4124.615,4142.436,4129.487,0,0
674,9,0,3595,4096.538,4092.692,4114.359,4109.103,4115.128,4098.333,4146.282,4119.231,4131.538,4112.564,4141.667,4106.154,4126.923,4109.103,0,0
675,10,0,3393,4091.795,4092.5640000000003,4108.077,4100.128,4108.077,4109.487,4159.359,4107.179,4119.487,4100.641,4139.231,4105.385,4118.205,4104.231,0,0
676,11,0,3393,4090.256,4088.974,4096.795,4088.59,4088.59,4112.0509999999995,4146.026,4102.564,4123.077,4086.795,4130.513,4094.8720000000003,4110.769,4093.8459999999995,0,0
677,12,0,2944,4073.974,4067.692,4082.308,4077.4359999999997,4063.462,4092.179,4116.795,4087.692,4103.974,4058.974,4112.179,4075.6409999999996,4092.949,4075.385,0,0
678,13,0,3159,4063.462,4057.692,4074.8720000000003,4071.795,4050.513,4083.077,4097.9490000000005,4075.1279999999997,4080.0,4037.4359999999997,4105.0,4071.667,4075.256,4067.949,0,0
679,14,0,3393,4055.7690000000002,4050.385,4062.4359999999997,4056.538,4042.179,4070.897,4075.6409999999996,4060.385,4071.923,4024.8720000000003,4095.7690000000002,4061.795,4060.0,4057.692,0,0
680,15,0,3393,4037.949,4029.3590000000004,4045.385,4038.333,4025.513,4051.667,4059.3590000000004,4041.41,4066.41,4013.077,4075.1279999999997,4039.487,4045.6409999999996,4038.8459999999995,0,0
681,16,0,0,4016.538,4011.538,4035.0,4029.615,4009.2309999999998,4047.051,4063.59,4036.667,4060.256,4000.6409999999996,4059.2309999999998,4025.256,4035.1279999999997,4023.333,0,0
682,17,0,0,3997.949,3998.077,4021.923,4014.2309999999998,4004.487,4044.2309999999998,4058.8459999999995,4028.077,4042.949,3975.513,4043.8459999999995,4012.949,4018.462,4002.4359999999997,0,0
683,18,0,0,3980.897,3975.897,4001.923,3989.8720000000003,3989.103,4025.256,4037.949,3996.282,4012.949,3945.385,4022.692,3994.2309999999998,3998.974,3981.1540000000005,0,0
684,19,0,0,3986.41,3972.179,4003.8459999999995,3987.4359999999997,3969.487,4014.103,4038.333,3989.8720000000003,4021.538,3959.8720000000003,4028.462,3998.718,4009.744,3987.821,0,0
685,20,0,0,4017.051,3998.59,4027.5640000000003,4008.333,3977.179,4033.59,4065.1279999999997,4023.333,4061.282,4005.6409999999996,4057.5640000000003,4026.538,4041.538,4016.923,0,0
686,21,0,0,4024.615,4007.5640000000003,4034.487,4016.41,3986.538,4046.667,4081.923,4038.333,4057.5640000000003,4012.308,4065.256,4036.41,4045.6409999999996,4027.692,0,0
687,22,0,0,4011.282,3998.718,4031.667,4008.462,3984.8720000000003,4034.2309999999998,4072.179,4030.1279999999997,4032.4359999999997,3993.59,4061.026,4029.487,4032.4359999999997,4020.1279999999997,0,0
688,23,0,0,4021.026,4013.077,4043.205,4014.3590000000004,3995.385,4031.1540000000005,4057.821,4032.5640000000003,4042.949,4001.026,4072.051,4034.8720000000003,4038.974,4026.282,0,0
689,24,0,0,4037.949,4025.897,4047.308,4025.7690000000002,3995.0,4046.026,4059.615,4036.923,4061.923,4011.282,4077.692,4041.538,4047.5640000000003,4035.897,0,0
690,25,0,0,4037.4359999999997,4023.718,4046.538,4030.897,3997.179,4052.308,4077.308,4045.1279999999997,4067.051,4012.308,4077.4359999999997,4044.103,4047.051,4038.462,0,0
691,26,0,0,4043.718,4041.1540000000005,4066.667,4045.513,4037.051,4052.179,4104.103,4066.41,4074.487,4029.615,4094.487,4060.6409999999996,4059.487,4052.308,0,0
692,27,0,0,4064.8720000000003,4062.692,4083.59,4065.385,4065.385,4062.949,4126.026,4081.923,4082.949,4050.1279999999997,4114.231,4078.205,4075.897,4072.5640000000003,0,0
693,28,0,0,4077.5640000000003,4066.41,4082.051,4070.385,4057.051,4075.513,4127.9490000000005,4087.5640000000003,4088.462,4059.487,4121.923,4084.103,4085.1279999999997,4078.462,0,0
694,29,0,0,4075.1279999999997,4068.974,4085.1279999999997,4066.41,4052.692,4083.718,4121.41,4090.385,4091.538,4060.6409999999996,4120.769,4087.4359999999997,4089.615,4075.1279999999997,0,0
695,30,0,0,4080.0,4081.538,4099.872,4073.462,4062.308,4093.077,4129.872,4091.026,4093.333,4060.385,4121.667,4094.8720000000003,4096.026,4081.923,0,0
696,31,0,0,4098.718,4090.897,4112.692,4083.8459999999995,4073.205,4103.077,4142.9490000000005,4100.641,4105.255999999999,4080.7690000000002,4142.308,4109.231,4110.641,4100.769,0,0
697,32,0,0,4102.436,4087.308,4112.564,4078.974,4080.385,4107.179,4138.846,4107.179,4111.41,4097.564,4156.795,4113.59,4113.462,4107.564,0,0
698,33,0,0,4100.385,4091.538,4115.0,4082.4359999999997,4089.103,4104.615,4138.333,4105.641,4111.154,4094.8720000000003,4147.564,4108.846,4108.462,4105.769,0,0
699,34,0,0,4121.41,4110.255999999999,4134.615,4106.282,4104.487,4107.0509999999995,4153.718,4116.795,4130.513,4109.103,4148.974,4118.974,4125.641,4120.385,0,0
700,35,0,0,4134.103,4113.077,4144.231,4112.0509999999995,4102.9490000000005,4110.255999999999,4157.436,4130.255999999999,4143.205,4128.718,4161.154,4133.974,4145.255999999999,4134.103,0,0
701,36,0,0,4125.769,4112.564,4140.641,4107.179,4084.487,4112.179,4154.744000000001,4132.436,4135.641,4127.564,4161.667,4139.359,4142.179,4131.282,0,0
702,37,0,0,4126.795,4130.641,4150.641,4122.821,4096.41,4120.769,4167.179,4137.179,4139.103,4118.462,4162.564,4141.282,4138.462,4128.59,0,0
703,38,0,0,4127.436,4122.179,4153.205,4134.103,4123.205,4128.077,4173.718,4138.846,4140.255999999999,4106.538,4151.026,4131.538,4136.538,4123.077,0,0
704,39,0,0,4122.9490000000005,4105.0,4146.667,4142.308,4120.385,4128.333,4171.282,4139.744000000001,4127.564,4096.538,4138.077,4128.205,4131.154,4120.641,0,0
705,40,0,0,4121.154,4127.821,4141.667,4163.462,4116.795,4125.385,4171.154,4141.667,4121.667,4087.051,4150.385,4137.564,4125.385,4124.103,0,0
706,41,0,0,4114.487,4108.205,4129.615,4162.0509999999995,4117.9490000000005,4122.179,4170.513,4131.795,4128.974,4076.282,4146.282,4124.487,4118.462,4110.385,0,0
707,42,0,0,4107.308,4048.59,4122.436,4134.231,4089.615,4123.205,4170.641,4118.59,4124.872,4071.667,4113.333,4096.923,4113.974,4091.795,0,0
708,43,0,0,4093.077,4062.821,4111.667,4126.923,4076.1540000000005,4120.0,4155.513,4105.641,4102.692,4066.923,4098.077,4088.8459999999995,4108.846,4089.3590000000004,0,0
709,44,0,0,4078.462,4123.077,4090.256,4146.795,4107.821,4109.231,4131.923,4095.0,4097.9490000000005,4066.026,4093.333,4091.282,4102.692,4089.2309999999998,0,0
710,45,0,0,4091.026,4120.385,4090.0,4154.744000000001,4112.436,4104.744000000001,4136.667,4099.359,4108.333,4070.513,4081.538,4087.179,4106.282,4089.487,0,0
711,46,0,0,4113.333,4098.205,4108.846,4151.282,4081.923,4112.564,4153.718,4107.179,4112.9490000000005,4068.8459999999995,4085.897,4091.282,4108.205,4100.128,0,0
712,47,0,0,4115.255999999999,4178.846,4112.564,4167.436,4104.359,4118.718,4155.385,4112.692,4121.282,4076.923,4096.026,4108.462,4103.718,4112.9490000000005,0,0
713,48,0,0,4119.103,4308.846,4114.615,4199.231,4140.0,4120.0,4161.282,4122.179,4128.333,4107.436,4086.923,4118.333,4112.692,4117.308,0,0
714,49,0,0,4130.385,4392.436,4128.333,4222.564,4123.974,4125.128,4174.359,4125.769,4126.795,4121.795,4075.513,4117.308,4124.103,4120.769,0,0
715,50,0,0,4120.255999999999,4473.333,4125.897,4227.179,4117.9490000000005,4128.718,4173.846,4128.077,4129.103,4109.359,4063.462,4112.564,4120.255999999999,4123.077,0,0
716,51,0,0,4109.359,4570.897,4111.026,4232.564,4138.462,4120.769,4165.255999999999,4132.308,4131.538,4104.487,4054.615,4107.436,4116.538,4117.692,0,0
717,52,0,0,4120.255999999999,4643.333,4111.667,4255.255999999999,4146.41,4120.513,4164.872,4130.385,4121.667,4117.564,4057.5640000000003,4109.872,4123.205,4119.744000000001,0,0
718,53,0,0,4144.744000000001,4722.564,4148.59,4298.333,4161.026,4153.974,4192.692,4154.744000000001,4143.59,4153.59,4075.385,4140.769,4145.897,4153.846,0,0
719,54,0,0,4175.128,4835.769,4190.255999999999,4346.026,4208.59,4188.333,4232.821,4202.436,4195.385,4198.846,4105.385,4185.128,4185.897,4200.128,0,0
720,55,0,0,4204.359,4915.769,4197.0509999999995,4382.821,4238.974,4190.0,4240.769,4213.718,4207.0509999999995,4209.872,4128.077,4206.154,4207.0509999999995,4219.103,0,0
721,56,0,0,4216.667,4958.077,4193.077,4407.0509999999995,4232.564,4182.436,4231.41,4200.128,4185.897,4189.872,4126.41,4202.436,4194.872,4220.128,0,0
722,57,0,0,4208.205,4994.744000000001,4193.974,4417.436,4235.769,4180.385,4230.513,4201.154,4180.897,4185.128,4115.897,4192.436,4191.154,4218.974,0,0
723,58,0,0,4196.667,5002.9490000000005,4185.513,4421.538,4234.872,4178.718,4223.59,4193.846,4184.487,4197.179,4111.41,4184.744000000001,4200.128,4205.385,0,0
724,59,0,0,4194.872,4990.0,4176.282,4425.769,4216.538,4179.744000000001,4211.026,4177.308,4176.026,4194.872,4105.255999999999,4178.205,4198.462,4193.077,0,0
725,60,0,0,4206.154,4978.077,4183.846,4440.641,4219.487,4185.0,4210.769,4185.128,4179.359,4195.128,4109.744000000001,4182.179,4199.103,4205.513,0,0
726,61,0,0,4215.385,4957.179,4191.923,4450.897,4238.974,4186.154,4218.59,4196.795,4190.513,4209.487,4125.385,4191.41,4203.462,4217.436,0,0
727,62,0,0,4205.769,4905.641,4184.872,4434.359,4233.59,4180.513,4212.9490000000005,4187.821,4180.385,4201.154,4118.59,4183.59,4192.821,4203.333,0,0
728,63,0,0,4210.769,4856.923,4194.231,4429.615,4230.128,4188.846,4212.9490000000005,4199.615,4192.9490000000005,4200.255999999999,4119.744000000001,4189.615,4206.41,4207.564,0,0
729,64,0,3163,4255.0,4858.333,4231.154,4458.077,4264.872,4225.769,4247.9490000000005,4246.667,4236.795,4248.077,4161.538,4230.0,4257.692,4253.333,0,0
730,65,0,2806,4294.359,4864.872,4260.897,4475.0,4306.667,4255.513,4285.385,4281.41,4261.282,4291.282,4196.795,4260.128,4292.308,4289.487,0,0
731,66,0,3468,4290.897,4818.077,4254.615,4452.436,4313.846,4242.692,4278.718,4279.872,4255.385,4280.255999999999,4197.0509999999995,4254.231,4286.154,4282.821,0,0
732,67,0,3417,4265.641,4746.154,4228.59,4418.462,4283.077,4218.333,4247.308,4256.538,4240.128,4251.923,4186.026,4235.128,4264.103,4259.744000000001,0,0
733,68,0,3550,4249.103,4690.128,4212.564,4392.0509999999995,4252.0509999999995,4217.9490000000005,4232.692,4236.538,4231.41,4247.436,4174.231,4224.615,4256.538,4247.9490000000005,0,0
734,69,0,3005,4251.154,4643.462,4214.359,4376.41,4250.255999999999,4222.308,4230.513,4237.179,4235.128,4256.538,4172.692,4226.795,4261.026,4249.231,0,0
735,70,0,2977,4251.538,4590.769,4214.744000000001,4366.795,4250.128,4201.795,4222.9490000000005,4229.744000000001,4232.308,4252.821,4183.718,4225.513,4251.538,4247.9490000000005,0,0
736,71,0,3472,4231.667,4535.255999999999,4195.897,4341.667,4223.974,4168.974,4203.974,4195.897,4204.487,4225.897,4177.821,4203.077,4220.641,4227.564,0,0
737,72,0,2879,4210.897,4491.667,4179.744000000001,4308.077,4191.923,4157.692,4180.769,4173.205,4182.308,4200.128,4156.154,4183.077,4198.333,4203.462,0,0
738,73,0,3596,4207.692,4467.9490000000005,4180.385,4290.255999999999,4182.692,4166.795,4171.026,4173.718,4182.436,4197.0509999999995,4154.231,4180.769,4199.744000000001,4196.795,0,0
739,74,0,3384,4205.255999999999,4449.872,4178.205,4280.0,4185.0,4172.308,4173.846,4174.487,4186.538,4195.641,4165.897,4176.41,4203.846,4194.615,0,0
740,75,0,3387,4200.128,4430.128,4171.667,4262.564,4176.154,4169.103,4167.9490000000005,4167.692,4182.436,4180.769,4168.205,4167.308,4194.615,4183.077,0,0
741,76,0,2944,4202.179,4415.385,4173.974,4248.462,4164.872,4163.846,4151.923,4162.9490000000005,4169.872,4167.564,4164.487,4166.154,4177.0509999999995,4176.923,0,0
742,77,0,3157,4214.615,4407.9490000000005,4190.255999999999,4246.154,4169.487,4166.41,4157.179,4180.0,4174.872,4175.385,4177.308,4177.692,4183.59,4191.795,0,0
743,78,0,3384,4226.923,4398.077,4200.769,4242.564,4180.769,4171.795,4172.821,4207.564,4197.308,4197.436,4201.282,4191.282,4203.333,4208.718,0,0
744,79,0,3387,4223.205,4378.718,4194.744000000001,4228.205,4177.179,4166.538,4161.154,4203.974,4200.0,4198.974,4206.026,4190.385,4198.462,4204.359,0,0
745,80,0,2944,4203.333,4352.179,4180.128,4208.718,4161.282,4155.897,4141.41,4168.205,4173.077,4177.179,4194.487,4174.744000000001,4177.179,4185.641,0,0
746,81,0,3157,4184.615,4324.615,4161.795,4187.692,4146.026,4146.282,4130.0,4139.231,4153.59,4165.385,4185.641,4158.077,4167.692,4170.769,0,0
747,82,0,3384,4180.897,4310.0,4148.846,4171.538,4138.718,4138.077,4119.615,4131.795,4153.333,4162.821,4184.231,4151.667,4168.333,4165.0,0,0
748,83,0,3387,4185.641,4309.359,4153.846,4171.282,4141.154,4135.769,4121.538,4139.615,4153.205,4158.718,4194.231,4156.538,4166.923,4164.872,0,0
749,84,0,2944,4179.615,4299.615,4155.897,4168.974,4136.41,4130.0,4122.179,4140.897,4146.795,4152.821,4198.718,4154.487,4149.359,4157.0509999999995,0,0
750,85,0,3157,4160.641,4275.128,4140.897,4147.308,4118.462,4117.179,4109.231,4127.436,4134.487,4138.974,4187.436,4137.179,4119.872,4140.769,0,0
751,86,0,3384,4163.59,4268.718,4146.026,4140.641,4119.487,4125.769,4118.205,4136.41,4138.077,4139.359,4194.231,4136.026,4121.282,4146.026,0,0
752,87,0,3387,4189.359,4286.282,4172.0509999999995,4157.821,4140.641,4157.9490000000005,4145.255999999999,4162.564,4159.872,4165.769,4225.385,4157.692,4144.103,4170.641,0,0
753,88,0,2944,4181.538,4275.769,4164.487,4147.0509999999995,4126.41,4161.282,4138.333,4147.179,4151.026,4158.718,4228.718,4155.897,4128.333,4163.846,0,0
754,89,0,3157,4144.872,4234.231,4131.795,4109.231,4085.513,4128.718,4112.564,4098.718,4109.231,4117.308,4198.333,4122.179,4094.744,4127.436,0,0
755,90,0,3384,4144.359,4223.462,4132.179,4102.9490000000005,4086.923,4116.667,4117.692,4096.538,4106.41,4119.487,4188.462,4114.231,4109.231,4123.077,0,0
756,91,0,3387,4183.59,4255.0,4165.641,4131.282,4126.667,4147.821,4147.0509999999995,4146.41,4150.513,4163.974,4216.538,4147.9490000000005,4157.692,4158.462,0,0
757,92,0,2944,4200.897,4270.385,4180.128,4144.103,4144.615,4170.641,4163.462,4166.538,4166.026,4183.205,4237.821,4167.436,4172.564,4178.59,0,0
758,93,0,3157,4171.795,4240.255999999999,4152.179,4121.538,4126.282,4145.641,4140.897,4125.385,4134.744000000001,4153.077,4212.692,4140.128,4135.513,4155.897,0,0
759,94,0,3384,4133.333,4200.385,4113.59,4091.282,4101.795,4110.128,4096.538,4075.6409999999996,4099.487,4104.487,4168.974,4104.103,4089.487,4118.974,0,0
760,95,0,3387,4138.846,4201.026,4118.462,4092.308,4104.231,4117.692,4089.487,4080.513,4100.385,4097.436,4170.385,4111.667,4091.41,4124.231,0,0
761,96,0,2944,4201.923,4259.872,4174.872,4140.0,4146.795,4163.077,4145.128,4139.359,4150.0,4157.179,4228.205,4167.564,4156.923,4186.795,0,0
762,97,0,3157,4268.462,4331.538,4232.436,4198.59,4204.359,4202.179,4211.154,4199.744000000001,4207.0509999999995,4223.333,4287.0509999999995,4223.462,4230.897,4254.231,0,0
763,98,0,3384,4292.9490000000005,4363.333,4251.795,4224.359,4239.359,4215.128,4236.795,4223.974,4226.026,4234.872,4302.436,4238.462,4247.0509999999995,4276.667,0,0
764,99,0,3387,4292.821,4364.487,4248.718,4223.718,4237.0509999999995,4218.718,4234.103,4227.179,4219.487,4221.667,4298.462,4233.077,4231.154,4273.974,0,0
765,100,0,2944,4289.744000000001,4354.744000000001,4241.154,4216.538,4211.538,4220.255999999999,4220.128,4220.897,4211.154,4217.564,4300.769,4230.513,4231.538,4271.667,0,0
766,101,0,3157,4258.59,4317.564,4207.564,4191.154,4179.359,4193.462,4181.154,4180.641,4180.513,4185.0,4276.923,4200.641,4199.872,4240.769,0,0
767,102,0,3384,4201.41,4263.718,4161.154,4150.641,4147.821,4146.026,4136.923,4130.255999999999,4132.692,4125.255999999999,4226.282,4146.41,4131.538,4184.103,0,0
768,103,0,3387,4182.692,4238.974,4156.154,4137.821,4135.769,4139.872,4140.769,4133.846,4129.359,4119.744000000001,4213.333,4135.641,4123.59,4168.205,0,0
769,104,0,2944,4220.897,4248.462,4194.615,4161.538,4163.462,4187.179,4191.41,4187.821,4178.333,4176.154,4250.897,4178.974,4182.179,4207.0509999999995,0,0
770,105,0,3157,4256.667,4254.872,4225.0,4185.513,4207.436,4224.615,4229.487,4225.128,4220.513,4222.436,4285.128,4215.255999999999,4225.641,4242.308,0,0
