,COUNTER, INTERPOLATED, RAW_CQ, AF3, F7, F3, FC5, T7, P7, O1, O2, P8, T8, FC6, F4, F8, AF4, MARKER_HARDWARE, MARKER
0,66,0,3459,4166.282,4153.077,4156.795,4156.538,4145.513,4150.897,4139.359,4145.385,4138.59,4143.718,4151.026,4153.205,4148.462,4155.128,0,0
1,67,0,3465,4173.333,4160.255999999999,4160.255999999999,4157.436,4147.564,4150.255999999999,4147.564,4157.9490000000005,4156.282,4152.0509999999995,4151.538,4155.897,4151.795,4158.462,0,0
2,68,0,3558,4166.923,4159.359,4154.103,4154.231,4147.692,4143.974,4145.385,4155.513,4158.718,4155.128,4148.718,4152.564,4155.513,4156.923,0,0
3,69,0,2958,4155.255999999999,4150.385,4148.59,4152.9490000000005,4142.308,4143.077,4141.154,4147.821,4149.487,4150.128,4144.615,4148.205,4152.9490000000005,4147.9490000000005,0,0
4,70,0,2957,4163.077,4155.897,4158.205,4160.128,4151.667,4154.615,4153.718,4161.795,4162.308,4159.744000000001,4152.436,4155.385,4158.974,4152.9490000000005,0,0
5,71,0,3478,4165.128,4161.795,4163.205,4161.41,4158.077,4152.308,4156.538,4171.282,4171.538,4167.692,4160.0,4160.128,4163.59,4161.026,0,0
6,72,0,2860,4150.128,4153.333,4153.846,4151.667,4143.59,4140.128,4144.872,4155.513,4157.9490000000005,4156.41,4152.179,4152.0509999999995,4153.462,4152.9490000000005,0,0
7,73,0,3599,4154.103,4150.385,4150.769,4149.487,4141.667,4145.897,4148.462,4149.615,4151.282,4149.872,4148.205,4150.385,4149.359,4150.0,0,0
8,74,0,3359,4172.308,4157.179,4162.821,4153.846,4155.513,4155.641,4158.59,4163.077,4156.923,4156.026,4154.103,4158.077,4158.077,4162.179,0,0
9,75,0,3353,4173.59,4158.846,4169.231,4153.974,4156.026,4154.103,4157.308,4165.385,4157.692,4158.718,4154.231,4159.231,4161.538,4169.872,0,0
10,76,0,2823,4166.795,4155.128,4158.846,4153.846,4150.897,4150.385,4153.205,4156.282,4154.872,4155.897,4151.282,4155.255999999999,4156.026,4166.795,0,0
11,77,0,3175,4166.667,4154.487,4155.128,4153.333,4151.667,4149.615,4153.333,4153.718,4154.231,4154.872,4152.692,4152.821,4153.077,4164.359,0,0
12,78,0,3359,4169.615,4155.769,4167.0509999999995,4151.282,4152.821,4152.9490000000005,4153.462,4157.179,4159.231,4158.077,4156.667,4156.026,4159.103,4166.923,0,0
13,79,0,3353,4175.128,4157.0509999999995,4174.103,4160.128,4155.769,4160.0,4156.026,4163.974,4169.231,4166.282,4155.769,4164.487,4168.462,4170.769,0,0
14,80,0,2823,4175.769,4159.359,4170.385,4166.923,4164.231,4163.077,4163.462,4168.59,4168.846,4170.385,4155.385,4168.462,4170.128,4170.897,0,0
15,81,0,3175,4173.205,4161.795,4173.205,4160.0,4165.641,4162.821,4167.692,4172.308,4167.436,4173.205,4165.513,4170.128,4170.255999999999,4170.897,0,0
16,82,0,3359,4171.154,4158.718,4168.462,4151.795,4157.179,4161.154,4158.59,4165.128,4165.641,4172.821,4166.923,4165.128,4170.897,4170.385,0,0
17,83,0,3353,4167.308,4153.333,4156.538,4150.897,4150.255999999999,4154.103,4149.359,4152.436,4157.436,4166.154,4159.359,4157.692,4167.692,4167.436,0,0
18,84,0,2823,4168.718,4156.154,4161.41,4153.59,4152.179,4152.436,4154.872,4162.692,4162.821,4172.0509999999995,4166.026,4163.462,4167.436,4169.231,0,0
19,85,0,3175,4170.385,4159.615,4169.103,4151.667,4153.333,4155.513,4156.538,4175.641,4173.59,4179.359,4171.538,4171.795,4170.255999999999,4171.41,0,0
20,86,0,3359,4168.846,4155.385,4166.667,4148.846,4149.744000000001,4154.103,4153.077,4164.103,4170.128,4172.564,4160.641,4165.255999999999,4171.923,4167.0509999999995,0,0
21,87,0,3353,4169.103,4154.487,4165.0,4152.9490000000005,4151.282,4154.487,4154.231,4153.462,4163.846,4169.231,4155.769,4157.692,4168.974,4166.41,0,0
22,88,0,2823,4164.487,4158.462,4158.462,4154.231,4151.154,4156.026,4149.103,4152.0509999999995,4160.385,4167.692,4159.359,4156.154,4158.462,4165.128,0,0
23,89,0,3175,4152.0509999999995,4153.974,4143.205,4142.0509999999995,4142.564,4152.436,4140.385,4141.41,4151.282,4153.718,4148.205,4144.231,4150.897,4155.513,0,0
24,90,0,3359,4149.103,4146.538,4141.282,4133.077,4139.359,4150.0,4140.128,4134.231,4148.077,4146.282,4135.385,4133.718,4152.179,4147.692,0,0
25,91,0,3353,4160.385,4154.487,4152.821,4141.795,4149.359,4154.359,4146.923,4142.436,4153.974,4153.077,4142.821,4143.846,4153.974,4150.513,0,0
26,92,0,2823,4167.821,4170.641,4160.385,4153.846,4156.667,4157.436,4153.718,4150.385,4154.744000000001,4156.41,4155.128,4157.436,4154.744000000001,4160.255999999999,0,0
27,93,0,3175,4168.846,4169.744000000001,4165.385,4157.308,4153.718,4156.41,4158.333,4155.0,4153.077,4156.026,4155.897,4158.077,4156.41,4166.026,0,0
28,94,0,3359,4170.0,4157.9490000000005,4168.59,4152.179,4150.255999999999,4154.744000000001,4150.128,4154.615,4151.282,4155.641,4152.692,4153.333,4154.103,4161.41,0,0
29,95,0,3353,4166.154,4159.359,4164.103,4151.41,4150.255999999999,4152.0509999999995,4140.0,4151.667,4152.0509999999995,4159.872,4155.641,4155.513,4152.308,4156.667,0,0
30,96,0,2823,4157.0509999999995,4164.359,4155.769,4156.154,4150.513,4146.41,4141.667,4153.462,4157.436,4166.41,4156.667,4157.821,4155.385,4157.436,0,0
31,97,0,3175,4152.692,4155.897,4152.821,4148.846,4143.462,4140.128,4144.615,4157.821,4156.026,4161.923,4152.308,4150.385,4155.513,4153.718,0,0
32,98,0,3359,4150.769,4147.821,4153.846,4139.359,4135.385,4141.795,4146.538,4163.974,4154.487,4157.821,4150.641,4143.974,4152.0509999999995,4148.462,0,0
33,99,0,3353,4149.487,4155.769,4153.333,4146.282,4142.179,4150.769,4153.333,4167.308,4164.487,4167.308,4152.692,4147.9490000000005,4155.128,4152.436,0,0
34,100,0,2823,4161.41,4170.385,4159.615,4156.41,4156.795,4155.385,4158.59,4171.282,4171.282,4175.641,4156.667,4155.385,4170.128,4160.385,0,0
35,101,0,3175,4169.231,4170.513,4164.359,4150.513,4154.744000000001,4152.821,4154.744000000001,4172.821,4162.0509999999995,4172.821,4157.179,4156.923,4174.359,4159.744000000001,0,0
36,102,0,3359,4158.205,4155.255999999999,4156.923,4142.564,4140.641,4150.769,4150.385,4160.385,4152.692,4168.077,4154.359,4155.641,4159.744000000001,4156.923,0,0
37,103,0,3353,4157.692,4150.897,4157.308,4148.205,4142.436,4153.718,4152.308,4152.564,4156.154,4168.718,4154.872,4155.641,4159.359,4164.744000000001,0,0
38,104,0,2823,4171.538,4165.0,4171.026,4156.026,4154.744000000001,4157.308,4158.333,4163.462,4161.923,4173.59,4157.436,4160.641,4171.795,4174.359,0,0
39,105,0,3175,4168.462,4166.795,4167.436,4150.128,4150.255999999999,4152.9490000000005,4157.0509999999995,4164.103,4157.179,4168.462,4154.744000000001,4164.103,4163.846,4171.154,0,0
40,106,0,3359,4160.385,4153.974,4154.103,4143.205,4138.718,4145.641,4145.513,4144.744000000001,4150.385,4155.641,4153.205,4158.077,4146.795,4166.41,0,0
41,107,0,3353,4164.103,4152.692,4156.154,4146.538,4140.513,4147.436,4141.538,4138.59,4149.103,4149.744000000001,4154.103,4155.897,4142.9490000000005,4166.795,0,0
42,108,0,2823,4159.231,4156.795,4157.436,4145.641,4142.9490000000005,4153.846,4145.128,4142.821,4142.0509999999995,4144.231,4146.026,4155.641,4140.255999999999,4160.897,0,0
43,109,0,3175,4146.667,4146.795,4147.179,4136.795,4136.282,4151.923,4140.641,4135.385,4128.846,4131.41,4133.333,4143.462,4132.308,4150.385,0,0
44,110,0,3359,4147.564,4141.41,4146.923,4133.974,4138.333,4148.974,4136.282,4134.615,4135.769,4133.077,4133.205,4139.487,4137.436,4148.205,0,0
45,111,0,3353,4165.513,4158.974,4161.923,4146.154,4151.667,4157.564,4149.231,4153.59,4159.359,4161.154,4149.615,4160.0,4162.9490000000005,4163.077,0,0
46,112,0,2823,4181.41,4176.795,4173.974,4164.487,4162.821,4170.255999999999,4164.231,4173.846,4173.59,4185.385,4169.744000000001,4177.9490000000005,4190.255999999999,4183.846,0,0
47,113,0,3175,4179.231,4175.769,4172.564,4168.718,4166.41,4172.821,4165.128,4172.179,4172.564,4182.564,4173.59,4172.564,4190.128,4187.308,0,0
48,114,0,3359,4163.974,4165.255999999999,4159.231,4153.718,4161.282,4164.103,4154.872,4153.333,4157.9490000000005,4162.9490000000005,4157.179,4155.769,4168.59,4170.769,0,0
49,115,0,3353,4146.667,4154.231,4143.205,4138.333,4146.795,4155.897,4142.179,4137.692,4139.872,4144.487,4138.462,4139.487,4150.513,4151.282,0,0
50,116,0,2823,4141.667,4149.487,4142.179,4136.667,4140.0,4152.179,4140.513,4134.615,4135.641,4140.897,4135.897,4135.0,4144.231,4146.667,0,0
51,117,0,3175,4158.333,4160.897,4158.59,4145.641,4154.615,4156.41,4151.923,4142.9490000000005,4147.179,4157.179,4149.103,4146.154,4156.026,4160.641,0,0
52,118,0,3359,4170.255999999999,4175.128,4171.41,4155.769,4167.0509999999995,4164.231,4160.641,4155.0,4156.538,4173.077,4159.872,4156.41,4169.231,4172.821,0,0
53,119,0,3353,4158.59,4171.667,4166.154,4156.538,4159.103,4162.564,4156.923,4156.538,4154.487,4164.359,4156.923,4153.59,4159.744000000001,4168.077,0,0
54,120,0,2823,4157.564,4165.385,4160.641,4152.9490000000005,4152.564,4156.41,4153.718,4148.077,4153.077,4153.462,4155.255999999999,4153.846,4149.487,4162.821,0,0
55,121,0,3175,4167.9490000000005,4164.103,4162.179,4151.795,4157.564,4154.359,4153.59,4142.564,4149.103,4154.615,4156.923,4157.308,4154.744000000001,4167.179,0,0
56,122,0,3359,4162.0509999999995,4155.769,4160.513,4147.9490000000005,4153.846,4154.872,4150.128,4142.692,4143.462,4152.0509999999995,4152.0509999999995,4153.718,4154.615,4166.923,0,0
57,123,0,3353,4164.103,4156.026,4164.487,4151.538,4149.231,4156.282,4155.897,4152.9490000000005,4150.255999999999,4158.077,4157.564,4160.128,4151.41,4166.41,0,0
58,124,0,2823,4176.41,4165.128,4171.154,4156.282,4155.769,4158.59,4166.282,4165.385,4159.103,4170.385,4168.462,4171.667,4157.821,4174.744000000001,0,0
59,125,0,3175,4165.128,4158.59,4162.308,4142.9490000000005,4151.795,4156.026,4162.692,4162.821,4157.436,4160.769,4159.615,4161.667,4156.026,4171.538,0,0
60,126,0,3359,4153.205,4149.615,4152.821,4138.077,4139.103,4153.205,4153.59,4158.205,4159.615,4153.59,4151.154,4150.513,4151.282,4160.513,0,0
61,127,0,52,4164.103,4153.974,4155.128,4152.692,4142.0509999999995,4153.718,4152.821,4163.59,4160.897,4166.282,4156.282,4154.103,4158.205,4160.385,0,0
62,0,0,3136,4172.308,4159.872,4157.821,4157.0509999999995,4156.538,4156.026,4156.41,4170.769,4157.564,4168.333,4158.974,4157.308,4163.205,4165.769,0,0
63,1,0,2776,4167.564,4159.231,4158.462,4152.564,4155.255999999999,4158.718,4156.026,4167.821,4159.231,4157.308,4158.718,4157.0509999999995,4160.641,4166.667,0,0
64,2,0,3452,4154.359,4149.359,4148.846,4152.0509999999995,4137.436,4150.385,4144.487,4144.744000000001,4149.231,4142.9490000000005,4150.0,4148.718,4148.59,4153.974,0,0
65,3,0,3456,4143.59,4140.255999999999,4137.179,4153.333,4134.487,4144.231,4133.846,4124.744000000001,4136.667,4125.513,4137.564,4138.59,4135.0,4142.308,0,0
66,4,0,3551,4157.179,4151.154,4148.846,4162.821,4151.923,4152.9490000000005,4146.026,4133.974,4143.974,4128.974,4151.154,4149.872,4144.872,4156.667,0,0
67,5,0,2953,4174.872,4165.0,4160.385,4173.718,4161.41,4159.872,4159.872,4146.795,4148.462,4145.385,4171.154,4160.255999999999,4159.231,4174.744000000001,0,0
68,6,0,2947,4162.821,4154.359,4143.462,4169.103,4149.615,4155.513,4151.026,4138.974,4136.667,4135.0,4159.231,4145.897,4145.513,4160.0,0,0
69,7,0,3469,4146.923,4142.692,4130.385,4164.359,4138.462,4146.538,4138.462,4132.436,4133.205,4117.821,4144.615,4130.897,4130.513,4139.103,0,0
70,8,0,2852,4151.026,4151.667,4135.769,4168.974,4139.231,4139.231,4136.026,4134.487,4138.59,4120.513,4151.41,4128.077,4137.308,4142.821,0,0
71,9,0,3589,4154.872,4150.513,4138.462,4171.282,4141.795,4144.231,4138.59,4137.0509999999995,4139.487,4125.385,4152.436,4130.255999999999,4140.897,4143.462,0,0
72,10,0,3347,4150.385,4137.564,4138.077,4168.974,4140.769,4152.179,4140.128,4139.615,4141.026,4126.41,4146.154,4135.255999999999,4137.692,4135.0,0,0
73,11,0,3348,4150.128,4142.9490000000005,4136.282,4165.641,4136.538,4142.821,4132.179,4136.41,4139.103,4124.231,4147.0509999999995,4135.0,4136.282,4140.128,0,0
74,12,0,2819,4159.103,4156.795,4134.103,4166.923,4135.641,4139.103,4128.59,4133.59,4137.0509999999995,4125.513,4151.923,4134.872,4139.103,4153.718,0,0
75,13,0,3163,4168.077,4159.359,4140.641,4170.0,4141.923,4151.538,4134.872,4135.513,4139.359,4134.103,4155.0,4139.744000000001,4146.795,4159.872,0,0
76,14,0,3347,4170.385,4162.692,4150.385,4169.231,4149.615,4155.0,4139.615,4137.821,4137.821,4138.333,4155.641,4141.923,4152.179,4160.128,0,0
77,15,0,3348,4172.179,4168.846,4155.0,4170.385,4150.769,4152.9490000000005,4145.385,4141.795,4144.744000000001,4138.846,4157.179,4146.41,4152.821,4164.487,0,0
78,16,0,0,4172.821,4165.513,4155.255999999999,4171.282,4148.974,4156.026,4148.462,4141.795,4154.872,4141.923,4155.513,4151.795,4152.179,4166.923,0,0
79,17,0,0,4172.564,4167.692,4156.923,4166.923,4152.692,4156.282,4145.0,4142.692,4151.667,4145.641,4153.846,4151.795,4156.667,4167.9490000000005,0,0
80,18,0,0,4176.154,4172.179,4159.359,4165.513,4157.692,4153.974,4145.513,4152.436,4147.436,4149.615,4162.179,4155.641,4168.846,4173.462,0,0
81,19,0,0,4175.385,4162.308,4159.103,4168.59,4156.538,4156.154,4147.0509999999995,4157.0509999999995,4149.744000000001,4155.385,4171.282,4161.282,4171.538,4176.795,0,0
82,20,0,0,4165.513,4150.641,4152.821,4164.487,4150.897,4154.487,4140.769,4150.255999999999,4144.615,4152.436,4166.795,4157.9490000000005,4156.923,4171.41,0,0
83,21,0,0,4164.231,4155.897,4152.821,4161.923,4149.744000000001,4151.667,4144.103,4153.462,4141.282,4150.385,4164.872,4157.9490000000005,4156.154,4172.692,0,0
84,22,0,0,4177.9490000000005,4169.872,4166.154,4168.718,4154.744000000001,4160.513,4158.205,4172.0509999999995,4161.795,4165.769,4179.487,4169.744000000001,4172.0509999999995,4186.795,0,0
85,23,0,0,4187.9490000000005,4172.9490000000005,4175.385,4173.974,4157.692,4172.0509999999995,4162.436,4182.821,4175.769,4177.179,4189.744000000001,4176.923,4175.769,4192.821,0,0
86,24,0,0,4187.692,4170.0,4174.615,4173.205,4157.179,4168.333,4158.59,4177.308,4163.718,4173.974,4185.513,4175.385,4171.795,4188.718,0,0
87,25,0,0,4182.9490000000005,4167.821,4170.385,4169.872,4155.255999999999,4155.0,4153.462,4166.282,4151.41,4164.359,4174.615,4170.897,4169.744000000001,4185.513,0,0
88,26,0,0,4183.077,4166.923,4170.897,4170.513,4154.231,4157.308,4152.9490000000005,4167.436,4153.462,4157.436,4168.205,4168.974,4169.744000000001,4183.718,0,0
89,27,0,0,4186.795,4170.769,4172.436,4175.255999999999,4155.385,4166.154,4158.077,4173.333,4157.692,4159.359,4173.333,4171.923,4168.718,4186.282,0,0
90,28,0,0,4176.923,4168.462,4159.231,4167.821,4153.333,4159.359,4152.0509999999995,4160.385,4151.538,4155.769,4169.872,4165.769,4158.718,4181.154,0,0
91,29,0,0,4166.026,4160.769,4147.692,4153.59,4149.615,4151.154,4138.974,4147.0509999999995,4149.615,4150.769,4159.487,4153.59,4152.0509999999995,4168.333,0,0
92,30,0,0,4175.769,4165.385,4159.487,4157.9490000000005,4151.923,4156.282,4138.59,4153.462,4155.128,4161.282,4164.615,4158.462,4165.128,4172.436,0,0
93,31,0,0,4185.385,4173.077,4168.974,4164.744000000001,4155.255999999999,4157.179,4140.385,4159.359,4161.795,4173.333,4173.59,4168.974,4173.718,4182.692,0,0
94,32,0,0,4180.641,4169.744000000001,4163.974,4161.154,4154.615,4152.692,4137.308,4160.513,4169.231,4171.41,4169.744000000001,4167.564,4168.974,4180.769,0,0
95,33,0,0,4183.718,4172.564,4168.846,4166.923,4156.41,4160.513,4143.718,4168.846,4169.103,4174.872,4170.385,4170.641,4175.769,4183.333,0,0
96,34,0,0,4184.744000000001,4175.513,4167.308,4169.359,4155.513,4163.333,4147.0509999999995,4163.205,4158.974,4175.385,4172.692,4170.385,4179.359,4185.641,0,0
97,35,0,0,4172.0509999999995,4164.231,4152.821,4157.308,4152.0509999999995,4152.179,4137.692,4144.231,4153.846,4161.282,4162.0509999999995,4155.641,4164.103,4171.923,0,0
98,36,0,0,4170.641,4160.255999999999,4153.974,4154.103,4153.718,4150.0,4136.795,4141.923,4156.667,4156.538,4156.795,4150.385,4156.667,4162.564,0,0
99,37,0,0,4172.821,4165.385,4157.692,4158.077,4148.974,4153.846,4140.128,4140.641,4148.077,4156.154,4155.641,4152.179,4156.154,4163.205,0,0
100,38,0,0,4171.41,4166.923,4155.897,4160.255999999999,4144.103,4152.821,4140.255999999999,4139.359,4143.462,4151.795,4152.308,4152.9490000000005,4152.821,4165.0,0,0
101,39,0,0,4182.179,4171.667,4166.282,4168.59,4154.231,4154.615,4144.872,4149.872,4151.795,4155.641,4161.154,4160.513,4156.41,4172.179,0,0
102,40,0,0,4187.436,4175.769,4171.282,4171.538,4161.026,4158.718,4145.641,4148.077,4148.718,4158.205,4169.359,4162.436,4161.154,4175.769,0,0
103,41,0,0,4172.436,4169.487,4158.333,4160.128,4148.974,4150.769,4133.333,4133.718,4136.923,4151.795,4159.231,4153.077,4155.897,4169.744000000001,0,0
104,42,0,0,4165.513,4164.103,4151.282,4154.744000000001,4143.846,4141.154,4122.308,4133.205,4138.974,4149.487,4152.436,4151.154,4152.9490000000005,4169.231,0,0
105,43,0,0,4176.026,4167.564,4157.9490000000005,4162.9490000000005,4151.667,4145.128,4124.359,4136.154,4149.103,4153.59,4162.564,4154.872,4160.897,4172.692,0,0
106,44,0,0,4181.795,4169.615,4166.538,4166.154,4152.9490000000005,4153.718,4134.744000000001,4138.077,4152.564,4162.308,4165.513,4155.897,4168.718,4172.436,0,0
107,45,0,0,4177.308,4166.41,4169.359,4161.923,4153.59,4157.564,4145.641,4153.718,4157.564,4170.641,4160.128,4159.487,4168.718,4173.846,0,0
108,46,0,0,4161.667,4154.487,4157.9490000000005,4154.872,4155.769,4154.744000000001,4141.667,4153.205,4158.462,4158.846,4154.103,4149.744000000001,4156.667,4163.077,0,0
109,47,0,0,4150.128,4146.41,4148.333,4150.897,4152.9490000000005,4149.615,4132.308,4133.333,4149.872,4145.0,4148.333,4139.615,4147.0509999999995,4149.872,0,0
110,48,0,0,4166.795,4159.872,4162.179,4159.103,4153.462,4155.385,4140.255999999999,4142.436,4150.769,4157.821,4155.385,4156.795,4157.9490000000005,4165.385,0,0
111,49,0,0,4191.41,4175.385,4183.59,4171.923,4160.385,4165.0,4158.205,4165.641,4165.641,4173.974,4169.359,4176.026,4170.513,4188.333,0,0
112,50,0,0,4189.487,4174.103,4185.897,4172.9490000000005,4161.41,4162.564,4160.0,4162.9490000000005,4170.128,4173.077,4173.846,4175.385,4168.974,4188.59,0,0
113,51,0,0,4170.641,4167.692,4172.308,4165.769,4152.564,4152.0509999999995,4143.205,4149.615,4155.769,4163.205,4167.0509999999995,4170.255999999999,4161.282,4180.769,0,0
114,52,0,0,4170.641,4170.641,4168.333,4165.641,4153.718,4153.846,4142.308,4152.308,4156.282,4166.41,4169.487,4174.103,4165.255999999999,4184.231,0,0
115,53,0,0,4181.667,4175.769,4173.333,4171.282,4166.282,4163.205,4154.872,4159.872,4173.333,4181.538,4180.513,4177.821,4180.128,4188.333,0,0
116,54,0,0,4176.41,4173.846,4166.026,4170.128,4167.564,4163.718,4150.641,4155.255999999999,4171.282,4184.231,4179.744000000001,4170.513,4184.615,4182.0509999999995,0,0
117,55,0,0,4160.128,4166.795,4153.846,4158.846,4156.41,4153.59,4132.0509999999995,4141.41,4156.026,4170.128,4167.692,4156.41,4176.154,4170.513,0,0
118,56,0,0,4147.436,4155.641,4147.9490000000005,4148.205,4150.769,4141.923,4120.513,4124.231,4147.308,4156.41,4154.872,4147.9490000000005,4166.026,4160.0,0,0
119,57,0,0,4150.255999999999,4151.667,4149.359,4149.744000000001,4153.59,4144.103,4126.154,4123.59,4148.718,4157.308,4152.179,4150.641,4165.641,4160.641,0,0
120,58,0,0,4165.513,4161.41,4161.41,4155.0,4156.538,4153.846,4141.026,4144.231,4162.564,4167.9490000000005,4160.255999999999,4156.538,4172.692,4168.974,0,0
121,59,0,0,4169.615,4170.641,4168.333,4155.641,4158.974,4156.41,4151.538,4157.821,4171.282,4174.231,4162.9490000000005,4156.923,4174.872,4170.513,0,0
122,60,0,0,4159.872,4167.9490000000005,4157.821,4154.103,4158.333,4156.154,4151.667,4152.564,4159.744000000001,4168.846,4154.744000000001,4151.41,4169.615,4165.128,0,0
123,61,0,0,4161.667,4164.615,4153.205,4153.333,4154.744000000001,4159.872,4152.692,4148.205,4151.667,4167.692,4156.026,4150.897,4167.692,4166.795,0,0
124,62,0,0,4173.077,4170.385,4163.077,4155.128,4153.846,4162.179,4157.436,4157.308,4164.615,4176.41,4167.179,4158.462,4173.077,4173.462,0,0
125,63,0,0,4169.359,4170.255999999999,4161.667,4155.897,4153.974,4156.923,4155.641,4161.282,4172.692,4173.077,4165.128,4158.333,4169.487,4170.0,0,0
126,64,0,3136,4163.077,4165.128,4154.359,4154.231,4154.487,4156.795,4155.128,4158.077,4164.103,4167.436,4158.59,4153.333,4164.744000000001,4166.154,0,0
127,65,0,2773,4168.974,4165.255999999999,4156.923,4154.487,4153.205,4160.128,4158.077,4156.795,4156.795,4170.641,4158.077,4154.872,4169.103,4168.974,0,0
128,66,0,3450,4167.436,4170.769,4156.154,4156.026,4152.179,4157.0509999999995,4149.487,4147.564,4153.462,4163.333,4154.231,4154.744000000001,4164.615,4165.769,0,0
129,67,0,3456,4157.9490000000005,4169.615,4154.615,4156.923,4154.487,4153.974,4138.205,4138.718,4153.846,4155.641,4152.9490000000005,4150.0,4158.59,4157.564,0,0
130,68,0,3551,4154.744000000001,4155.641,4156.026,4151.667,4153.846,4155.128,4138.205,4134.487,4155.513,4163.077,4154.872,4143.846,4165.897,4153.077,0,0
131,69,0,2953,4156.154,4151.538,4150.897,4143.333,4152.0509999999995,4155.641,4141.795,4126.795,4152.821,4164.615,4149.744000000001,4138.462,4172.692,4150.128,0,0
132,70,0,2947,4150.0,4159.487,4142.564,4141.667,4153.333,4156.026,4141.667,4118.974,4146.667,4152.821,4142.9490000000005,4139.872,4164.744000000001,4144.872,0,0
133,71,0,3469,4139.487,4157.564,4139.359,4142.0509999999995,4152.564,4155.641,4139.231,4118.974,4141.923,4146.667,4138.59,4137.179,4153.462,4139.615,0,0
134,72,0,2850,4136.795,4150.897,4137.692,4139.231,4152.0509999999995,4153.462,4138.462,4124.487,4139.487,4147.564,4136.026,4128.974,4152.179,4138.462,0,0
135,73,0,3589,4139.359,4153.718,4136.538,4140.128,4152.692,4154.359,4145.385,4130.641,4142.308,4154.231,4140.0,4131.282,4160.769,4141.923,0,0
136,74,0,3349,4140.0,4157.308,4140.0,4143.205,4149.872,4155.769,4150.641,4140.385,4150.769,4168.718,4147.179,4135.128,4171.41,4145.0,0,0
137,75,0,3342,4136.538,4153.205,4135.641,4140.255999999999,4147.9490000000005,4150.769,4143.718,4143.333,4155.0,4173.718,4143.718,4122.9490000000005,4169.359,4140.897,0,0
138,76,0,2819,4132.179,4150.255999999999,4125.255999999999,4134.359,4146.026,4147.692,4142.436,4139.231,4152.308,4166.795,4135.641,4110.385,4162.692,4135.128,0,0
139,77,0,3165,4135.897,4150.897,4130.0,4135.769,4146.282,4155.513,4154.231,4146.538,4154.615,4169.487,4140.0,4116.154,4169.615,4138.333,0,0
140,78,0,3349,4146.026,4152.9490000000005,4140.641,4144.103,4152.564,4160.0,4158.462,4154.487,4158.846,4171.282,4143.333,4123.59,4174.744000000001,4141.667,0,0
141,79,0,3342,4152.692,4156.41,4146.41,4151.667,4158.333,4156.795,4156.026,4148.077,4150.385,4162.179,4138.333,4127.564,4163.718,4141.538,0,0
142,80,0,2819,4153.59,4156.41,4149.872,4151.667,4154.615,4153.718,4154.231,4134.359,4135.385,4150.385,4135.0,4127.308,4150.0,4138.974,0,0
143,81,0,3165,4151.923,4154.744000000001,4153.462,4150.385,4153.974,4156.026,4151.282,4133.974,4138.974,4149.103,4134.744000000001,4122.308,4151.923,4138.205,0,0
144,82,0,3349,4151.667,4158.718,4153.077,4152.821,4163.205,4163.333,4154.744000000001,4144.615,4155.255999999999,4159.744000000001,4137.9490000000005,4126.795,4163.718,4144.231,0,0
145,83,0,3342,4158.846,4169.103,4153.333,4154.359,4169.359,4170.128,4165.769,4153.462,4157.436,4169.872,4148.077,4138.205,4170.769,4154.103,0,0
146,84,0,2819,4171.923,4173.846,4163.462,4156.026,4169.872,4172.308,4174.487,4165.0,4159.231,4175.255999999999,4157.436,4144.872,4173.846,4163.205,0,0
147,85,0,3165,4170.641,4162.821,4169.103,4154.744000000001,4162.179,4166.923,4173.974,4171.795,4169.744000000001,4172.0509999999995,4153.333,4141.41,4172.308,4159.103,0,0
148,86,0,3349,4158.974,4160.897,4164.359,4152.821,4161.538,4165.255999999999,4172.179,4172.179,4173.59,4174.359,4150.128,4137.436,4170.897,4152.564,0,0
149,87,0,3342,4158.462,4174.744000000001,4160.0,4158.59,4169.231,4171.795,4175.385,4172.308,4175.255999999999,4183.462,4153.974,4135.641,4172.0509999999995,4157.564,0,0
150,88,0,2819,4150.255999999999,4165.255999999999,4149.744000000001,4152.564,4160.769,4168.846,4170.255999999999,4162.436,4165.769,4167.9490000000005,4144.487,4122.692,4157.308,4147.692,0,0
151,89,0,3165,4132.0509999999995,4138.718,4134.615,4135.641,4148.077,4161.41,4161.538,4147.821,4145.513,4139.487,4128.462,4104.103,4137.821,4123.205,0,0
152,90,0,3349,4136.923,4140.128,4136.41,4138.718,4157.9490000000005,4163.846,4165.128,4152.308,4148.59,4140.641,4129.487,4106.154,4145.769,4124.487,0,0
153,91,0,3342,4156.282,4156.795,4153.846,4155.255999999999,4169.872,4172.564,4174.744000000001,4171.282,4171.154,4167.0509999999995,4147.821,4131.41,4173.59,4150.128,0,0
154,92,0,2819,4160.0,4157.436,4164.231,4157.0509999999995,4161.795,4170.769,4174.103,4173.077,4176.923,4181.026,4162.179,4144.872,4186.923,4160.513,0,0
155,93,0,3165,4158.974,4157.692,4166.026,4153.205,4157.308,4160.769,4165.0,4163.333,4169.359,4179.231,4162.0509999999995,4140.769,4181.795,4155.769,0,0
156,94,0,3349,4167.821,4163.974,4168.59,4156.795,4164.103,4157.821,4158.333,4159.487,4168.846,4175.385,4156.923,4143.846,4173.718,4158.333,0,0
157,95,0,3342,4172.9490000000005,4163.333,4171.026,4157.179,4169.872,4163.333,4158.333,4160.641,4174.359,4177.564,4159.615,4156.026,4172.0509999999995,4167.0509999999995,0,0
158,96,0,2819,4164.103,4158.718,4165.128,4152.179,4163.462,4162.179,4158.333,4158.077,4166.282,4176.282,4161.667,4152.9490000000005,4169.487,4164.615,0,0
159,97,0,3165,4152.9490000000005,4155.641,4153.333,4149.615,4155.897,4152.692,4157.179,4150.0,4145.128,4160.385,4152.692,4137.308,4158.59,4152.0509999999995,0,0
160,98,0,3349,4150.255999999999,4153.846,4151.667,4151.026,4158.462,4155.128,4163.205,4147.692,4141.282,4153.333,4146.923,4133.462,4154.359,4149.615,0,0
161,99,0,3342,4153.846,4155.513,4156.41,4152.308,4160.769,4162.821,4169.103,4153.333,4154.872,4162.0509999999995,4151.154,4138.205,4161.923,4153.718,0,0
162,100,0,2819,4162.436,4164.103,4157.564,4155.128,4162.308,4164.231,4169.103,4155.641,4157.179,4169.359,4154.872,4144.103,4168.205,4158.59,0,0
163,101,0,3165,4171.41,4172.9490000000005,4160.385,4157.179,4168.462,4168.333,4169.744000000001,4156.41,4154.231,4175.513,4153.718,4148.205,4169.615,4165.385,0,0
164,102,0,3349,4171.41,4171.282,4163.718,4156.538,4171.026,4170.769,4171.026,4161.923,4162.564,4181.41,4158.59,4148.462,4168.718,4167.564,0,0
165,103,0,3342,4172.308,4169.487,4164.744000000001,4163.205,4170.641,4170.128,4172.821,4170.897,4170.641,4186.538,4166.282,4149.487,4171.795,4168.333,0,0
166,104,0,2819,4174.487,4174.872,4163.974,4167.692,4173.974,4172.0509999999995,4176.41,4173.077,4167.692,4185.128,4161.154,4148.59,4172.692,4167.9490000000005,0,0
167,105,0,3165,4158.718,4169.231,4151.282,4157.436,4166.795,4166.795,4172.564,4160.641,4152.179,4170.513,4150.255999999999,4135.769,4161.923,4151.41,0,0
168,106,0,3349,4144.231,4156.923,4139.487,4147.179,4153.462,4155.897,4161.923,4148.205,4138.205,4153.333,4150.255999999999,4124.744000000001,4150.897,4135.255999999999,0,0
169,107,0,3342,4151.667,4155.513,4146.923,4149.103,4154.359,4155.128,4162.436,4150.897,4144.359,4153.974,4154.487,4131.667,4152.821,4144.744000000001,0,0
170,108,0,2819,4150.897,4157.821,4153.846,4152.9490000000005,4158.59,4159.103,4167.308,4157.0509999999995,4155.897,4166.795,4154.615,4139.872,4158.718,4153.846,0,0
171,109,0,3165,4138.333,4155.255999999999,4144.359,4152.308,4157.179,4157.0509999999995,4161.667,4153.462,4156.795,4167.0509999999995,4154.487,4134.872,4157.436,4143.846,0,0
172,110,0,3349,4137.436,4151.282,4136.795,4152.9490000000005,4152.692,4155.641,4155.0,4151.538,4154.872,4157.9490000000005,4152.9490000000005,4126.538,4156.154,4135.897,0,0
173,111,0,3342,4136.154,4144.744000000001,4138.333,4153.718,4151.026,4154.872,4154.359,4152.436,4151.795,4151.667,4153.077,4123.974,4154.615,4139.359,0,0
174,112,0,2819,4125.897,4138.718,4136.667,4153.205,4151.923,4151.667,4151.923,4142.9490000000005,4141.538,4145.128,4154.744000000001,4122.436,4147.0509999999995,4138.333,0,0
175,113,0,3165,4127.0509999999995,4144.231,4133.462,4157.692,4152.564,4152.436,4150.0,4139.744000000001,4136.282,4137.179,4157.0509999999995,4124.615,4145.897,4137.436,0,0
176,114,0,3349,4139.231,4153.846,4138.205,4169.231,4153.59,4155.513,4155.513,4150.897,4141.41,4138.333,4161.41,4133.718,4151.538,4146.795,0,0
177,115,0,3342,4141.538,4151.667,4141.154,4177.821,4157.692,4157.179,4160.769,4152.821,4142.821,4140.255999999999,4160.128,4135.255999999999,4147.308,4147.564,0,0
178,116,0,2819,4127.9490000000005,4140.255999999999,4131.154,4169.231,4151.026,4151.795,4151.154,4138.59,4139.231,4126.282,4152.179,4124.359,4134.744000000001,4133.333,0,0
179,117,0,3165,4118.974,4133.077,4123.077,4158.462,4135.385,4141.154,4136.41,4131.795,4133.974,4117.308,4149.359,4117.9490000000005,4132.179,4127.0509999999995,0,0
180,118,0,3349,4130.0,4143.333,4133.205,4162.9490000000005,4142.308,4142.821,4142.9490000000005,4144.872,4138.974,4130.128,4154.359,4125.385,4137.9490000000005,4137.179,0,0
181,119,0,3342,4142.9490000000005,4153.462,4142.308,4172.692,4154.231,4154.231,4157.0509999999995,4151.667,4153.974,4145.641,4157.436,4130.513,4142.0509999999995,4144.872,0,0
182,120,0,2819,4138.462,4147.9490000000005,4136.41,4170.641,4142.0509999999995,4155.385,4150.385,4140.641,4150.128,4141.795,4155.255999999999,4123.974,4142.564,4138.462,0,0
183,121,0,3165,4131.795,4144.615,4131.795,4162.692,4136.795,4148.718,4142.179,4137.308,4133.846,4132.821,4154.231,4120.897,4144.615,4133.974,0,0
184,122,0,3349,4139.872,4154.359,4139.103,4166.795,4154.359,4156.154,4155.128,4154.744000000001,4143.077,4145.255999999999,4158.718,4128.462,4153.59,4146.41,0,0
185,123,0,3342,4147.436,4158.718,4143.718,4171.154,4160.513,4166.154,4164.872,4162.821,4161.282,4156.538,4162.179,4130.255999999999,4159.487,4154.487,0,0
186,124,0,2819,4140.769,4151.923,4134.103,4162.308,4149.615,4159.103,4154.103,4144.487,4150.513,4143.974,4156.41,4122.308,4155.769,4141.154,0,0
187,125,0,3165,4133.462,4147.564,4124.359,4152.0509999999995,4147.436,4148.333,4142.9490000000005,4132.179,4137.564,4135.641,4152.0509999999995,4118.718,4150.255999999999,4131.538,0,0
188,126,0,3349,4143.846,4152.692,4132.179,4159.359,4153.974,4156.667,4152.308,4144.744000000001,4149.359,4149.615,4160.769,4129.615,4156.41,4146.282,0,0
189,127,0,52,4157.821,4163.718,4145.385,4173.718,4160.255999999999,4172.821,4169.872,4162.564,4162.821,4163.59,4168.718,4141.026,4171.154,4157.821,0,0
190,0,0,3143,4147.9490000000005,4162.9490000000005,4139.872,4167.436,4159.615,4168.333,4167.9490000000005,4159.615,4157.436,4157.436,4161.282,4133.077,4170.255999999999,4146.154,0,0
191,1,0,2770,4127.821,4146.667,4124.359,4152.564,4150.385,4153.846,4151.41,4142.564,4145.128,4141.923,4145.385,4114.872,4153.462,4129.103,0,0
192,2,0,3452,4121.154,4136.154,4117.9490000000005,4148.718,4140.385,4149.231,4140.128,4133.462,4143.59,4134.103,4137.821,4109.103,4147.308,4121.538,0,0
193,3,0,3456,4124.872,4138.077,4120.513,4152.308,4139.231,4153.333,4139.231,4135.255999999999,4146.923,4138.718,4139.872,4112.436,4155.641,4124.103,0,0
194,4,0,3555,4126.667,4141.41,4122.0509999999995,4152.179,4147.821,4155.513,4140.0,4137.564,4141.154,4140.641,4140.641,4112.692,4156.667,4125.385,0,0
195,5,0,2959,4124.872,4137.436,4118.59,4148.718,4148.846,4151.41,4135.128,4132.564,4133.333,4131.538,4137.564,4113.59,4149.359,4125.0,0,0
196,6,0,2950,4132.692,4142.179,4130.128,4158.077,4153.718,4156.154,4141.667,4142.564,4144.231,4140.255999999999,4148.077,4127.9490000000005,4156.41,4137.308,0,0
197,7,0,3472,4151.923,4159.872,4149.487,4174.103,4169.872,4170.897,4158.462,4170.385,4160.513,4164.103,4166.795,4148.205,4173.718,4158.205,0,0
198,8,0,2850,4154.359,4160.0,4149.103,4169.231,4160.513,4170.641,4157.564,4174.231,4158.974,4166.282,4164.359,4149.615,4171.282,4160.385,0,0
199,9,0,3595,4135.513,4137.9490000000005,4134.744000000001,4150.641,4132.9490000000005,4152.692,4140.897,4149.103,4149.103,4149.359,4150.769,4137.0509999999995,4152.308,4141.795,0,0
200,10,0,3355,4133.974,4139.872,4133.462,4150.513,4143.205,4148.718,4137.564,4141.282,4151.667,4147.821,4152.821,4136.026,4149.103,4141.41,0,0
201,11,0,3348,4142.821,4155.128,4143.462,4159.744000000001,4164.872,4158.205,4144.487,4151.538,4154.231,4158.462,4153.974,4147.436,4156.795,4154.231,0,0
202,12,0,2820,4137.308,4141.795,4142.9490000000005,4155.0,4150.255999999999,4155.897,4141.41,4143.846,4140.255999999999,4149.487,4140.0,4150.641,4152.821,4142.308,0,0
203,13,0,3171,4141.538,4136.026,4137.692,4150.385,4144.615,4151.923,4136.41,4133.974,4132.564,4134.359,4139.359,4144.103,4148.462,4127.179,0,0
204,14,0,3355,4157.692,4157.9490000000005,4139.359,4154.872,4160.0,4156.538,4139.615,4141.026,4139.744000000001,4141.667,4155.897,4142.692,4154.359,4145.255999999999,0,0
205,15,0,3348,4154.231,4163.462,4141.026,4157.9490000000005,4156.41,4153.974,4138.462,4143.077,4145.385,4151.923,4159.103,4141.795,4154.872,4161.154,0,0
206,16,0,0,4148.205,4155.769,4142.308,4160.513,4152.821,4152.821,4137.179,4140.513,4148.205,4151.538,4151.923,4138.974,4154.872,4154.231,0,0
207,17,0,0,4163.974,4170.128,4154.231,4170.641,4170.0,4169.487,4154.231,4155.513,4159.359,4161.154,4157.692,4148.59,4168.846,4160.641,0,0
208,18,0,0,4169.103,4177.179,4159.359,4176.026,4175.0,4174.615,4162.692,4163.974,4160.769,4167.9490000000005,4160.513,4153.59,4172.436,4165.513,0,0
209,19,0,0,4148.462,4157.821,4140.897,4163.974,4157.692,4153.846,4141.667,4143.974,4144.487,4146.282,4144.615,4132.308,4155.0,4145.0,0,0
210,20,0,0,4135.897,4148.205,4129.872,4154.744000000001,4147.564,4147.436,4132.692,4137.821,4141.154,4131.923,4134.359,4117.821,4149.231,4132.821,0,0
211,21,0,0,4141.538,4155.0,4137.692,4160.769,4151.41,4161.41,4152.179,4153.59,4149.872,4142.308,4140.0,4124.872,4156.41,4139.487,0,0
212,22,0,0,4145.513,4158.205,4141.026,4162.821,4158.205,4161.923,4158.974,4150.128,4145.513,4145.0,4143.333,4127.9490000000005,4156.795,4142.436,0,0
213,23,0,0,4139.103,4149.103,4131.41,4153.59,4155.769,4153.205,4143.59,4133.205,4133.846,4136.026,4133.59,4119.359,4150.255999999999,4132.0509999999995,0,0
214,24,0,0,4135.641,4141.667,4128.846,4150.255999999999,4145.385,4152.308,4133.846,4132.0509999999995,4136.667,4133.205,4127.564,4112.692,4144.103,4120.641,0,0
215,25,0,0,4136.923,4147.9490000000005,4136.538,4153.846,4144.615,4154.359,4139.231,4138.205,4142.0509999999995,4136.795,4134.231,4117.436,4145.513,4124.231,0,0
216,26,0,0,4138.462,4156.026,4138.205,4156.667,4153.333,4158.974,4149.359,4142.308,4136.667,4139.615,4140.897,4125.128,4153.333,4134.872,0,0
217,27,0,0,4145.513,4156.282,4140.385,4159.744000000001,4156.923,4169.359,4156.795,4152.436,4142.821,4141.667,4140.385,4125.255999999999,4156.923,4137.436,0,0
218,28,0,0,4149.359,4152.0509999999995,4145.769,4157.821,4155.255999999999,4169.487,4157.436,4155.641,4152.308,4143.462,4139.487,4126.538,4156.154,4136.795,0,0
219,29,0,0,4142.436,4151.923,4143.846,4154.103,4156.154,4158.718,4149.103,4146.538,4142.308,4140.255999999999,4139.487,4135.641,4151.282,4140.255999999999,0,0
220,30,0,0,4138.462,4152.564,4142.9490000000005,4152.0509999999995,4155.128,4153.205,4139.487,4139.231,4137.308,4136.282,4140.385,4138.205,4143.333,4142.179,0,0
221,31,0,0,4149.615,4153.846,4149.872,4155.641,4152.308,4153.974,4139.744000000001,4136.41,4146.923,4141.923,4146.923,4134.872,4144.359,4148.333,0,0
222,32,0,0,4162.821,4156.795,4154.744000000001,4163.846,4156.026,4161.154,4147.821,4138.077,4144.872,4153.077,4153.462,4144.487,4155.641,4164.103,0,0
223,33,0,0,4162.308,4154.744000000001,4155.769,4162.9490000000005,4158.333,4170.513,4157.0509999999995,4147.308,4141.667,4156.923,4155.128,4156.538,4159.487,4166.538,0,0
224,34,0,0,4161.795,4151.41,4158.462,4157.0509999999995,4155.897,4169.872,4156.41,4151.923,4151.026,4154.487,4153.974,4154.487,4154.359,4156.667,0,0
225,35,0,0,4175.128,4162.179,4161.154,4163.333,4160.897,4165.769,4151.154,4152.308,4153.333,4159.872,4159.103,4153.974,4155.255999999999,4165.255999999999,0,0
226,36,0,0,4191.923,4184.103,4170.255999999999,4175.255999999999,4172.0509999999995,4169.615,4161.667,4167.179,4158.462,4179.487,4178.205,4173.59,4169.359,4195.128,0,0
227,37,0,0,4193.846,4190.385,4180.641,4174.103,4173.974,4173.846,4172.179,4183.077,4174.615,4193.718,4189.872,4187.821,4181.026,4206.923,0,0
228,38,0,0,4187.0509999999995,4181.667,4175.385,4171.795,4166.41,4169.872,4163.333,4180.641,4173.846,4188.462,4179.744000000001,4174.872,4175.641,4195.385,0,0
229,39,0,0,4179.487,4168.974,4159.231,4167.9490000000005,4158.333,4161.282,4151.026,4168.974,4161.41,4174.359,4165.255999999999,4156.41,4164.615,4181.923,0,0
230,40,0,0,4161.795,4147.179,4141.795,4148.718,4148.974,4151.154,4142.0509999999995,4148.718,4151.795,4157.564,4151.795,4143.205,4151.026,4162.436,0,0
231,41,0,0,4151.538,4140.513,4135.513,4141.282,4146.795,4150.641,4134.487,4132.179,4140.641,4148.462,4139.744000000001,4136.538,4143.077,4149.231,0,0
232,42,0,0,4155.513,4153.974,4140.385,4150.128,4153.59,4157.0509999999995,4136.923,4138.974,4138.59,4152.308,4140.385,4134.615,4147.692,4149.359,0,0
233,43,0,0,4146.667,4145.769,4136.795,4144.103,4149.487,4152.9490000000005,4139.103,4141.538,4138.205,4147.179,4139.359,4123.59,4143.462,4140.255999999999,0,0
234,44,0,0,4133.59,4128.846,4128.846,4130.513,4142.308,4150.0,4134.744000000001,4135.0,4134.231,4136.795,4132.692,4117.436,4134.872,4129.103,0,0
235,45,0,0,4151.41,4144.872,4142.179,4141.923,4153.462,4164.231,4148.846,4156.923,4151.667,4154.744000000001,4144.615,4139.872,4153.333,4148.205,0,0
236,46,0,0,4171.026,4162.308,4158.077,4158.333,4166.795,4173.846,4164.231,4180.513,4170.255999999999,4173.077,4159.359,4155.255999999999,4170.513,4169.872,0,0
237,47,0,0,4159.103,4154.487,4150.641,4154.103,4162.436,4167.436,4158.333,4169.487,4158.59,4162.179,4153.205,4143.974,4157.692,4159.872,0,0
238,48,0,0,4148.333,4149.744000000001,4144.231,4146.667,4155.255999999999,4163.333,4153.333,4160.897,4147.821,4153.462,4150.128,4141.667,4153.974,4150.385,0,0
239,49,0,0,4154.872,4152.436,4151.538,4144.615,4154.359,4163.205,4156.282,4170.897,4154.231,4159.744000000001,4156.538,4150.641,4164.231,4155.385,0,0
240,50,0,0,4157.564,4150.0,4152.9490000000005,4140.769,4153.333,4156.538,4155.255999999999,4173.333,4161.154,4165.0,4154.359,4149.231,4160.513,4156.282,0,0
241,51,0,0,4153.077,4146.026,4149.615,4141.026,4153.077,4152.821,4151.538,4163.846,4166.538,4164.744000000001,4151.41,4147.179,4151.538,4151.026,0,0
242,52,0,0,4156.923,4149.359,4152.308,4149.487,4153.974,4155.897,4152.436,4160.641,4164.744000000001,4165.897,4154.744000000001,4152.9490000000005,4155.641,4156.667,0,0
243,53,0,0,4167.0509999999995,4155.513,4154.487,4152.9490000000005,4156.154,4157.0509999999995,4152.308,4161.154,4155.0,4165.255999999999,4154.615,4157.179,4164.872,4165.641,0,0
244,54,0,0,4171.154,4159.359,4160.255999999999,4152.308,4162.9490000000005,4162.179,4151.538,4160.641,4158.077,4168.077,4156.667,4161.154,4167.308,4168.974,0,0
245,55,0,0,4171.538,4167.308,4172.0509999999995,4162.308,4171.41,4170.641,4157.0509999999995,4168.205,4174.487,4181.923,4168.333,4169.615,4171.282,4176.41,0,0
246,56,0,0,4173.333,4170.769,4173.333,4166.795,4168.718,4169.231,4156.795,4173.333,4173.077,4187.564,4174.231,4173.974,4172.564,4181.154,0,0
247,57,0,0,4171.154,4161.154,4166.282,4157.0509999999995,4158.462,4157.436,4145.385,4165.255999999999,4154.744000000001,4174.872,4164.615,4165.513,4161.282,4174.487,0,0
248,58,0,0,4170.769,4160.0,4166.41,4156.667,4155.513,4151.026,4142.179,4163.333,4155.385,4165.0,4159.103,4160.128,4152.308,4168.077,0,0
249,59,0,0,4182.692,4174.103,4174.872,4164.359,4162.692,4162.0509999999995,4154.744000000001,4176.026,4175.0,4175.385,4167.821,4169.872,4164.103,4178.462,0,0
250,60,0,0,4187.9490000000005,4173.333,4176.154,4162.692,4168.59,4168.59,4158.974,4177.308,4170.641,4178.718,4172.692,4173.59,4173.59,4186.41,0,0
251,61,0,0,4178.333,4165.255999999999,4170.513,4163.718,4168.077,4161.667,4153.59,4169.231,4150.128,4169.615,4165.513,4167.179,4164.231,4177.9490000000005,0,0
252,62,0,0,4178.846,4172.564,4172.9490000000005,4173.333,4171.282,4160.897,4156.282,4173.077,4156.41,4172.308,4162.179,4169.359,4159.231,4175.0,0,0
253,63,0,0,4172.179,4165.769,4167.692,4164.231,4166.282,4163.333,4154.615,4166.538,4155.897,4162.821,4153.718,4161.795,4149.103,4167.179,0,0
254,64,0,3141,4143.077,4138.462,4142.179,4140.385,4145.897,4154.615,4139.615,4139.487,4131.41,4133.718,4130.385,4129.872,4126.667,4141.154,0,0
255,65,0,2770,4129.872,4132.821,4128.462,4135.128,4141.795,4146.538,4132.821,4128.974,4132.179,4129.231,4121.282,4114.615,4127.179,4127.692,0,0
256,66,0,3456,4148.59,4153.974,4144.744000000001,4151.154,4153.077,4156.154,4146.538,4151.026,4156.923,4160.0,4140.513,4135.513,4159.872,4148.462,0,0
257,67,0,3456,4166.795,4163.718,4159.872,4161.923,4149.872,4167.821,4160.385,4171.667,4168.718,4184.872,4163.333,4154.872,4187.436,4170.641,0,0
258,68,0,3555,4165.128,4157.436,4159.744000000001,4157.0509999999995,4155.897,4164.872,4157.821,4171.538,4171.923,4189.359,4164.487,4155.385,4186.667,4172.179,0,0
259,69,0,2959,4156.667,4155.641,4158.205,4152.692,4171.538,4160.769,4154.231,4168.333,4174.487,4187.821,4156.154,4153.718,4176.923,4168.462,0,0
260,70,0,2951,4155.0,4154.744000000001,4157.179,4152.179,4160.641,4164.744000000001,4156.667,4170.128,4169.103,4183.846,4154.872,4153.846,4173.718,4165.128,0,0
261,71,0,3472,4171.41,4159.872,4161.41,4154.103,4154.744000000001,4169.615,4158.718,4173.718,4168.974,4184.872,4156.923,4158.205,4173.718,4166.026,0,0
262,72,0,2846,4184.872,4170.128,4171.154,4157.564,4174.103,4168.718,4161.667,4175.128,4175.897,4190.0,4157.692,4168.718,4171.667,4172.692,0,0
263,73,0,3592,4178.205,4170.897,4173.077,4156.282,4176.538,4170.769,4167.179,4171.154,4170.897,4181.667,4156.154,4168.974,4169.231,4174.103,0,0
264,74,0,3352,4172.0509999999995,4166.923,4169.103,4153.462,4166.667,4173.846,4169.872,4169.103,4165.385,4170.769,4155.513,4158.205,4168.205,4170.128,0,0
265,75,0,3344,4172.308,4169.359,4170.385,4156.923,4171.154,4172.308,4165.128,4169.359,4167.0509999999995,4170.128,4154.487,4156.154,4161.282,4168.846,0,0
266,76,0,2823,4171.795,4167.821,4169.359,4161.667,4168.333,4169.744000000001,4158.462,4158.205,4158.077,4166.923,4147.9490000000005,4155.128,4154.744000000001,4166.795,0,0
267,77,0,3169,4162.9490000000005,4157.9490000000005,4158.333,4156.154,4157.436,4164.487,4151.282,4141.282,4139.872,4154.615,4139.231,4141.154,4154.103,4155.513,0,0
268,78,0,3352,4152.308,4156.795,4150.513,4151.923,4156.795,4157.564,4143.205,4136.41,4137.9490000000005,4148.974,4138.718,4132.692,4151.538,4147.0509999999995,0,0
269,79,0,3344,4153.846,4166.923,4156.41,4156.538,4159.744000000001,4159.359,4142.9490000000005,4145.769,4155.255999999999,4162.308,4143.846,4142.9490000000005,4155.513,4155.385,0,0
270,80,0,2823,4149.872,4159.615,4150.769,4147.308,4153.974,4155.641,4136.923,4140.513,4153.462,4161.923,4139.231,4140.769,4156.41,4152.436,0,0
271,81,0,3169,4132.564,4134.615,4130.769,4132.564,4136.154,4138.333,4121.026,4118.462,4130.0,4137.308,4130.255999999999,4123.846,4138.333,4132.0509999999995,0,0
272,82,0,3352,4143.462,4143.974,4144.231,4146.923,4139.615,4144.615,4130.513,4133.846,4143.333,4144.103,4140.513,4136.154,4140.513,4144.103,0,0
273,83,0,3344,4171.795,4173.974,4174.103,4163.718,4165.641,4172.179,4158.077,4169.744000000001,4174.359,4178.59,4156.667,4160.0,4168.846,4172.9490000000005,0,0
274,84,0,2823,4168.077,4168.59,4169.103,4159.103,4166.795,4174.231,4159.615,4165.0,4166.41,4179.359,4155.641,4155.897,4173.59,4166.026,0,0
275,85,0,3169,4156.282,4153.846,4154.872,4159.231,4149.103,4163.333,4150.385,4148.077,4150.0,4159.103,4152.821,4148.974,4159.231,4150.385,0,0
276,86,0,3352,4159.744000000001,4156.795,4158.077,4162.692,4151.282,4165.513,4150.128,4152.692,4157.564,4156.667,4153.974,4152.179,4158.462,4155.897,0,0
277,87,0,3344,4151.538,4149.487,4152.436,4156.154,4157.9490000000005,4160.641,4141.282,4146.154,4158.59,4148.974,4146.923,4141.41,4157.692,4152.9490000000005,0,0
278,88,0,2823,4138.846,4139.615,4143.846,4156.154,4154.231,4157.436,4140.641,4133.462,4153.59,4141.026,4145.513,4132.308,4152.179,4142.692,0,0
279,89,0,3169,4143.462,4150.0,4154.487,4162.436,4156.923,4170.255999999999,4153.718,4141.795,4157.436,4149.359,4157.564,4143.462,4156.923,4145.769,0,0
280,90,0,3352,4140.255999999999,4147.308,4151.282,4158.974,4147.436,4165.769,4145.385,4139.615,4144.744000000001,4138.974,4150.385,4137.821,4148.846,4140.385,0,0
281,91,0,3344,4130.0,4133.718,4136.026,4158.077,4134.872,4150.641,4132.0509999999995,4125.897,4131.795,4119.359,4133.718,4120.641,4135.0,4129.103,0,0
282,92,0,2823,4140.255999999999,4143.205,4144.231,4169.487,4153.718,4159.103,4146.026,4135.897,4146.923,4132.0509999999995,4143.462,4130.255999999999,4145.255999999999,4139.231,0,0
283,93,0,3169,4155.769,4156.154,4155.897,4177.9490000000005,4171.026,4172.308,4161.41,4153.333,4159.872,4152.179,4159.744000000001,4145.0,4158.718,4150.897,0,0
284,94,0,3352,4157.692,4157.308,4151.667,4176.154,4161.923,4171.538,4156.667,4153.077,4155.897,4149.872,4157.9490000000005,4138.462,4157.692,4148.333,0,0
285,95,0,3344,4153.077,4155.513,4149.744000000001,4172.436,4152.9490000000005,4170.897,4152.9490000000005,4146.41,4156.795,4144.744000000001,4153.333,4136.282,4156.538,4150.897,0,0
286,96,0,2823,4150.255999999999,4150.385,4148.59,4172.0509999999995,4153.59,4170.769,4156.154,4145.641,4156.795,4143.205,4156.026,4143.462,4158.077,4151.538,0,0
287,97,0,3169,4147.692,4144.615,4138.077,4167.179,4152.564,4163.205,4148.462,4139.103,4142.308,4136.282,4152.9490000000005,4131.026,4152.0509999999995,4141.41,0,0
288,98,0,3352,4151.667,4149.744000000001,4139.487,4164.872,4150.641,4159.359,4138.333,4128.718,4135.641,4134.359,4148.846,4122.9490000000005,4149.615,4142.564,0,0
289,99,0,3344,4161.795,4157.179,4151.154,4170.513,4148.718,4157.821,4138.59,4125.641,4139.487,4139.103,4152.821,4136.538,4152.9490000000005,4156.923,0,0
290,100,0,2823,4165.769,4154.103,4149.744000000001,4171.41,4149.103,4153.59,4139.359,4126.795,4138.205,4139.359,4157.308,4140.513,4153.462,4160.641,0,0
291,101,0,3169,4171.538,4160.255999999999,4153.846,4173.718,4153.462,4160.255999999999,4143.205,4134.359,4143.333,4145.255999999999,4165.769,4140.769,4160.385,4164.231,0,0
292,102,0,3352,4184.615,4180.128,4170.513,4185.769,4155.641,4174.872,4156.795,4151.026,4161.795,4165.0,4176.154,4160.641,4171.154,4180.769,0,0
293,103,0,3344,4191.923,4186.41,4177.692,4191.538,4162.564,4177.308,4165.513,4161.538,4170.0,4173.846,4176.538,4173.718,4177.179,4187.821,0,0
294,104,0,2823,4181.667,4172.0509999999995,4169.744000000001,4184.872,4172.9490000000005,4169.231,4157.9490000000005,4151.154,4156.41,4158.846,4169.615,4161.923,4167.436,4174.359,0,0
295,105,0,3169,4171.41,4162.821,4164.872,4179.872,4171.538,4167.436,4150.0,4140.255999999999,4146.923,4144.872,4166.538,4156.795,4151.026,4165.641,0,0
296,106,0,3352,4182.564,4175.897,4176.282,4184.359,4169.103,4171.923,4159.872,4154.615,4160.385,4155.769,4170.769,4169.231,4157.436,4179.487,0,0
297,107,0,3344,4193.59,4184.615,4186.154,4190.897,4175.897,4175.0,4171.282,4173.462,4172.692,4171.795,4175.513,4178.205,4175.641,4188.59,0,0
298,108,0,2823,4180.128,4171.667,4175.897,4183.462,4169.744000000001,4170.897,4160.641,4168.333,4164.487,4166.41,4171.282,4167.436,4167.436,4172.821,0,0
299,109,0,3169,4164.359,4160.0,4162.9490000000005,4172.564,4157.821,4164.487,4146.026,4158.974,4161.154,4157.179,4166.795,4153.462,4153.205,4160.897,0,0
300,110,0,3352,4170.385,4168.205,4167.0509999999995,4177.9490000000005,4164.744000000001,4171.154,4156.923,4165.255999999999,4171.026,4167.821,4175.769,4161.41,4168.846,4172.821,0,0
301,111,0,3344,4180.513,4177.692,4176.282,4188.59,4174.487,4182.564,4172.308,4177.821,4175.255999999999,4184.872,4185.641,4173.462,4187.564,4185.513,0,0
302,112,0,2823,4174.744000000001,4169.359,4172.9490000000005,4181.667,4170.385,4179.359,4169.872,4181.795,4175.0,4188.718,4184.231,4165.641,4185.641,4175.513,0,0
303,113,0,3169,4168.718,4166.538,4165.0,4172.821,4166.41,4173.718,4162.564,4171.282,4173.846,4183.462,4180.513,4156.923,4180.513,4164.487,0,0
304,114,0,3352,4181.282,4177.564,4174.359,4178.205,4172.436,4183.333,4167.821,4171.282,4174.103,4185.128,4184.359,4169.231,4183.718,4179.103,0,0
305,115,0,3344,4188.077,4175.769,4185.769,4177.692,4172.0509999999995,4185.641,4173.846,4182.692,4179.231,4187.9490000000005,4183.974,4175.255999999999,4180.385,4188.205,0,0
306,116,0,2823,4168.974,4165.128,4170.0,4166.667,4161.795,4171.667,4163.333,4172.821,4173.462,4175.641,4168.846,4154.615,4166.923,4166.538,0,0
307,117,0,3169,4152.308,4167.436,4151.923,4164.615,4156.667,4168.333,4152.564,4151.41,4155.897,4157.692,4156.923,4136.41,4158.846,4149.872,0,0
308,118,0,3352,4154.487,4171.538,4153.974,4169.872,4157.308,4171.667,4153.59,4151.026,4150.0,4157.0509999999995,4158.846,4139.103,4158.333,4152.179,0,0
309,119,0,3344,4157.692,4165.897,4157.692,4169.487,4156.923,4169.487,4155.128,4163.59,4157.308,4167.821,4164.615,4148.59,4160.513,4156.667,0,0
310,120,0,2823,4165.128,4168.333,4164.103,4170.385,4161.538,4175.385,4155.641,4169.359,4166.282,4172.692,4169.872,4156.795,4169.872,4164.487,0,0
311,121,0,3169,4179.872,4177.0509999999995,4171.282,4175.897,4167.436,4182.308,4159.231,4168.59,4168.974,4170.897,4175.641,4160.641,4178.462,4174.872,0,0
312,122,0,3352,4177.9490000000005,4169.615,4160.513,4169.872,4157.179,4171.795,4152.308,4157.308,4161.667,4161.795,4169.359,4155.128,4172.821,4169.872,0,0
313,123,0,3344,4165.0,4157.821,4151.923,4160.0,4144.872,4158.718,4140.897,4149.872,4155.897,4155.641,4160.255999999999,4153.462,4164.487,4159.359,0,0
314,124,0,2823,4155.385,4153.59,4153.077,4152.821,4139.872,4154.872,4139.231,4150.641,4153.333,4153.462,4155.513,4153.462,4157.821,4153.846,0,0
315,125,0,3169,4151.667,4151.538,4151.795,4151.667,4135.255999999999,4156.154,4144.487,4149.744000000001,4147.692,4149.231,4152.436,4144.615,4154.103,4150.255999999999,0,0
316,126,0,3352,4162.308,4155.641,4163.077,4164.872,4149.359,4168.846,4156.41,4163.462,4156.923,4161.667,4163.462,4150.128,4166.41,4158.846,0,0
317,127,0,52,4164.744000000001,4158.205,4172.308,4171.923,4164.487,4176.026,4161.538,4175.128,4170.897,4173.205,4171.154,4158.718,4175.128,4163.718,0,0
318,0,0,3137,4145.897,4147.0509999999995,4157.179,4159.615,4151.282,4160.128,4152.436,4160.769,4158.333,4153.974,4155.769,4145.255999999999,4157.9490000000005,4147.308,0,0
319,1,0,2770,4139.359,4142.564,4147.692,4153.974,4142.436,4154.103,4148.59,4152.821,4144.359,4139.103,4145.385,4135.641,4146.538,4135.0,0,0
320,2,0,3451,4148.462,4155.128,4155.128,4160.897,4155.641,4167.564,4156.538,4169.872,4154.744000000001,4153.462,4155.897,4141.41,4162.821,4141.154,0,0
321,3,0,3455,4147.564,4156.667,4154.487,4162.308,4159.103,4168.333,4159.359,4178.205,4161.667,4162.821,4156.538,4142.692,4171.282,4146.923,0,0
322,4,0,3547,4135.897,4141.667,4141.667,4154.872,4146.41,4154.744000000001,4149.615,4160.385,4151.282,4147.692,4141.538,4134.103,4157.9490000000005,4138.205,0,0
323,5,0,2954,4126.795,4131.538,4127.179,4140.641,4134.615,4147.9490000000005,4135.769,4139.744000000001,4145.385,4132.179,4131.667,4119.615,4145.255999999999,4124.872,0,0
324,6,0,2950,4130.769,4140.128,4126.923,4138.077,4135.897,4152.9490000000005,4133.846,4142.179,4153.077,4140.513,4134.359,4118.974,4151.923,4126.923,0,0
325,7,0,3471,4142.436,4152.564,4139.744000000001,4152.0509999999995,4148.462,4157.308,4148.462,4160.897,4160.255999999999,4160.513,4144.103,4134.487,4168.718,4141.154,0,0
326,8,0,2859,4135.769,4143.59,4138.462,4146.282,4145.513,4154.487,4152.9490000000005,4159.231,4153.846,4151.154,4139.744000000001,4129.231,4166.41,4139.744000000001,0,0
327,9,0,3591,4131.282,4136.026,4137.0509999999995,4135.0,4141.667,4158.846,4150.897,4148.718,4148.59,4138.333,4135.641,4123.59,4158.333,4136.795,0,0
328,10,0,3348,4156.667,4157.564,4155.128,4155.897,4158.462,4171.41,4163.846,4163.462,4159.103,4157.308,4151.41,4147.179,4167.9490000000005,4153.718,0,0
329,11,0,3341,4172.0509999999995,4169.359,4163.333,4173.718,4163.333,4172.692,4172.0509999999995,4177.0509999999995,4169.103,4165.897,4161.667,4160.769,4174.487,4162.9490000000005,0,0
330,12,0,2822,4164.744000000001,4161.538,4160.641,4166.667,4156.154,4168.077,4163.846,4171.026,4170.385,4158.974,4152.564,4156.667,4169.231,4158.846,0,0
331,13,0,3167,4153.846,4156.154,4157.821,4156.923,4152.692,4163.846,4154.231,4158.718,4156.795,4155.255999999999,4142.0509999999995,4153.205,4162.0509999999995,4153.077,0,0
332,14,0,3348,4139.231,4143.205,4141.154,4145.385,4141.667,4151.41,4151.026,4147.9490000000005,4136.026,4142.564,4136.026,4136.282,4149.615,4137.564,0,0
333,15,0,3341,4136.795,4137.821,4137.436,4143.974,4141.41,4155.641,4160.641,4157.9490000000005,4148.462,4147.692,4138.462,4129.744000000001,4153.333,4137.692,0,0
334,16,0,0,4143.846,4147.436,4148.718,4152.0509999999995,4151.026,4170.385,4168.205,4174.487,4172.308,4170.769,4145.255999999999,4141.154,4172.564,4152.0509999999995,0,0
335,17,0,0,4135.385,4141.154,4140.385,4143.974,4140.385,4161.795,4160.0,4162.436,4156.667,4160.128,4138.333,4129.744000000001,4163.974,4140.128,0,0
336,18,0,0,4134.487,4135.769,4136.923,4139.103,4138.077,4158.077,4161.41,4154.615,4141.923,4144.359,4133.333,4121.667,4152.821,4127.821,0,0
337,19,0,0,4154.103,4153.718,4156.026,4153.846,4160.513,4175.897,4177.308,4173.077,4158.333,4163.077,4141.795,4140.385,4170.128,4147.436,0,0
338,20,0,0,4157.0509999999995,4158.846,4157.179,4155.769,4156.282,4171.923,4170.255999999999,4170.513,4158.205,4164.615,4142.308,4143.846,4171.41,4157.564,0,0
339,21,0,0,4149.744000000001,4148.077,4146.795,4147.821,4133.718,4152.9490000000005,4153.718,4151.282,4146.154,4146.923,4136.282,4133.718,4153.846,4149.359,0,0
340,22,0,0,4154.744000000001,4151.282,4154.615,4154.359,4140.897,4154.231,4157.9490000000005,4154.487,4156.795,4153.462,4138.59,4138.59,4153.846,4153.077,0,0
341,23,0,0,4154.359,4154.487,4151.923,4152.9490000000005,4154.872,4156.667,4158.59,4156.795,4157.9490000000005,4157.564,4137.564,4141.026,4155.769,4153.205,0,0
342,24,0,0,4147.692,4149.231,4140.128,4144.487,4151.923,4155.0,4150.385,4147.821,4146.538,4146.795,4132.564,4134.487,4149.615,4146.667,0,0
343,25,0,0,4155.0,4154.231,4148.846,4152.821,4152.0509999999995,4168.462,4159.359,4158.333,4158.462,4155.897,4138.205,4142.564,4160.255999999999,4156.154,0,0
344,26,0,0,4160.769,4158.974,4158.846,4160.128,4157.436,4171.538,4167.692,4173.077,4172.308,4165.255999999999,4143.462,4148.718,4171.154,4162.308,0,0
345,27,0,0,4152.821,4150.255999999999,4149.359,4149.103,4150.128,4154.103,4159.231,4167.692,4160.513,4154.615,4136.41,4138.077,4163.59,4151.795,0,0
346,28,0,0,4155.641,4151.538,4148.718,4148.205,4147.0509999999995,4156.41,4161.282,4164.359,4154.872,4157.308,4136.923,4138.974,4162.564,4155.255999999999,0,0
347,29,0,0,4176.41,4172.308,4168.333,4169.359,4161.667,4175.641,4176.538,4176.41,4170.255999999999,4175.769,4154.615,4158.718,4176.667,4175.769,0,0
348,30,0,0,4180.255999999999,4176.026,4169.744000000001,4170.897,4162.692,4174.359,4174.103,4171.282,4167.436,4173.077,4158.205,4159.744000000001,4176.154,4175.255999999999,0,0
349,31,0,0,4167.308,4163.974,4158.974,4153.846,4150.897,4164.615,4163.59,4154.359,4156.154,4163.462,4146.795,4146.923,4164.615,4163.077,0,0
350,32,0,0,4176.795,4174.487,4167.179,4160.255999999999,4156.795,4170.385,4167.179,4162.436,4166.41,4176.41,4151.923,4156.923,4172.179,4174.103,0,0
351,33,0,0,4192.9490000000005,4190.385,4177.821,4177.564,4172.821,4176.795,4173.462,4177.436,4174.103,4184.359,4161.795,4169.487,4183.462,4186.154,0,0
352,34,0,0,4181.923,4183.718,4169.359,4172.0509999999995,4172.179,4171.41,4167.692,4166.41,4167.308,4171.667,4153.846,4160.128,4175.0,4174.744000000001,0,0
353,35,0,0,4169.615,4180.641,4164.872,4166.667,4167.308,4168.59,4161.282,4159.103,4163.846,4165.897,4152.692,4154.744000000001,4166.667,4166.923,0,0
354,36,0,0,4176.282,4187.179,4170.385,4174.872,4170.513,4171.282,4163.333,4167.308,4162.179,4172.821,4159.615,4161.282,4169.359,4174.231,0,0
355,37,0,0,4166.282,4171.923,4157.9490000000005,4161.41,4161.41,4170.255999999999,4162.0509999999995,4156.282,4148.846,4161.41,4144.744000000001,4150.128,4158.077,4163.333,0,0
356,38,0,0,4135.385,4141.667,4133.974,4135.255999999999,4146.282,4164.487,4151.282,4137.0509999999995,4133.846,4132.179,4123.333,4125.513,4135.0,4136.154,0,0
357,39,0,0,4135.897,4138.205,4135.769,4135.897,4146.795,4164.872,4150.128,4145.385,4142.9490000000005,4134.872,4129.359,4127.692,4142.821,4137.821,0,0
358,40,0,0,4165.255999999999,4160.255999999999,4165.769,4156.282,4157.564,4170.769,4163.974,4173.077,4172.9490000000005,4172.564,4152.179,4158.205,4175.897,4166.795,0,0
359,41,0,0,4175.385,4172.436,4179.872,4163.333,4163.077,4171.538,4170.513,4186.41,4184.615,4194.487,4161.667,4173.846,4190.897,4184.231,0,0
360,42,0,0,4166.282,4167.436,4167.436,4158.205,4160.641,4168.205,4162.436,4177.0509999999995,4167.9490000000005,4183.846,4157.308,4163.333,4184.487,4182.692,0,0
361,43,0,0,4175.897,4168.205,4171.538,4162.0509999999995,4161.154,4168.205,4156.41,4164.615,4157.0509999999995,4173.077,4157.308,4161.538,4180.128,4184.487,0,0
362,44,0,0,4188.333,4172.692,4186.026,4168.205,4167.9490000000005,4170.897,4156.923,4160.641,4156.41,4173.077,4159.615,4170.769,4177.692,4187.9490000000005,0,0
363,45,0,0,4177.821,4171.538,4178.846,4167.0509999999995,4169.615,4170.641,4155.513,4157.308,4155.0,4173.718,4157.9490000000005,4168.846,4170.0,4184.359,0,0
364,46,0,0,4173.846,4176.282,4173.333,4165.769,4167.179,4170.769,4154.615,4153.205,4158.205,4173.846,4163.846,4164.615,4168.59,4183.333,0,0
365,47,0,0,4181.154,4178.718,4183.846,4168.333,4169.359,4171.026,4157.821,4154.615,4153.846,4171.667,4168.205,4166.795,4166.538,4183.205,0,0
366,48,0,0,4177.179,4172.308,4183.846,4168.59,4168.462,4167.9490000000005,4155.255999999999,4154.487,4145.641,4167.821,4158.974,4164.744000000001,4160.128,4180.769,0,0
367,49,0,0,4172.564,4175.385,4178.333,4167.564,4164.359,4166.538,4151.282,4151.667,4151.026,4168.974,4156.154,4162.564,4163.205,4180.0,0,0
368,50,0,0,4183.718,4190.0,4184.872,4171.923,4171.154,4170.255999999999,4157.564,4155.897,4157.692,4174.359,4167.436,4170.0,4170.897,4188.077,0,0
369,51,0,0,4191.41,4194.744000000001,4189.615,4175.641,4176.795,4175.0,4164.103,4164.487,4155.641,4177.179,4173.974,4175.385,4171.41,4197.436,0,0
370,52,0,0,4180.897,4181.41,4181.41,4172.692,4169.615,4173.846,4159.744000000001,4161.795,4153.59,4172.564,4163.846,4166.923,4165.769,4192.0509999999995,0,0
371,53,0,0,4169.359,4170.897,4171.667,4168.205,4165.385,4168.333,4153.846,4152.821,4153.462,4166.154,4154.487,4156.282,4164.744000000001,4181.667,0,0
372,54,0,0,4164.359,4172.179,4167.821,4164.744000000001,4170.769,4168.974,4155.641,4154.103,4151.795,4168.59,4157.821,4157.821,4169.487,4181.667,0,0
373,55,0,0,4157.179,4169.103,4163.59,4158.333,4167.9490000000005,4173.718,4158.846,4156.538,4156.41,4169.744000000001,4160.897,4155.897,4169.744000000001,4177.564,0,0
374,56,0,0,4142.436,4156.026,4152.308,4151.154,4155.385,4166.41,4153.205,4144.872,4155.255999999999,4159.487,4151.154,4141.538,4159.359,4159.487,0,0
375,57,0,0,4131.667,4147.308,4141.667,4149.103,4149.103,4152.564,4140.641,4132.564,4139.615,4149.103,4138.59,4130.0,4148.974,4145.0,0,0
376,58,0,0,4137.564,4147.9490000000005,4143.333,4155.255999999999,4147.179,4155.897,4140.897,4139.872,4136.538,4149.231,4142.179,4135.255999999999,4152.179,4148.333,0,0
377,59,0,0,4152.436,4160.513,4157.179,4166.538,4153.846,4171.282,4162.692,4162.436,4156.538,4163.077,4160.255999999999,4149.615,4165.0,4163.974,0,0
378,60,0,0,4157.436,4169.103,4164.359,4170.513,4163.462,4172.821,4168.59,4169.744000000001,4167.9490000000005,4170.255999999999,4170.128,4155.897,4170.897,4172.564,0,0
379,61,0,0,4150.897,4157.692,4157.0509999999995,4167.0509999999995,4159.359,4165.128,4155.385,4162.308,4162.9490000000005,4161.923,4166.154,4150.897,4166.538,4167.308,0,0
380,62,0,0,4157.179,4157.692,4154.615,4170.255999999999,4155.255999999999,4168.974,4161.667,4169.872,4169.103,4164.744000000001,4170.641,4153.846,4168.333,4168.205,0,0
381,63,0,0,4164.231,4170.0,4159.359,4175.255999999999,4161.41,4174.359,4170.897,4179.487,4173.718,4172.692,4178.59,4161.795,4175.128,4175.641,0,0
382,64,0,3143,4150.897,4161.41,4154.615,4176.026,4157.821,4170.513,4163.077,4170.255999999999,4160.641,4159.872,4169.487,4152.692,4169.872,4171.026,0,0
383,65,0,2770,4144.359,4150.641,4152.564,4181.282,4151.282,4170.128,4164.103,4166.282,4162.308,4149.103,4163.846,4145.897,4165.255999999999,4164.487,0,0
384,66,0,3457,4155.641,4156.538,4156.538,4186.667,4156.667,4172.179,4170.641,4173.205,4170.897,4156.538,4170.128,4152.821,4167.436,4168.077,0,0
385,67,0,3460,4154.231,4154.103,4153.333,4183.846,4155.128,4168.077,4160.897,4168.846,4159.359,4152.564,4169.615,4150.513,4159.103,4168.333,0,0
386,68,0,3560,4150.255999999999,4155.0,4157.308,4182.9490000000005,4156.026,4166.923,4157.9490000000005,4166.154,4152.308,4147.692,4169.487,4148.333,4158.974,4169.359,0,0
387,69,0,2955,4161.795,4170.641,4170.641,4187.9490000000005,4167.564,4169.615,4163.205,4169.359,4158.462,4157.564,4175.513,4155.385,4169.487,4174.487,0,0
388,70,0,2956,4161.795,4169.615,4167.564,4188.205,4168.333,4166.923,4157.436,4163.59,4155.769,4155.128,4172.436,4154.231,4161.667,4172.564,0,0
389,71,0,3473,4153.333,4160.769,4155.513,4186.41,4165.255999999999,4165.897,4153.846,4158.462,4153.333,4147.308,4166.41,4149.359,4155.0,4169.103,0,0
390,72,0,2855,4161.026,4167.564,4158.333,4187.692,4169.872,4169.359,4156.41,4157.564,4157.564,4152.821,4170.128,4151.41,4167.821,4174.231,0,0
391,73,0,3595,4166.923,4173.59,4164.359,4187.179,4170.641,4168.974,4156.282,4158.333,4154.744000000001,4157.436,4175.0,4153.974,4168.974,4177.821,0,0
392,74,0,3352,4163.077,4168.718,4160.128,4184.615,4166.282,4167.308,4156.282,4163.462,4150.897,4152.179,4171.41,4154.103,4159.615,4173.462,0,0
393,75,0,3346,4164.103,4167.564,4155.0,4180.385,4167.564,4168.846,4157.308,4166.026,4156.154,4151.667,4169.359,4153.077,4165.641,4170.897,0,0
394,76,0,2822,4161.538,4169.359,4155.641,4174.744000000001,4168.846,4169.872,4156.154,4163.462,4157.0509999999995,4154.615,4169.872,4151.538,4171.41,4170.0,0,0
395,77,0,3169,4153.59,4165.641,4161.667,4176.538,4166.41,4169.359,4159.487,4163.59,4151.026,4145.513,4166.667,4150.513,4165.385,4166.795,0,0
396,78,0,3352,4161.026,4166.41,4170.128,4185.128,4167.564,4173.718,4170.385,4173.718,4156.538,4143.462,4168.462,4154.615,4166.154,4171.41,0,0
397,79,0,3346,4171.667,4170.641,4173.462,4183.974,4170.897,4176.538,4173.718,4186.795,4168.205,4159.231,4172.692,4165.513,4172.436,4181.154,0,0
398,80,0,2822,4167.692,4168.462,4170.255999999999,4180.769,4169.744000000001,4171.282,4166.154,4184.487,4170.0,4170.897,4171.795,4169.872,4172.692,4182.9490000000005,0,0
399,81,0,3169,4167.308,4166.41,4171.282,4188.205,4167.436,4169.487,4166.41,4172.0509999999995,4171.282,4169.872,4175.385,4162.564,4171.41,4182.0509999999995,0,0
400,82,0,3352,4171.795,4170.641,4171.026,4186.41,4171.154,4171.667,4171.41,4171.026,4173.718,4170.128,4180.128,4157.692,4173.205,4181.538,0,0
401,83,0,3346,4166.154,4171.026,4162.308,4173.718,4172.692,4170.128,4163.846,4169.744000000001,4162.692,4172.436,4176.026,4159.487,4173.59,4176.282,0,0
402,84,0,2822,4154.615,4160.769,4153.974,4171.154,4161.667,4160.897,4153.077,4161.026,4153.205,4164.744000000001,4169.359,4150.0,4169.231,4168.205,0,0
403,85,0,3169,4152.179,4152.9490000000005,4151.41,4170.769,4151.154,4153.846,4152.0509999999995,4162.0509999999995,4154.615,4152.436,4163.846,4137.0509999999995,4164.359,4165.128,0,0
404,86,0,3352,4161.282,4162.821,4157.821,4169.359,4156.795,4159.359,4156.923,4167.179,4151.538,4151.538,4162.436,4141.41,4166.538,4167.436,0,0
405,87,0,3346,4170.513,4178.59,4169.487,4178.462,4168.974,4169.231,4159.487,4168.205,4158.846,4164.744000000001,4168.974,4153.846,4174.103,4171.538,0,0
406,88,0,2822,4169.487,4181.026,4173.462,4182.9490000000005,4174.744000000001,4171.538,4159.103,4172.436,4173.59,4176.795,4173.974,4157.179,4179.231,4176.026,0,0
407,89,0,3169,4156.923,4165.513,4160.255999999999,4168.846,4164.615,4161.026,4152.821,4163.974,4161.282,4170.385,4166.538,4144.615,4171.026,4165.897,0,0
408,90,0,3352,4149.359,4153.077,4148.462,4161.154,4153.718,4156.795,4150.641,4154.744000000001,4146.538,4163.205,4163.974,4136.41,4165.128,4155.513,0,0
409,91,0,3346,4152.179,4157.692,4155.0,4168.846,4159.744000000001,4166.41,4156.282,4170.513,4161.795,4173.077,4172.0509999999995,4143.333,4176.282,4161.41,0,0
410,92,0,2822,4146.667,4160.769,4160.255999999999,4166.923,4163.846,4167.436,4157.436,4176.282,4170.0,4174.359,4167.0509999999995,4144.872,4178.718,4164.231,0,0
411,93,0,3169,4134.231,4148.462,4147.436,4153.462,4148.205,4153.718,4151.923,4155.641,4153.59,4156.026,4151.41,4131.282,4160.641,4150.769,0,0
412,94,0,3352,4136.538,4143.974,4140.769,4152.821,4142.0509999999995,4149.744000000001,4149.872,4152.0509999999995,4151.538,4150.769,4152.179,4128.974,4157.564,4145.897,0,0
413,95,0,3346,4151.282,4161.538,4154.872,4167.308,4162.436,4164.359,4159.103,4168.462,4166.41,4165.385,4168.974,4148.59,4175.641,4163.462,0,0
414,96,0,2822,4158.077,4170.769,4163.974,4175.385,4169.615,4172.436,4169.744000000001,4173.077,4173.59,4171.667,4173.974,4154.615,4179.103,4171.667,0,0
415,97,0,3169,4156.154,4160.128,4158.462,4169.231,4158.077,4167.692,4167.436,4169.359,4169.744000000001,4165.128,4164.744000000001,4141.026,4168.59,4160.897,0,0
416,98,0,3352,4147.308,4145.641,4147.821,4159.103,4151.154,4158.205,4156.795,4162.564,4158.718,4156.282,4154.231,4132.692,4165.513,4145.897,0,0
417,99,0,3346,4137.308,4141.923,4142.692,4152.564,4143.462,4151.41,4150.897,4155.769,4151.795,4148.846,4148.205,4131.923,4166.282,4140.128,0,0
418,100,0,2822,4144.872,4151.026,4149.615,4159.359,4144.359,4158.718,4154.615,4165.128,4159.872,4157.564,4157.0509999999995,4137.0509999999995,4169.744000000001,4151.026,0,0
419,101,0,3169,4158.205,4157.692,4158.077,4169.487,4158.462,4169.872,4158.462,4178.077,4173.974,4172.564,4170.0,4146.154,4172.564,4163.205,0,0
420,102,0,3352,4152.821,4153.205,4153.59,4167.821,4159.744000000001,4164.744000000001,4156.667,4167.692,4170.897,4165.513,4166.41,4145.128,4168.974,4160.769,0,0
421,103,0,3346,4149.872,4151.538,4149.744000000001,4162.9490000000005,4150.897,4155.0,4153.333,4158.974,4157.564,4151.795,4157.179,4138.462,4167.436,4153.718,0,0
422,104,0,2822,4162.692,4158.718,4156.538,4161.923,4158.462,4160.385,4155.255999999999,4170.0,4156.282,4156.154,4158.333,4143.205,4167.0509999999995,4157.564,0,0
423,105,0,3169,4164.103,4159.615,4158.846,4158.59,4163.205,4164.744000000001,4158.59,4168.846,4159.744000000001,4161.795,4160.897,4146.41,4166.795,4159.487,0,0
424,106,0,3352,4153.077,4154.231,4152.308,4154.359,4151.026,4155.128,4154.103,4151.41,4160.385,4155.641,4155.897,4137.564,4179.615,4154.359,0,0
425,107,0,3346,4149.359,4150.255999999999,4147.436,4153.333,4146.538,4149.103,4148.333,4145.128,4163.59,4150.641,4152.308,4132.564,4185.385,4150.641,0,0
426,108,0,2822,4157.9490000000005,4159.231,4155.897,4158.718,4158.846,4160.385,4156.41,4158.974,4168.718,4159.103,4159.872,4142.179,4179.872,4157.9490000000005,0,0
427,109,0,3169,4154.231,4159.615,4155.641,4160.385,4157.0509999999995,4160.641,4156.41,4157.0509999999995,4157.0509999999995,4157.179,4157.9490000000005,4141.923,4165.385,4156.154,0,0
428,110,0,3352,4126.923,4132.564,4131.41,4141.154,4129.744000000001,4138.333,4134.744000000001,4130.0,4133.205,4126.154,4133.462,4117.821,4130.385,4126.795,0,0
429,111,0,3346,4124.615,4128.974,4131.026,4134.231,4128.333,4139.359,4139.744000000001,4137.821,4138.974,4123.077,4131.538,4113.462,4121.282,4121.41,0,0
430,112,0,2822,4165.0,4166.538,4165.513,4165.255999999999,4166.41,4173.462,4178.077,4186.667,4179.744000000001,4172.0509999999995,4166.154,4146.538,4163.333,4162.821,0,0
431,113,0,3169,4178.59,4176.667,4170.385,4176.154,4175.769,4181.026,4185.255999999999,4195.255999999999,4193.974,4189.103,4173.718,4157.9490000000005,4183.59,4177.308,0,0
432,114,0,3352,4148.718,4152.0509999999995,4140.513,4149.872,4149.359,4158.846,4160.513,4164.872,4169.359,4158.974,4151.795,4133.333,4163.077,4148.462,0,0
433,115,0,3346,4143.718,4152.692,4137.821,4144.103,4150.769,4162.564,4157.692,4169.231,4167.179,4159.231,4152.179,4127.564,4168.205,4143.462,0,0
434,116,0,2822,4144.231,4153.462,4140.513,4147.308,4157.821,4168.59,4161.795,4172.9490000000005,4170.769,4165.255999999999,4149.744000000001,4126.41,4174.231,4143.462,0,0
435,117,0,3169,4121.282,4131.026,4116.026,4129.615,4137.308,4151.282,4149.359,4146.923,4153.205,4141.026,4127.0509999999995,4104.359,4152.179,4118.846,0,0
436,118,0,3352,4130.513,4137.9490000000005,4118.333,4136.41,4144.487,4155.0,4153.205,4157.9490000000005,4161.154,4149.615,4135.128,4112.436,4158.718,4124.487,0,0
437,119,0,3346,4164.872,4165.513,4153.974,4168.333,4177.9490000000005,4180.513,4176.026,4191.667,4189.872,4187.821,4166.923,4150.769,4190.769,4160.513,0,0
438,120,0,2822,4158.974,4163.077,4157.179,4165.385,4171.154,4179.359,4178.718,4183.59,4183.846,4186.026,4165.897,4150.769,4189.872,4162.308,0,0
439,121,0,3169,4132.821,4147.564,4132.9490000000005,4140.769,4150.128,4161.154,4158.974,4157.9490000000005,4163.205,4158.846,4145.255999999999,4122.564,4163.974,4136.667,0,0
440,122,0,3352,4141.026,4156.538,4137.0509999999995,4146.795,4165.255999999999,4168.205,4157.0509999999995,4160.769,4168.077,4158.333,4146.538,4128.846,4166.026,4138.59,0,0
441,123,0,3346,4145.641,4155.128,4142.308,4154.103,4169.359,4170.255999999999,4160.769,4161.538,4170.128,4162.0509999999995,4148.333,4139.231,4172.0509999999995,4144.744000000001,0,0
442,124,0,2822,4128.077,4135.769,4126.282,4140.128,4147.308,4152.0509999999995,4146.795,4145.769,4160.641,4150.385,4134.487,4120.641,4154.231,4131.667,0,0
443,125,0,3169,4137.9490000000005,4148.205,4134.744000000001,4145.0,4153.205,4156.026,4150.641,4150.513,4164.487,4157.564,4141.538,4123.205,4159.359,4137.821,0,0
444,126,0,3352,4161.026,4170.897,4158.59,4162.564,4171.923,4174.103,4167.9490000000005,4169.359,4171.795,4175.385,4164.744000000001,4149.744000000001,4182.436,4159.872,0,0
445,127,0,52,4158.462,4161.795,4159.487,4158.718,4165.641,4171.41,4163.077,4171.538,4169.231,4174.231,4165.385,4154.359,4178.205,4161.41,0,0
446,0,0,3143,4154.359,4153.718,4156.41,4152.9490000000005,4154.615,4166.667,4153.846,4162.692,4165.897,4170.513,4157.0509999999995,4144.615,4168.077,4155.128,0,0
447,1,0,2770,4154.615,4156.41,4155.255999999999,4154.103,4151.923,4167.564,4156.282,4157.564,4162.436,4169.615,4156.795,4142.308,4169.231,4152.308,0,0
448,2,0,3457,4138.974,4140.128,4140.385,4147.179,4151.41,4157.692,4149.744000000001,4149.487,4154.615,4159.103,4150.897,4135.897,4160.769,4139.103,0,0
449,3,0,3457,4139.487,4140.0,4142.308,4148.718,4163.333,4160.255999999999,4153.077,4153.974,4161.667,4165.255999999999,4149.872,4135.641,4166.41,4140.897,0,0
450,4,0,3556,4157.9490000000005,4165.513,4158.846,4161.026,4177.0509999999995,4176.667,4171.41,4168.59,4177.692,4185.513,4160.255999999999,4146.667,4186.538,4159.103,0,0
451,5,0,2955,4151.154,4162.821,4151.795,4154.103,4171.026,4170.128,4166.41,4160.769,4172.179,4174.872,4155.0,4142.179,4176.538,4153.974,0,0
452,6,0,2954,4131.667,4145.769,4135.255999999999,4138.462,4154.487,4150.128,4148.59,4141.026,4151.026,4150.255999999999,4140.255999999999,4127.179,4154.103,4134.359,0,0
453,7,0,3472,4133.333,4151.538,4136.026,4140.385,4151.795,4151.667,4149.872,4142.436,4148.974,4156.026,4144.359,4130.0,4158.333,4137.0509999999995,0,0
454,8,0,2854,4148.718,4158.718,4147.436,4151.538,4165.0,4166.667,4157.308,4159.615,4161.923,4172.821,4155.513,4143.59,4171.282,4153.462,0,0
455,9,0,3591,4158.59,4156.795,4154.231,4156.282,4168.205,4169.487,4155.0,4168.846,4164.231,4175.255999999999,4156.795,4146.667,4173.718,4158.59,0,0
456,10,0,3348,4151.026,4156.923,4148.462,4151.026,4152.564,4160.385,4153.462,4168.077,4161.41,4172.179,4155.769,4142.692,4170.255999999999,4151.923,0,0
457,11,0,3342,4138.462,4146.538,4136.026,4141.026,4144.359,4152.821,4149.615,4156.538,4160.128,4165.0,4149.231,4137.436,4161.282,4142.436,0,0
458,12,0,2818,4138.718,4137.692,4138.205,4138.462,4157.308,4156.026,4142.9490000000005,4145.128,4151.026,4155.128,4139.872,4134.487,4151.667,4140.255999999999,0,0
459,13,0,3166,4132.0509999999995,4139.872,4137.0509999999995,4137.692,4161.538,4156.667,4142.0509999999995,4140.128,4139.744000000001,4148.205,4138.846,4129.872,4143.333,4137.436,0,0
460,14,0,3348,4106.923,4124.615,4109.359,4121.026,4134.744000000001,4143.59,4132.692,4128.205,4130.897,4130.897,4130.385,4109.231,4130.769,4117.0509999999995,0,0
461,15,0,3342,4094.744,4105.0,4095.7690000000002,4110.128,4117.436,4136.923,4126.026,4125.255999999999,4133.462,4119.359,4121.026,4097.179,4128.59,4106.795,0,0
462,16,0,0,4117.9490000000005,4125.0,4122.308,4129.872,4140.0,4153.077,4146.795,4148.974,4156.282,4149.744000000001,4140.513,4123.333,4156.923,4136.026,0,0
463,17,0,0,4141.923,4151.538,4143.718,4146.154,4158.718,4162.821,4163.846,4168.846,4171.667,4182.821,4162.308,4147.9490000000005,4185.513,4162.0509999999995,0,0
464,18,0,0,4139.359,4145.897,4136.282,4142.179,4149.615,4154.103,4155.255999999999,4166.795,4168.077,4177.436,4158.333,4141.282,4185.255999999999,4155.897,0,0
465,19,0,0,4137.0509999999995,4140.897,4136.026,4142.692,4149.359,4155.641,4153.462,4163.59,4167.308,4169.487,4155.128,4139.487,4177.564,4154.359,0,0
466,20,0,0,4141.282,4145.385,4143.077,4143.462,4149.359,4159.744000000001,4151.154,4159.231,4162.179,4173.718,4158.333,4143.718,4174.359,4158.718,0,0
467,21,0,0,4136.795,4139.487,4136.026,4135.769,4136.026,4151.538,4139.487,4150.897,4156.923,4168.974,4152.821,4133.462,4169.359,4146.923,0,0
468,22,0,0,4131.026,4135.0,4130.769,4134.615,4141.667,4149.103,4140.255999999999,4148.974,4164.103,4164.615,4148.974,4129.103,4163.333,4136.923,0,0
469,23,0,0,4136.923,4137.564,4137.308,4139.615,4156.923,4155.513,4143.462,4152.436,4165.128,4168.333,4151.154,4137.0509999999995,4159.487,4144.103,0,0
470,24,0,0,4138.846,4138.462,4139.487,4137.821,4153.333,4152.821,4140.897,4150.385,4152.308,4165.0,4152.308,4143.59,4156.154,4151.923,0,0
471,25,0,0,4138.205,4143.333,4141.154,4141.282,4149.872,4148.333,4149.103,4150.897,4152.692,4161.667,4153.462,4149.359,4161.154,4154.744000000001,0,0
472,26,0,0,4147.9490000000005,4152.692,4151.538,4154.231,4158.205,4156.795,4159.872,4164.231,4167.821,4170.0,4155.128,4155.0,4172.0509999999995,4158.718,0,0
473,27,0,0,4151.795,4154.487,4151.41,4149.872,4155.255999999999,4160.0,4157.436,4169.231,4169.744000000001,4174.231,4154.872,4150.513,4168.077,4155.255999999999,0,0
474,28,0,0,4148.718,4155.769,4145.0,4140.0,4148.205,4155.128,4152.9490000000005,4154.872,4158.846,4167.308,4153.974,4147.308,4159.872,4150.513,0,0
475,29,0,0,4154.231,4160.255999999999,4153.077,4149.615,4160.255999999999,4157.436,4155.385,4150.769,4161.41,4168.333,4155.641,4153.718,4166.154,4159.872,0,0
476,30,0,0,4158.462,4155.255999999999,4158.333,4157.692,4171.538,4159.872,4155.513,4159.487,4173.974,4173.205,4156.026,4155.0,4171.41,4164.744000000001,0,0
477,31,0,0,4153.59,4155.641,4156.667,4153.974,4171.41,4159.231,4152.821,4156.667,4170.0,4172.564,4155.513,4154.231,4168.333,4159.872,0,0
478,32,0,0,4152.179,4167.308,4164.744000000001,4157.564,4172.0509999999995,4163.462,4153.718,4152.436,4157.692,4173.846,4156.282,4155.385,4167.308,4161.282,0,0
479,33,0,0,4149.744000000001,4157.564,4161.795,4153.846,4165.641,4162.0509999999995,4154.744000000001,4150.513,4153.718,4165.513,4150.513,4146.026,4159.231,4156.667,0,0
480,34,0,0,4145.255999999999,4137.564,4145.897,4141.795,4151.795,4153.718,4152.436,4145.255999999999,4152.821,4153.333,4142.0509999999995,4132.9490000000005,4147.179,4142.821,0,0
481,35,0,0,4151.026,4140.128,4148.59,4148.718,4153.077,4156.154,4151.282,4148.205,4156.282,4153.333,4148.718,4134.872,4154.359,4147.179,0,0
482,36,0,0,4148.974,4145.128,4151.41,4156.41,4157.692,4158.077,4144.744000000001,4144.872,4151.026,4148.462,4155.513,4136.667,4156.282,4156.795,0,0
483,37,0,0,4135.385,4135.641,4136.41,4148.333,4149.615,4149.872,4132.436,4134.744000000001,4140.513,4133.462,4145.769,4129.359,4139.103,4147.0509999999995,0,0
484,38,0,0,4144.487,4139.744000000001,4142.436,4155.513,4151.282,4151.154,4141.026,4145.128,4153.205,4136.026,4145.897,4135.641,4143.59,4147.179,0,0
485,39,0,0,4160.128,4147.821,4156.538,4172.436,4158.077,4157.308,4152.436,4159.231,4164.872,4144.744000000001,4156.923,4143.59,4158.077,4158.077,0,0
486,40,0,0,4151.41,4143.846,4145.641,4170.897,4154.615,4154.359,4142.436,4154.359,4151.538,4137.179,4153.974,4135.255999999999,4146.795,4153.846,0,0
487,41,0,0,4145.513,4147.9490000000005,4141.923,4167.436,4155.255999999999,4154.231,4139.744000000001,4148.718,4145.255999999999,4132.692,4150.255999999999,4131.154,4134.872,4147.821,0,0
488,42,0,0,4150.513,4152.9490000000005,4152.308,4173.718,4159.615,4157.9490000000005,4152.179,4151.538,4153.205,4136.41,4151.795,4136.154,4140.513,4153.205,0,0
489,43,0,0,4147.821,4148.205,4146.795,4173.077,4157.179,4157.436,4156.154,4153.718,4152.179,4138.333,4145.128,4135.128,4142.308,4152.436,0,0
490,44,0,0,4138.718,4142.308,4134.872,4169.103,4153.205,4155.128,4146.026,4148.077,4146.795,4132.564,4137.436,4124.744000000001,4136.795,4140.128,0,0
491,45,0,0,4136.026,4144.487,4138.974,4171.538,4154.103,4157.564,4144.615,4143.462,4150.513,4121.282,4137.564,4122.692,4138.333,4135.128,0,0
492,46,0,0,4143.205,4151.41,4143.462,4169.359,4154.872,4157.692,4151.923,4146.154,4146.538,4118.846,4136.026,4131.154,4138.205,4139.744000000001,0,0
493,47,0,0,4153.333,4155.769,4146.41,4167.0509999999995,4155.897,4155.513,4155.385,4150.385,4137.9490000000005,4131.026,4141.667,4138.462,4139.872,4148.846,0,0
494,48,0,0,4156.282,4155.255999999999,4153.846,4171.667,4156.795,4157.692,4154.744000000001,4153.718,4145.385,4142.179,4153.974,4140.0,4149.615,4156.667,0,0
495,49,0,0,4152.308,4151.795,4154.872,4169.872,4155.641,4156.026,4152.308,4155.128,4155.128,4138.59,4153.718,4141.026,4152.564,4155.255999999999,0,0
496,50,0,0,4157.179,4158.077,4157.0509999999995,4168.077,4160.385,4156.667,4161.026,4155.897,4154.872,4143.205,4151.667,4150.0,4152.564,4155.255999999999,0,0
497,51,0,0,4160.513,4164.359,4160.128,4172.564,4166.795,4161.667,4168.59,4159.103,4152.821,4156.667,4155.513,4153.59,4155.513,4160.128,0,0
498,52,0,0,4150.385,4157.308,4150.897,4167.179,4162.9490000000005,4158.718,4160.641,4156.41,4155.255999999999,4153.462,4152.821,4141.667,4151.154,4155.385,0,0
499,53,0,0,4145.385,4151.154,4144.359,4159.615,4151.538,4154.359,4154.615,4152.179,4152.0509999999995,4146.026,4151.667,4133.333,4147.9490000000005,4148.59,0,0
500,54,0,0,4153.718,4156.795,4154.103,4166.026,4153.205,4161.795,4165.513,4163.333,4151.667,4155.255999999999,4158.077,4144.359,4157.821,4156.923,0,0
501,55,0,0,4159.487,4159.231,4156.026,4170.641,4167.564,4170.0,4172.179,4173.59,4163.205,4160.641,4160.641,4155.641,4161.538,4161.667,0,0
502,56,0,0,4152.436,4153.205,4144.872,4164.487,4164.359,4164.103,4165.255999999999,4166.923,4166.282,4152.821,4160.769,4150.641,4153.462,4154.872,0,0
503,57,0,0,4151.282,4154.744000000001,4148.462,4166.538,4150.385,4159.615,4165.385,4166.026,4159.359,4160.513,4167.564,4152.179,4156.41,4162.179,0,0
504,58,0,0,4158.718,4158.077,4154.744000000001,4171.667,4153.462,4159.615,4164.487,4168.205,4155.255999999999,4170.128,4170.255999999999,4159.872,4160.513,4170.641,0,0
505,59,0,0,4152.179,4151.795,4141.667,4159.744000000001,4158.974,4154.103,4151.41,4152.821,4155.128,4158.59,4161.026,4149.359,4152.0509999999995,4157.179,0,0
506,60,0,0,4137.564,4149.359,4132.179,4151.026,4150.769,4149.231,4146.923,4140.0,4151.795,4146.923,4152.9490000000005,4135.513,4148.846,4148.205,0,0
507,61,0,0,4138.846,4154.744000000001,4140.897,4160.641,4150.769,4154.231,4159.744000000001,4147.821,4151.538,4151.026,4154.103,4138.333,4158.333,4155.769,0,0
508,62,0,0,4149.103,4156.41,4150.255999999999,4165.769,4157.821,4164.615,4170.128,4161.923,4161.667,4161.282,4156.154,4142.308,4166.41,4155.255999999999,0,0
509,63,0,0,4151.282,4152.0509999999995,4150.513,4163.333,4155.128,4167.436,4167.821,4168.846,4169.359,4169.359,4158.974,4143.718,4167.564,4155.0,0,0
510,64,0,3142,4153.333,4150.897,4151.41,4165.0,4157.692,4167.9490000000005,4168.333,4171.538,4172.308,4175.255999999999,4164.487,4153.718,4170.255999999999,4164.744000000001,0,0
511,65,0,2770,4156.41,4154.359,4155.255999999999,4162.308,4160.255999999999,4166.795,4173.718,4173.974,4170.897,4175.255999999999,4163.974,4157.308,4174.103,4162.821,0,0
512,66,0,3453,4147.179,4147.308,4148.846,4154.487,4148.59,4157.9490000000005,4167.692,4171.667,4163.077,4168.846,4154.872,4143.077,4163.59,4150.897,0,0
513,67,0,3457,4138.59,4138.59,4140.897,4153.974,4143.974,4152.821,4158.077,4167.0509999999995,4159.231,4164.487,4152.308,4138.59,4152.9490000000005,4150.385,0,0
514,68,0,3553,4145.513,4140.255999999999,4146.923,4155.897,4155.769,4159.615,4159.615,4168.077,4165.897,4170.255999999999,4156.282,4147.0509999999995,4164.359,4155.769,0,0
515,69,0,2955,4147.564,4143.077,4150.513,4153.462,4158.974,4162.692,4161.282,4170.385,4171.795,4169.103,4157.692,4143.462,4168.205,4153.462,0,0
516,70,0,2952,4144.487,4148.333,4145.255999999999,4155.641,4153.462,4160.513,4156.923,4165.641,4164.615,4157.692,4156.667,4139.487,4156.923,4150.897,0,0
517,71,0,3472,4150.255999999999,4150.641,4148.846,4159.231,4156.667,4163.205,4154.231,4159.615,4161.923,4163.59,4155.255999999999,4150.255999999999,4161.154,4152.9490000000005,0,0
518,72,0,2848,4149.487,4141.026,4154.231,4155.769,4152.692,4159.744000000001,4153.205,4155.897,4163.846,4169.487,4153.462,4152.564,4167.9490000000005,4151.795,0,0
519,73,0,3590,4143.205,4139.103,4153.718,4155.513,4141.795,4152.436,4150.385,4151.538,4160.641,4160.255999999999,4153.974,4144.615,4161.667,4152.308,0,0
520,74,0,3347,4149.744000000001,4150.641,4156.538,4164.872,4147.564,4158.077,4152.308,4151.795,4162.308,4160.128,4155.255999999999,4150.128,4162.564,4156.538,0,0
521,75,0,3342,4157.179,4156.923,4159.615,4168.846,4162.436,4168.077,4159.615,4161.41,4170.128,4171.154,4156.026,4157.179,4172.0509999999995,4157.821,0,0
522,76,0,2818,4158.205,4160.513,4163.462,4167.308,4170.128,4171.538,4167.308,4172.0509999999995,4174.103,4174.744000000001,4163.205,4156.154,4175.513,4162.179,0,0
523,77,0,3166,4162.179,4162.308,4166.41,4171.282,4167.9490000000005,4171.923,4172.692,4173.333,4174.231,4172.0509999999995,4171.282,4158.333,4173.077,4171.154,0,0
524,78,0,3347,4157.692,4154.231,4157.821,4168.462,4159.487,4168.718,4167.9490000000005,4168.077,4171.795,4166.538,4163.974,4155.641,4165.513,4165.513,0,0
525,79,0,3342,4153.974,4154.744000000001,4154.872,4160.513,4156.026,4166.667,4162.308,4167.692,4168.077,4167.179,4153.846,4150.769,4165.641,4158.59,0,0
526,80,0,2818,4162.436,4160.641,4166.795,4160.513,4160.385,4170.0,4166.026,4172.564,4168.59,4170.128,4154.615,4155.128,4169.744000000001,4162.308,0,0
527,81,0,3166,4160.385,4152.0509999999995,4168.333,4156.282,4157.308,4168.846,4168.333,4170.385,4166.667,4158.077,4152.692,4156.154,4158.333,4161.538,0,0
528,82,0,3347,4161.154,4153.205,4166.026,4155.385,4156.282,4166.667,4167.9490000000005,4167.179,4165.128,4154.487,4156.282,4154.744000000001,4157.179,4162.9490000000005,0,0
529,83,0,3342,4173.718,4166.282,4174.231,4164.103,4163.462,4171.667,4166.923,4173.974,4171.795,4169.872,4166.923,4160.255999999999,4174.487,4173.846,0,0
530,84,0,2818,4165.641,4161.282,4167.179,4161.026,4162.308,4167.564,4158.077,4171.154,4173.974,4173.59,4161.923,4155.385,4175.769,4168.077,0,0
531,85,0,3166,4147.436,4149.744000000001,4146.154,4150.513,4155.385,4155.641,4150.0,4154.231,4168.462,4163.846,4149.615,4138.077,4164.872,4151.282,0,0
532,86,0,3347,4150.641,4152.9490000000005,4144.103,4151.282,4151.923,4159.359,4153.333,4154.103,4166.795,4166.795,4152.0509999999995,4135.769,4167.821,4150.255999999999,0,0
533,87,0,3342,4155.641,4156.154,4153.718,4154.103,4151.923,4165.897,4155.769,4168.462,4171.154,4179.615,4161.538,4147.821,4174.615,4157.436,0,0
534,88,0,2818,4152.0509999999995,4155.641,4155.255999999999,4153.077,4160.385,4160.513,4158.59,4172.821,4173.974,4182.821,4166.667,4154.231,4171.667,4163.077,0,0
535,89,0,3166,4157.9490000000005,4162.692,4157.308,4157.436,4172.436,4159.359,4163.846,4174.487,4173.205,4181.795,4169.744000000001,4158.077,4172.564,4170.513,0,0
536,90,0,3347,4160.769,4162.179,4158.974,4157.821,4167.0509999999995,4162.179,4157.821,4172.0509999999995,4170.897,4178.718,4168.59,4159.359,4170.0,4166.795,0,0
537,91,0,3342,4151.282,4151.026,4152.308,4149.487,4149.615,4154.615,4149.359,4158.846,4168.333,4170.641,4165.897,4154.103,4156.538,4155.897,0,0
538,92,0,2818,4150.0,4150.128,4155.513,4148.718,4149.744000000001,4153.974,4153.59,4157.9490000000005,4165.513,4168.846,4167.308,4158.205,4156.154,4159.231,0,0
539,93,0,3166,4157.821,4158.462,4166.282,4156.026,4161.795,4163.846,4159.231,4171.795,4167.692,4182.564,4171.795,4172.0509999999995,4171.154,4172.0509999999995,0,0
540,94,0,3347,4150.897,4153.333,4161.667,4149.872,4159.231,4159.615,4153.59,4171.154,4170.641,4187.436,4172.179,4170.897,4170.513,4170.385,0,0
541,95,0,3342,4144.359,4142.179,4154.231,4137.9490000000005,4151.41,4155.0,4155.513,4164.231,4169.231,4180.385,4167.564,4165.385,4163.205,4163.077,0,0
542,96,0,2818,4152.179,4142.9490000000005,4161.282,4141.538,4156.923,4168.974,4170.769,4173.462,4172.821,4186.282,4170.769,4172.692,4174.359,4168.846,0,0
543,97,0,3166,4144.359,4141.154,4156.538,4143.846,4155.128,4172.692,4169.487,4172.9490000000005,4176.154,4184.359,4167.9490000000005,4166.667,4177.308,4167.564,0,0
544,98,0,3347,4127.821,4134.487,4140.255999999999,4137.308,4143.462,4156.282,4157.692,4157.9490000000005,4169.487,4168.718,4153.462,4148.59,4164.359,4151.795,0,0
545,99,0,3342,4135.385,4137.308,4143.846,4140.0,4147.692,4155.0,4163.974,4158.59,4165.128,4166.538,4152.308,4150.128,4165.897,4149.231,0,0
546,100,0,2818,4145.0,4141.282,4155.513,4143.846,4157.179,4168.59,4172.179,4169.872,4169.487,4172.9490000000005,4159.103,4158.077,4174.103,4156.282,0,0
547,101,0,3166,4135.255999999999,4140.255999999999,4152.692,4137.436,4154.872,4168.59,4166.41,4169.487,4169.359,4174.359,4154.744000000001,4153.333,4169.744000000001,4153.718,0,0
548,102,0,3347,4137.564,4148.333,4151.795,4140.255999999999,4153.59,4165.769,4166.667,4167.179,4168.077,4181.154,4156.795,4158.846,4167.821,4157.436,0,0
549,103,0,3342,4146.41,4155.255999999999,4157.436,4148.718,4156.795,4170.255999999999,4168.077,4171.667,4173.205,4189.744000000001,4171.667,4169.615,4174.231,4171.026,0,0
550,104,0,2818,4140.513,4146.795,4154.615,4141.154,4153.205,4163.333,4158.077,4165.255999999999,4171.282,4184.231,4171.282,4163.333,4168.974,4167.692,0,0
551,105,0,3166,4146.923,4146.41,4159.615,4139.872,4150.0,4158.077,4161.538,4161.41,4166.41,4182.0509999999995,4166.41,4162.692,4167.436,4165.385,0,0
552,106,0,3347,4164.487,4157.436,4175.641,4153.205,4156.41,4170.0,4173.59,4171.282,4170.897,4192.179,4175.255999999999,4176.026,4179.359,4181.282,0,0
553,107,0,3342,4159.872,4158.333,4173.846,4153.974,4155.128,4168.974,4164.744000000001,4172.9490000000005,4173.077,4192.308,4177.564,4176.282,4178.59,4185.255999999999,0,0
554,108,0,2818,4154.103,4157.564,4169.359,4149.615,4151.41,4158.205,4155.641,4166.026,4170.513,4184.359,4173.462,4172.564,4169.103,4178.077,0,0
555,109,0,3166,4169.103,4161.923,4178.462,4158.205,4162.9490000000005,4167.0509999999995,4168.846,4168.333,4171.154,4185.385,4177.0509999999995,4181.667,4171.923,4185.255999999999,0,0
556,110,0,3347,4168.718,4159.359,4178.077,4157.9490000000005,4169.359,4174.615,4174.359,4170.513,4172.821,4187.179,4174.231,4180.897,4172.308,4188.205,0,0
557,111,0,3342,4149.615,4153.462,4165.641,4146.795,4155.513,4158.59,4157.821,4156.282,4169.872,4176.795,4163.333,4167.436,4163.846,4172.308,0,0
558,112,0,2818,4149.744000000001,4156.538,4166.41,4148.974,4149.872,4152.9490000000005,4150.769,4151.282,4168.59,4175.769,4165.897,4169.103,4168.205,4170.128,0,0
559,113,0,3166,4157.436,4158.846,4172.0509999999995,4153.846,4156.667,4165.769,4157.179,4158.077,4167.821,4184.103,4173.205,4175.128,4172.564,4183.333,0,0
560,114,0,3347,4157.692,4158.59,4169.359,4150.255999999999,4155.128,4167.692,4155.769,4156.795,4166.923,4183.974,4171.026,4171.538,4170.897,4185.641,0,0
561,115,0,3342,4166.538,4169.103,4171.923,4153.846,4156.41,4166.154,4153.718,4162.9490000000005,4175.897,4190.769,4178.333,4179.231,4181.026,4187.0509999999995,0,0
562,116,0,2818,4170.641,4175.641,4175.128,4158.974,4160.385,4167.564,4158.718,4170.769,4180.128,4198.59,4188.462,4188.077,4182.564,4189.872,0,0
563,117,0,3166,4150.385,4155.769,4159.359,4147.308,4148.462,4154.359,4152.821,4153.718,4159.744000000001,4173.718,4169.872,4166.026,4154.231,4171.667,0,0
564,118,0,3347,4126.538,4126.795,4137.179,4127.0509999999995,4133.974,4137.436,4136.667,4130.513,4140.897,4138.205,4138.462,4136.282,4124.359,4142.179,0,0
565,119,0,3342,4120.0,4119.744000000001,4135.513,4120.128,4132.564,4141.795,4135.769,4132.436,4145.513,4137.436,4133.077,4133.846,4125.255999999999,4136.795,0,0
566,120,0,2818,4136.923,4138.462,4155.769,4135.255999999999,4143.205,4158.333,4155.513,4151.41,4158.077,4163.462,4153.077,4154.615,4153.205,4158.718,0,0
567,121,0,3166,4165.0,4163.077,4172.692,4154.487,4157.564,4168.974,4172.821,4169.872,4172.564,4188.333,4176.667,4178.333,4182.9490000000005,4181.538,0,0
568,122,0,3347,4172.179,4169.103,4173.333,4157.0509999999995,4158.718,4170.128,4170.385,4176.795,4186.282,4197.9490000000005,4187.564,4186.41,4192.0509999999995,4189.103,0,0
569,123,0,3342,4160.128,4157.821,4170.128,4151.538,4148.462,4162.308,4158.333,4168.718,4181.282,4190.255999999999,4181.41,4179.103,4183.077,4185.641,0,0
570,124,0,2818,4157.9490000000005,4160.255999999999,4167.0509999999995,4152.821,4150.513,4157.0509999999995,4154.231,4157.436,4165.385,4178.718,4173.077,4172.821,4173.974,4180.769,0,0
571,125,0,3166,4159.231,4168.205,4157.0509999999995,4154.103,4157.308,4157.179,4155.769,4145.769,4156.667,4166.282,4163.205,4165.513,4162.436,4171.923,0,0
572,126,0,3347,4152.821,4157.9490000000005,4154.359,4149.487,4152.692,4155.385,4153.974,4136.026,4150.385,4158.077,4154.103,4158.846,4152.308,4164.103,0,0
573,127,0,52,4156.41,4155.641,4164.231,4151.41,4155.897,4158.974,4157.564,4142.692,4150.128,4162.692,4159.744000000001,4164.744000000001,4158.077,4173.077,0,0
574,0,0,3142,4169.359,4170.641,4173.59,4158.718,4171.026,4168.846,4169.615,4160.385,4163.462,4172.436,4170.513,4175.641,4169.744000000001,4185.641,0,0
575,1,0,2771,4173.333,4172.308,4177.308,4159.103,4173.718,4172.436,4175.255999999999,4169.744000000001,4173.462,4174.487,4171.154,4180.513,4171.667,4185.897,0,0
576,2,0,3453,4170.385,4167.0509999999995,4179.103,4160.255999999999,4166.923,4169.615,4172.0509999999995,4168.205,4171.795,4173.462,4170.769,4184.615,4167.9490000000005,4186.282,0,0
577,3,0,3457,4171.154,4173.718,4176.41,4162.9490000000005,4170.255999999999,4169.103,4170.385,4166.923,4166.154,4175.255999999999,4173.077,4184.103,4168.846,4190.0,0,0
578,4,0,3558,4175.513,4176.923,4173.59,4157.9490000000005,4174.744000000001,4171.538,4172.179,4166.795,4169.231,4178.59,4171.923,4177.308,4171.41,4188.205,0,0
579,5,0,2955,4171.667,4168.462,4169.615,4153.59,4167.564,4167.0509999999995,4168.462,4162.179,4173.205,4177.0509999999995,4166.538,4171.667,4166.923,4184.487,0,0
580,6,0,2953,4158.205,4155.641,4158.205,4151.41,4157.308,4156.41,4159.231,4154.872,4162.308,4165.128,4156.154,4162.436,4155.641,4174.615,0,0
581,7,0,3472,4149.359,4144.487,4150.641,4142.179,4151.667,4152.821,4154.103,4149.487,4149.487,4153.718,4147.692,4153.718,4148.718,4157.821,0,0
582,8,0,2851,4153.462,4145.513,4154.487,4141.538,4153.846,4158.718,4156.026,4151.026,4153.462,4157.179,4151.154,4156.154,4153.846,4160.641,0,0
583,9,0,3589,4158.718,4151.667,4157.821,4153.846,4155.128,4158.205,4156.795,4154.103,4158.974,4160.128,4154.744000000001,4159.103,4153.846,4170.128,0,0
584,10,0,3349,4153.333,4151.667,4154.231,4148.333,4145.128,4149.872,4154.744000000001,4148.205,4145.255999999999,4146.538,4148.59,4153.846,4141.154,4159.744000000001,0,0
585,11,0,3346,4144.103,4149.103,4152.436,4138.59,4142.0509999999995,4149.615,4155.255999999999,4145.641,4141.282,4135.0,4142.179,4148.077,4133.974,4151.282,0,0
586,12,0,2818,4141.667,4146.795,4149.872,4147.436,4153.333,4156.154,4157.308,4152.9490000000005,4152.0509999999995,4137.821,4140.897,4144.487,4138.846,4152.821,0,0
587,13,0,3168,4138.462,4141.667,4138.333,4153.205,4149.615,4156.282,4155.641,4152.179,4143.462,4131.154,4138.462,4133.718,4138.462,4141.923,0,0
588,14,0,3349,4131.026,4139.487,4130.897,4148.462,4137.436,4150.897,4152.564,4151.923,4137.692,4125.513,4141.026,4127.564,4133.59,4133.462,0,0
589,15,0,3346,4132.308,4142.308,4134.359,4152.0509999999995,4147.692,4153.974,4154.359,4165.513,4157.692,4140.0,4153.59,4133.718,4145.128,4141.795,0,0
590,16,0,0,4140.641,4145.769,4139.615,4162.9490000000005,4160.769,4161.538,4158.462,4176.026,4171.667,4148.846,4159.231,4141.026,4159.872,4145.769,0,0
591,17,0,0,4140.385,4143.718,4138.846,4166.154,4154.231,4160.255999999999,4156.795,4167.0509999999995,4168.077,4141.795,4153.974,4140.255999999999,4152.436,4141.154,0,0
592,18,0,0,4133.846,4138.462,4136.667,4165.255999999999,4149.103,4153.462,4150.128,4155.385,4164.872,4137.692,4154.615,4135.769,4141.795,4141.282,0,0
593,19,0,0,4140.0,4144.615,4142.692,4168.718,4154.487,4154.103,4152.564,4160.513,4159.872,4141.41,4160.385,4140.769,4149.359,4147.564,0,0
594,20,0,0,4152.692,4152.0509999999995,4152.692,4172.0509999999995,4157.9490000000005,4163.462,4160.385,4168.462,4154.103,4147.436,4158.846,4152.564,4156.923,4153.462,0,0
595,21,0,0,4155.897,4147.436,4153.462,4172.179,4155.897,4166.41,4158.846,4161.41,4158.462,4151.538,4156.282,4155.255999999999,4153.205,4153.462,0,0
596,22,0,0,4151.41,4147.9490000000005,4151.154,4172.0509999999995,4153.462,4158.846,4154.231,4152.821,4163.205,4151.923,4162.308,4150.385,4153.077,4154.487,0,0
597,23,0,0,4155.513,4160.0,4157.0509999999995,4174.487,4154.359,4156.41,4155.385,4159.615,4163.333,4155.128,4171.923,4156.154,4158.077,4163.077,0,0
598,24,0,0,4165.255999999999,4161.923,4159.487,4174.487,4156.154,4159.359,4155.897,4162.9490000000005,4156.795,4152.308,4167.9490000000005,4162.821,4156.667,4167.821,0,0
599,25,0,0,4165.769,4153.205,4156.154,4171.282,4156.026,4156.538,4154.487,4160.255999999999,4152.179,4142.436,4159.359,4156.41,4152.0509999999995,4165.385,0,0
600,26,0,0,4163.462,4156.538,4159.872,4171.923,4156.538,4159.487,4157.9490000000005,4168.59,4162.179,4151.923,4162.564,4158.846,4155.0,4168.205,0,0
601,27,0,0,4160.769,4160.0,4159.872,4173.718,4157.564,4166.667,4160.0,4169.231,4165.0,4158.718,4162.821,4162.179,4158.462,4166.154,0,0
602,28,0,0,4151.538,4146.667,4148.205,4164.103,4153.077,4160.385,4154.615,4152.821,4149.872,4137.0509999999995,4149.359,4146.282,4147.564,4147.9490000000005,0,0
603,29,0,0,4150.769,4139.615,4146.667,4156.282,4152.308,4157.692,4154.487,4147.821,4151.795,4131.026,4145.769,4140.769,4144.103,4142.9490000000005,0,0
604,30,0,0,4161.795,4152.821,4158.333,4165.255999999999,4165.385,4168.718,4163.462,4162.9490000000005,4168.59,4152.436,4159.103,4156.026,4160.897,4161.923,0,0
605,31,0,0,4166.026,4159.231,4161.154,4172.308,4172.821,4173.974,4168.462,4170.641,4169.872,4158.205,4165.769,4162.692,4169.744000000001,4170.385,0,0
606,32,0,0,4165.897,4154.103,4158.333,4171.41,4162.692,4167.436,4163.462,4171.538,4166.538,4154.231,4168.846,4164.103,4167.9490000000005,4168.205,0,0
607,33,0,0,4167.821,4153.205,4157.564,4170.128,4153.846,4160.385,4157.821,4172.308,4170.0,4160.769,4172.0509999999995,4167.436,4167.821,4171.667,0,0
608,34,0,0,4156.026,4143.59,4153.205,4159.872,4153.59,4154.744000000001,4152.308,4162.308,4168.077,4157.0509999999995,4161.667,4157.9490000000005,4159.872,4162.821,0,0
609,35,0,0,4144.487,4133.846,4150.385,4152.0509999999995,4153.077,4154.231,4149.359,4154.359,4167.692,4151.154,4155.769,4150.128,4154.744000000001,4149.231,0,0
610,36,0,0,4150.513,4143.846,4153.974,4161.026,4153.846,4157.436,4153.077,4157.564,4165.641,4158.205,4167.821,4155.769,4163.974,4158.718,0,0
611,37,1,0,4150.897,4144.872,4153.462,4159.744000000001,4152.308,4156.538,4152.692,4157.179,4164.615,4159.487,4166.667,4154.615,4162.308,4158.077,0,0
612,38,1,0,4151.282,4145.897,4152.9490000000005,4158.462,4150.769,4155.641,4152.308,4156.795,4163.59,4160.769,4165.513,4153.462,4160.641,4157.436,0,0
613,39,1,0,4151.667,4146.923,4152.436,4157.179,4149.231,4154.744000000001,4151.923,4156.41,4162.564,4162.0509999999995,4164.359,4152.308,4158.974,4156.795,0,0
614,40,1,0,4152.0509999999995,4147.9490000000005,4151.923,4155.897,4147.692,4153.846,4151.538,4156.026,4161.538,4163.333,4163.205,4151.154,4157.308,4156.154,0,0
615,41,1,0,4152.436,4148.974,4151.41,4154.615,4146.154,4152.9490000000005,4151.154,4155.641,4160.513,4164.615,4162.0509999999995,4150.0,4155.641,4155.513,0,0
616,42,1,0,4152.821,4150.0,4150.897,4153.333,4144.615,4152.0509999999995,4150.769,4155.255999999999,4159.487,4165.897,4160.897,4148.846,4153.974,4154.872,0,0
617,43,0,0,4153.718,4151.282,4150.255999999999,4151.667,4142.436,4151.026,4150.128,4154.359,4158.205,4167.179,4159.103,4147.308,4151.923,4153.974,0,0
618,44,0,0,4152.564,4147.564,4149.744000000001,4151.41,4142.821,4153.59,4151.282,4157.0509999999995,4154.615,4165.897,4160.641,4151.282,4154.103,4155.128,0,0
619,45,0,0,4152.0509999999995,4138.718,4144.744000000001,4150.255999999999,4141.538,4155.0,4148.205,4158.59,4155.0,4158.077,4154.359,4150.641,4149.872,4157.436,0,0
620,46,0,0,4149.103,4142.0509999999995,4144.231,4149.103,4141.923,4153.846,4146.154,4155.0,4158.205,4152.821,4154.103,4150.0,4146.41,4156.41,0,0
621,47,0,0,4154.359,4154.359,4149.103,4155.641,4151.538,4155.513,4148.59,4158.462,4159.872,4156.923,4156.667,4155.385,4151.154,4157.9490000000005,0,0
622,48,0,0,4154.615,4145.255999999999,4143.205,4154.744000000001,4153.974,4154.744000000001,4143.462,4159.744000000001,4157.564,4155.641,4146.538,4150.385,4154.103,4154.231,0,0
623,49,0,0,4140.769,4126.026,4132.436,4144.231,4143.59,4147.564,4136.41,4149.487,4154.872,4148.462,4135.641,4137.9490000000005,4148.462,4143.333,0,0
624,50,0,0,4132.179,4123.59,4128.846,4138.846,4137.436,4138.077,4135.641,4138.077,4147.308,4137.179,4133.718,4132.0509999999995,4141.154,4136.538,0,0
625,51,0,0,4147.0509999999995,4134.872,4135.0,4146.795,4149.231,4142.436,4140.385,4141.41,4145.385,4138.59,4135.769,4139.231,4146.282,4146.538,0,0
626,52,0,0,4157.179,4146.538,4145.385,4158.59,4161.026,4157.179,4150.385,4153.718,4157.179,4152.436,4141.538,4150.128,4158.718,4159.103,0,0
627,53,0,0,4142.821,4140.641,4139.872,4154.359,4150.513,4153.718,4150.385,4156.923,4157.308,4146.41,4139.103,4142.179,4153.846,4151.026,0,0
628,54,0,0,4130.897,4127.436,4128.846,4142.308,4138.718,4141.41,4141.41,4151.282,4142.9490000000005,4129.872,4129.359,4130.128,4139.487,4137.179,0,0
629,55,0,0,4123.974,4116.41,4121.923,4132.9490000000005,4134.359,4135.128,4133.59,4137.436,4133.846,4123.205,4123.462,4123.333,4125.897,4128.077,0,0
630,56,0,0,4107.692,4101.41,4110.769,4120.513,4122.0509999999995,4129.231,4127.0509999999995,4131.41,4131.154,4115.513,4117.436,4112.692,4107.179,4116.41,0,0
631,57,0,0,4115.255999999999,4108.205,4119.103,4124.103,4128.462,4139.744000000001,4139.744000000001,4156.667,4148.846,4126.538,4121.41,4119.744000000001,4124.231,4124.359,0,0
632,58,0,0,4147.0509999999995,4140.255999999999,4148.077,4148.205,4159.744000000001,4160.513,4159.487,4173.205,4173.205,4157.821,4141.41,4146.41,4167.9490000000005,4150.897,0,0
633,59,0,0,4160.769,4158.718,4160.255999999999,4160.255999999999,4173.846,4161.667,4156.795,4155.0,4166.154,4171.282,4155.641,4159.872,4175.897,4165.769,0,0
634,60,0,0,4162.179,4155.641,4154.615,4156.41,4169.359,4154.615,4148.846,4152.179,4152.9490000000005,4173.59,4157.9490000000005,4158.205,4172.0509999999995,4169.231,0,0
635,61,0,0,4163.59,4151.667,4153.077,4153.974,4169.231,4157.0509999999995,4151.667,4171.282,4159.359,4182.0509999999995,4157.821,4157.692,4186.026,4165.769,0,0
636,62,0,0,4160.255999999999,4155.0,4156.154,4155.641,4171.026,4158.974,4152.436,4172.564,4162.179,4182.436,4157.436,4157.179,4181.154,4163.333,0,0
637,63,0,0,4161.41,4159.744000000001,4156.795,4159.103,4173.205,4158.974,4148.333,4162.0509999999995,4155.0,4176.795,4156.795,4153.718,4156.282,4168.205,0,0
638,64,0,3145,4155.897,4154.487,4150.255999999999,4153.846,4168.718,4156.538,4144.103,4153.846,4149.103,4170.255999999999,4151.923,4146.026,4144.872,4159.615,0,0
639,65,0,2770,4137.9490000000005,4138.974,4138.333,4138.333,4149.103,4143.846,4135.385,4141.41,4138.077,4152.179,4139.359,4133.846,4139.231,4137.0509999999995,0,0
640,66,0,3454,4132.9490000000005,4133.077,4133.462,4132.564,4135.641,4135.255999999999,4128.077,4133.846,4131.795,4135.255999999999,4133.974,4126.282,4132.821,4131.41,0,0
641,67,0,3461,4137.436,4137.821,4132.9490000000005,4136.795,4136.41,4139.359,4128.718,4137.436,4138.077,4138.59,4138.974,4126.026,4137.692,4138.333,0,0
642,68,0,3558,4126.667,4137.692,4127.564,4135.255999999999,4136.923,4141.923,4129.615,4140.897,4136.538,4139.615,4138.077,4124.872,4142.436,4136.667,0,0
643,69,0,2955,4116.282,4137.9490000000005,4123.974,4132.436,4132.436,4136.923,4124.359,4132.179,4122.0509999999995,4124.615,4132.821,4119.231,4138.846,4132.0509999999995,0,0
644,70,0,2955,4131.667,4154.359,4135.897,4140.897,4136.923,4138.462,4123.974,4130.897,4120.513,4124.103,4142.692,4128.077,4145.513,4137.179,0,0
645,71,0,3472,4144.872,4166.923,4145.0,4148.077,4142.9490000000005,4145.385,4129.231,4137.692,4130.385,4139.231,4157.308,4143.205,4159.231,4146.538,0,0
646,72,0,2857,4128.077,4147.9490000000005,4131.41,4136.538,4129.615,4137.0509999999995,4122.436,4123.077,4122.308,4128.205,4147.9490000000005,4132.9490000000005,4152.179,4137.179,0,0
647,73,0,3598,4121.667,4134.359,4126.41,4129.487,4124.872,4132.308,4122.179,4115.128,4118.718,4113.846,4135.0,4122.436,4145.0,4128.077,0,0
648,74,0,3350,4137.821,4152.0509999999995,4143.462,4139.103,4141.923,4143.718,4134.744000000001,4136.41,4135.641,4130.897,4142.179,4138.846,4160.769,4140.897,0,0
649,75,0,3346,4135.128,4152.692,4143.333,4134.487,4139.744000000001,4140.513,4130.255999999999,4142.436,4138.205,4137.179,4144.872,4142.308,4162.436,4139.872,0,0
650,76,0,2820,4117.179,4130.897,4128.205,4120.128,4121.154,4125.0,4114.872,4125.641,4133.077,4124.487,4135.385,4124.744000000001,4151.154,4122.436,0,0
651,77,0,3170,4114.615,4125.255999999999,4125.769,4120.641,4120.128,4124.103,4112.9490000000005,4120.255999999999,4133.846,4124.231,4131.667,4121.538,4157.0509999999995,4123.462,0,0
652,78,0,3350,4106.923,4117.692,4117.564,4114.487,4114.359,4123.59,4107.9490000000005,4110.513,4117.9490000000005,4115.385,4125.0,4119.231,4151.026,4119.615,0,0
653,79,0,3346,4097.436,4106.538,4108.205,4102.179,4100.128,4116.154,4100.128,4099.103,4103.462,4103.846,4117.9490000000005,4111.026,4138.077,4102.9490000000005,0,0
654,80,0,2820,4109.231,4118.846,4119.487,4110.897,4109.744000000001,4122.179,4111.667,4113.718,4118.974,4123.333,4125.255999999999,4118.718,4155.897,4112.308,0,0
655,81,0,3170,4116.795,4129.359,4127.0509999999995,4118.59,4125.0,4133.59,4127.308,4130.513,4137.692,4143.462,4129.103,4127.692,4175.385,4125.641,0,0
656,82,0,3350,4108.333,4120.513,4120.385,4107.179,4123.974,4133.462,4126.026,4128.59,4138.333,4136.923,4122.308,4116.795,4170.0,4112.9490000000005,0,0
657,83,0,3346,4104.231,4119.231,4117.308,4106.538,4120.641,4131.795,4121.026,4123.718,4133.59,4132.0509999999995,4121.154,4110.0,4167.179,4102.436,0,0
658,84,0,2820,4109.359,4124.615,4121.667,4119.872,4125.0,4135.769,4129.615,4128.974,4134.615,4136.282,4124.487,4120.255999999999,4173.205,4108.846,0,0
659,85,0,3170,4111.923,4125.769,4126.538,4121.538,4129.872,4142.308,4140.769,4134.744000000001,4138.718,4130.128,4119.487,4120.769,4170.128,4112.692,0,0
660,86,0,3350,4100.385,4121.667,4121.667,4108.718,4123.974,4140.897,4136.154,4128.462,4130.385,4110.513,4108.077,4109.615,4155.128,4102.564,0,0
661,87,0,3346,4085.6409999999996,4107.308,4107.179,4098.462,4110.385,4130.255999999999,4125.255999999999,4116.667,4114.872,4093.205,4100.641,4103.462,4144.359,4092.5640000000003,0,0
662,88,0,2820,4096.538,4109.487,4113.718,4106.026,4112.0509999999995,4130.0,4130.0,4121.026,4121.41,4105.513,4109.231,4111.41,4161.154,4103.974,0,0
663,89,0,3170,4125.128,4137.0509999999995,4139.231,4129.872,4131.923,4145.255999999999,4151.026,4143.077,4149.231,4143.333,4132.308,4130.641,4191.026,4130.385,0,0
664,90,0,3350,4133.846,4151.41,4148.205,4140.641,4139.359,4148.718,4153.333,4146.667,4162.564,4158.077,4144.615,4142.564,4192.308,4139.231,0,0
665,91,0,3346,4118.462,4138.59,4134.744000000001,4124.231,4123.59,4132.179,4129.487,4120.513,4141.923,4137.564,4137.0509999999995,4132.308,4173.718,4123.205,0,0
666,92,0,2820,4105.897,4124.231,4123.462,4111.795,4108.846,4128.462,4122.179,4108.462,4121.154,4123.462,4131.026,4116.923,4164.615,4106.667,0,0
667,93,0,3170,4114.615,4128.846,4129.487,4122.179,4117.179,4139.615,4143.846,4134.872,4137.0509999999995,4136.667,4138.974,4121.282,4170.385,4111.795,0,0
668,94,0,3350,4124.744000000001,4138.205,4140.513,4126.154,4132.9490000000005,4143.077,4156.282,4157.9490000000005,4159.103,4152.9490000000005,4145.128,4133.205,4177.9490000000005,4124.103,0,0
669,95,0,3346,4119.487,4138.846,4136.41,4117.308,4135.255999999999,4143.718,4154.744000000001,4158.462,4158.333,4158.462,4141.026,4133.462,4182.436,4120.641,0,0
670,96,0,2820,4122.821,4142.821,4133.205,4123.718,4143.333,4154.359,4165.641,4164.103,4163.59,4166.282,4143.333,4136.538,4191.667,4122.436,0,0
671,97,0,3170,4142.692,4159.103,4149.103,4141.538,4166.795,4165.385,4179.231,4178.333,4176.154,4177.308,4151.154,4150.128,4200.897,4142.9490000000005,0,0
672,98,0,3350,4144.487,4159.231,4151.923,4141.923,4170.769,4160.513,4173.077,4172.179,4165.255999999999,4171.667,4145.255999999999,4148.462,4189.872,4142.436,0,0
673,99,0,3346,4135.641,4145.513,4140.769,4134.487,4155.255999999999,4154.487,4165.513,4157.0509999999995,4156.154,4156.41,4136.026,4137.0509999999995,4174.615,4129.103,0,0
674,100,0,2820,4140.0,4147.9490000000005,4143.077,4137.821,4155.513,4162.9490000000005,4172.179,4158.846,4163.462,4153.846,4138.718,4139.615,4176.282,4134.487,0,0
675,101,0,3170,4137.308,4151.667,4144.615,4140.769,4158.462,4165.641,4173.462,4161.154,4157.308,4155.255999999999,4139.103,4143.205,4176.923,4133.462,0,0
676,102,0,3350,4125.255999999999,4143.718,4137.821,4136.282,4143.974,4155.769,4160.385,4152.0509999999995,4146.795,4151.923,4134.487,4133.974,4168.718,4121.538,0,0
677,103,0,3346,4122.692,4141.282,4136.154,4134.487,4137.564,4152.0509999999995,4151.282,4142.179,4152.308,4151.923,4134.359,4128.974,4165.769,4121.667,0,0
678,104,0,2820,4125.513,4146.282,4133.333,4132.179,4138.333,4150.255999999999,4154.231,4133.077,4149.744000000001,4151.923,4132.821,4127.9490000000005,4162.436,4122.436,0,0
679,105,0,3170,4116.026,4137.9490000000005,4118.846,4122.179,4125.128,4139.872,4148.718,4122.0509999999995,4134.872,4136.667,4123.59,4110.897,4150.641,4107.564,0,0
680,106,0,3350,4102.9490000000005,4123.077,4109.359,4116.667,4115.897,4134.359,4136.154,4116.282,4131.667,4120.513,4116.154,4096.154,4138.333,4096.026,0,0
681,107,0,3346,4109.872,4129.615,4115.513,4125.769,4119.615,4136.538,4142.0509999999995,4124.359,4137.0509999999995,4126.667,4122.9490000000005,4107.308,4138.462,4101.923,0,0
682,108,0,2820,4125.897,4146.154,4126.667,4137.179,4122.179,4141.923,4158.718,4138.333,4144.231,4136.795,4133.718,4122.0509999999995,4144.103,4112.308,0,0
683,109,0,3170,4138.718,4160.255999999999,4139.487,4149.359,4140.255999999999,4156.923,4170.0,4153.205,4156.282,4140.255999999999,4142.0509999999995,4130.255999999999,4153.077,4126.795,0,0
684,110,0,3350,4149.615,4170.513,4151.795,4167.436,4164.231,4170.897,4181.154,4165.128,4163.205,4148.974,4153.205,4143.333,4163.205,4140.641,0,0
685,111,0,3346,4149.487,4170.0,4157.692,4173.462,4161.538,4172.436,4188.59,4169.872,4158.333,4154.615,4157.308,4149.744000000001,4161.282,4142.308,0,0
686,112,0,2820,4147.0509999999995,4166.538,4157.308,4168.846,4158.205,4171.667,4186.795,4175.513,4165.128,4154.359,4153.846,4149.487,4157.821,4143.077,0,0
687,113,0,3170,4154.744000000001,4168.59,4157.308,4172.821,4169.487,4173.59,4186.667,4181.667,4181.026,4155.897,4154.103,4155.897,4165.769,4148.205,0,0
688,114,0,3350,4152.9490000000005,4163.846,4156.795,4177.692,4165.0,4169.615,4185.897,4173.59,4172.436,4148.462,4152.821,4153.077,4165.128,4147.436,0,0
689,115,0,3346,4138.077,4150.513,4150.255999999999,4168.846,4154.103,4160.513,4176.667,4156.923,4151.667,4129.359,4141.795,4141.538,4149.103,4139.231,0,0
690,116,0,2820,4129.231,4143.333,4138.974,4157.436,4151.923,4155.128,4170.513,4151.923,4150.897,4118.333,4129.103,4133.846,4138.846,4129.231,0,0
691,117,0,3170,4120.897,4137.436,4127.179,4153.205,4141.667,4154.615,4168.205,4154.103,4156.795,4114.744000000001,4125.641,4124.615,4136.026,4118.718,0,0
692,118,0,3350,4118.077,4136.026,4126.026,4153.077,4133.462,4154.359,4165.385,4153.846,4153.462,4120.385,4132.9490000000005,4124.359,4138.205,4118.846,0,0
693,119,0,3346,4129.231,4144.487,4137.692,4155.385,4139.231,4156.282,4169.744000000001,4160.641,4158.205,4134.359,4143.077,4139.615,4147.179,4128.846,0,0
694,120,0,2820,4131.923,4145.897,4138.077,4155.641,4134.103,4156.154,4167.308,4160.641,4165.255999999999,4133.846,4140.897,4141.538,4142.9490000000005,4128.718,0,0
695,121,0,3170,4119.231,4133.462,4121.538,4148.59,4117.179,4144.231,4146.282,4139.615,4148.333,4116.026,4127.564,4121.282,4122.179,4115.255999999999,0,0
696,122,0,3350,4118.077,4132.179,4117.9490000000005,4144.103,4118.333,4139.487,4142.436,4135.0,4137.821,4113.846,4125.769,4115.128,4118.59,4113.205,0,0
697,123,0,3346,4142.0509999999995,4159.487,4143.333,4159.103,4145.385,4161.154,4175.255999999999,4172.179,4168.205,4144.231,4147.692,4142.564,4149.744000000001,4141.026,0,0
698,124,0,2820,4168.077,4180.0,4167.692,4180.513,4169.744000000001,4179.615,4196.41,4198.333,4190.128,4168.077,4166.667,4163.077,4173.59,4161.538,0,0
699,125,0,3170,4171.026,4175.897,4166.923,4185.385,4171.154,4173.846,4185.897,4187.9490000000005,4177.692,4163.718,4162.436,4156.667,4169.231,4154.744000000001,0,0
700,126,0,3350,4168.846,4179.487,4166.667,4182.9490000000005,4167.308,4173.718,4187.0509999999995,4190.513,4179.744000000001,4164.487,4164.615,4158.462,4173.59,4159.487,0,0
701,127,0,52,4177.564,4191.667,4181.026,4186.795,4176.154,4184.615,4200.513,4206.41,4193.077,4180.0,4180.0,4175.255999999999,4187.821,4174.744000000001,0,0
702,0,0,3139,4185.513,4194.872,4189.744000000001,4194.872,4186.026,4185.769,4201.538,4203.59,4188.718,4186.795,4186.538,4182.436,4191.538,4178.846,0,0
703,1,0,2768,4190.769,4197.9490000000005,4188.846,4202.179,4185.513,4184.487,4196.923,4199.744000000001,4185.0,4186.923,4189.744000000001,4184.103,4198.077,4184.615,0,0
704,2,0,3449,4192.564,4201.795,4188.462,4202.308,4182.821,4182.692,4190.255999999999,4201.795,4187.821,4186.923,4188.333,4184.103,4200.385,4188.846,0,0
705,3,0,3452,4191.154,4196.795,4190.0,4196.923,4184.615,4177.9490000000005,4184.103,4197.9490000000005,4188.718,4184.103,4184.231,4182.308,4186.795,4182.308,0,0
706,4,0,3548,4198.333,4198.462,4196.923,4198.846,4186.923,4181.538,4191.923,4201.026,4194.231,4187.692,4193.462,4187.436,4187.436,4185.255999999999,0,0
707,5,0,2951,4205.641,4202.692,4202.179,4198.718,4187.436,4189.103,4202.564,4208.462,4192.179,4189.487,4200.385,4187.692,4201.026,4189.872,0,0
708,6,0,2946,4197.0509999999995,4197.308,4190.385,4187.9490000000005,4186.538,4185.0,4197.692,4204.231,4183.59,4187.564,4193.333,4178.846,4198.077,4183.974,0,0
709,7,0,3462,4197.308,4199.487,4186.923,4189.231,4183.974,4180.0,4193.846,4204.872,4188.974,4196.026,4196.795,4188.205,4197.308,4192.0509999999995,0,0
710,8,0,2842,4222.308,4218.718,4211.538,4205.897,4191.538,4192.436,4210.513,4223.974,4207.564,4216.538,4218.846,4215.255999999999,4217.436,4216.667,0,0
711,9,0,3585,4232.308,4225.897,4220.641,4211.538,4201.923,4202.308,4220.255999999999,4229.744000000001,4212.821,4225.769,4224.615,4222.436,4223.59,4226.41,0,0
712,10,0,3341,4216.41,4205.641,4196.923,4194.744000000001,4190.255999999999,4186.154,4199.359,4205.385,4190.897,4205.385,4205.641,4202.821,4202.9490000000005,4211.41,0,0
713,11,0,3343,4212.179,4197.564,4190.255999999999,4185.128,4181.667,4173.974,4188.462,4195.128,4179.231,4190.0,4197.692,4196.538,4198.333,4204.615,0,0
714,12,0,2816,4216.795,4205.385,4200.0,4191.026,4189.615,4181.795,4196.026,4204.359,4187.436,4189.487,4200.641,4202.9490000000005,4204.231,4205.897,0,0
715,13,0,3166,4211.282,4205.128,4195.641,4194.744000000001,4187.9490000000005,4183.846,4193.462,4199.103,4184.103,4184.615,4196.667,4197.564,4195.385,4198.974,0,0
716,14,0,3341,4226.923,4224.103,4206.795,4208.077,4198.462,4192.564,4204.103,4211.41,4196.667,4202.436,4209.487,4207.0509999999995,4210.255999999999,4211.923,0,0
717,15,0,3343,4245.897,4247.692,4225.0,4219.744000000001,4222.436,4208.718,4222.179,4237.179,4221.538,4229.359,4229.103,4223.846,4238.333,4233.205,0,0
718,16,0,0,4225.385,4224.744000000001,4211.026,4208.333,4212.179,4198.462,4207.179,4219.103,4204.487,4210.897,4212.436,4206.923,4221.026,4217.692,0,0
719,17,0,0,4211.154,4205.641,4198.718,4200.385,4194.872,4190.255999999999,4195.513,4195.385,4179.744000000001,4185.385,4194.359,4193.205,4198.59,4198.333,0,0
720,18,0,0,4219.615,4220.513,4205.513,4204.359,4203.846,4200.255999999999,4206.282,4205.641,4189.103,4192.9490000000005,4201.026,4201.282,4206.923,4205.128,0,0
721,19,0,0,4201.282,4208.077,4190.897,4193.077,4197.179,4187.9490000000005,4192.821,4197.564,4186.923,4182.564,4188.59,4187.564,4195.641,4194.359,0,0
722,20,0,0,4182.692,4185.641,4176.026,4181.538,4177.564,4169.231,4178.333,4177.0509999999995,4171.154,4161.41,4170.128,4170.641,4174.487,4173.462,0,0
723,21,0,0,4202.692,4199.231,4193.718,4192.821,4187.564,4182.308,4195.769,4189.872,4178.462,4174.487,4181.41,4184.615,4188.846,4185.897,0,0
724,22,0,0,4220.769,4211.154,4211.026,4207.9490000000005,4208.205,4200.513,4208.846,4209.872,4191.41,4192.308,4195.255999999999,4200.0,4208.205,4205.513,0,0
725,23,0,0,4209.744000000001,4191.923,4202.0509999999995,4208.846,4196.538,4193.077,4194.744000000001,4200.0,4182.821,4184.615,4184.231,4191.41,4194.615,4195.769,0,0
726,24,0,0,4205.897,4184.231,4195.385,4197.821,4181.282,4185.385,4187.179,4188.205,4176.026,4177.564,4179.615,4187.9490000000005,4180.769,4187.436,0,0
727,25,0,0,4194.872,4174.231,4185.513,4174.744000000001,4176.154,4174.359,4177.0509999999995,4176.282,4168.974,4162.436,4175.128,4176.026,4165.385,4177.0509999999995,0,0
728,26,0,0,4143.718,4128.846,4145.255999999999,4139.487,4142.0509999999995,4135.0,4132.821,4131.026,4126.154,4107.564,4133.333,4127.308,4112.564,4127.564,0,0
729,27,0,0,4153.718,4144.487,4154.359,4151.41,4146.41,4139.615,4143.462,4142.564,4130.255999999999,4120.255999999999,4136.41,4138.59,4121.282,4134.231,0,0
730,28,0,0,4233.205,4211.538,4220.897,4208.718,4206.282,4197.821,4211.667,4219.615,4197.9490000000005,4209.487,4202.0509999999995,4212.179,4201.41,4212.0509999999995,0,0
731,29,0,0,4231.41,4194.872,4219.487,4205.385,4205.513,4197.436,4203.59,4209.359,4192.821,4205.897,4201.026,4206.154,4192.564,4209.744000000001,0,0
732,30,0,0,4186.795,4160.255999999999,4182.821,4175.769,4176.923,4164.359,4166.026,4161.41,4152.0509999999995,4159.744000000001,4160.897,4165.0,4147.9490000000005,4165.769,0,0
733,31,0,0,4230.641,4213.077,4222.436,4220.385,4215.385,4201.538,4212.436,4217.692,4201.923,4217.564,4199.487,4211.667,4208.462,4212.179,0,0
734,32,0,0,4271.026,4246.282,4256.667,4249.359,4242.0509999999995,4234.103,4248.974,4265.255999999999,4243.462,4263.974,4239.103,4249.615,4251.282,4253.077,0,0
735,33,0,0,4226.538,4209.231,4216.282,4205.385,4210.128,4198.718,4209.487,4213.077,4198.718,4209.615,4203.974,4207.179,4199.615,4210.128,0,0
736,34,0,0,4202.308,4200.385,4197.308,4191.538,4201.026,4180.255999999999,4193.205,4189.615,4178.59,4186.795,4182.436,4187.692,4185.128,4190.513,0,0
737,35,0,0,4209.231,4207.692,4206.538,4201.795,4206.538,4187.179,4202.692,4206.282,4194.615,4209.615,4192.308,4198.718,4204.231,4201.667,0,0
738,36,0,0,4192.436,4195.255999999999,4187.564,4176.795,4194.872,4176.41,4188.462,4188.333,4189.359,4199.231,4185.128,4184.359,4184.615,4185.0,0,0
739,37,0,0,4179.615,4190.385,4169.744000000001,4158.846,4182.308,4163.59,4171.026,4166.41,4176.41,4181.795,4176.282,4168.077,4167.564,4171.026,0,0
740,38,0,0,4185.769,4195.897,4172.0509999999995,4171.795,4180.128,4162.0509999999995,4164.872,4171.026,4174.359,4190.0,4184.359,4169.615,4175.769,4179.231,0,0
741,39,0,0,4193.333,4210.769,4175.769,4185.513,4190.897,4170.769,4175.0,4189.231,4186.538,4208.205,4198.333,4179.359,4191.538,4191.923,0,0
742,40,0,0,4186.026,4213.59,4170.255999999999,4178.59,4178.974,4173.846,4183.718,4192.564,4192.436,4207.179,4194.872,4175.128,4189.487,4186.538,0,0
743,41,0,0,4173.59,4206.154,4168.718,4163.077,4162.692,4163.205,4174.487,4176.667,4174.615,4194.231,4181.026,4164.231,4170.897,4171.154,0,0
744,42,0,0,4180.769,4222.564,4179.487,4170.769,4189.487,4165.0,4176.795,4180.513,4175.255999999999,4202.564,4187.9490000000005,4172.692,4176.41,4179.103,0,0
745,43,0,0,4195.255999999999,4242.9490000000005,4185.128,4186.026,4219.487,4180.0,4197.0509999999995,4198.333,4198.077,4221.282,4201.154,4185.255999999999,4199.744000000001,4197.9490000000005,0,0
746,44,0,0,4199.744000000001,4247.308,4187.179,4185.641,4218.077,4184.487,4204.744000000001,4195.255999999999,4197.821,4223.462,4199.744000000001,4187.0509999999995,4205.255999999999,4202.436,0,0
747,45,0,0,4195.0,4252.308,4190.255999999999,4182.179,4214.103,4181.154,4197.179,4181.795,4181.026,4209.872,4193.846,4184.359,4194.359,4196.795,0,0
748,46,0,0,4191.667,4265.128,4189.359,4185.769,4216.538,4185.0,4195.897,4178.974,4180.385,4202.564,4193.846,4183.333,4191.282,4195.769,0,0
749,47,0,0,4197.821,4272.179,4192.308,4196.026,4216.026,4187.179,4198.974,4183.462,4186.282,4209.615,4195.897,4189.103,4196.41,4198.333,0,0
750,48,0,0,4207.436,4291.41,4198.462,4201.41,4226.923,4186.41,4195.385,4191.41,4188.718,4218.974,4197.179,4196.538,4202.436,4203.462,0,0
751,49,0,0,4205.513,4320.385,4195.128,4193.59,4232.821,4187.436,4191.923,4195.255999999999,4191.923,4213.333,4195.0,4195.897,4200.0,4204.487,0,0
752,50,0,0,4188.59,4330.255999999999,4180.897,4181.026,4218.462,4183.333,4187.9490000000005,4177.179,4176.923,4184.744000000001,4174.615,4177.564,4176.667,4184.231,0,0
753,51,0,0,4196.667,4349.487,4187.436,4189.872,4218.077,4187.308,4196.795,4179.487,4172.692,4184.615,4171.282,4178.718,4192.821,4179.487,0,0
754,52,0,0,4226.154,4387.0509999999995,4209.231,4210.513,4241.41,4201.923,4218.59,4219.744000000001,4208.333,4231.923,4205.128,4206.667,4259.231,4211.41,0,0
755,53,0,0,4239.487,4400.641,4221.923,4225.641,4255.513,4210.769,4231.282,4237.436,4231.667,4257.436,4229.103,4222.821,4282.0509999999995,4236.538,0,0
756,54,0,0,4242.179,4400.0,4230.255999999999,4236.538,4251.41,4214.359,4232.692,4230.769,4230.769,4251.795,4231.026,4226.026,4265.255999999999,4236.795,0,0
757,55,0,0,4243.718,4406.923,4231.282,4233.077,4250.255999999999,4218.59,4234.872,4237.308,4235.255999999999,4256.282,4232.692,4228.974,4279.615,4234.615,0,0
758,56,0,0,4235.385,4401.667,4223.205,4218.974,4250.128,4217.821,4238.974,4243.333,4233.974,4254.103,4227.308,4225.128,4281.923,4230.385,0,0
759,57,0,0,4214.359,4386.026,4207.0509999999995,4204.103,4232.179,4207.0509999999995,4232.0509999999995,4223.077,4205.641,4215.255999999999,4206.026,4204.487,4214.359,4209.744000000001,0,0
760,58,0,0,4201.795,4387.821,4196.026,4201.282,4210.897,4196.41,4216.795,4202.564,4181.282,4186.923,4194.103,4190.128,4158.846,4195.128,0,0
761,59,0,0,4202.9490000000005,4396.667,4198.077,4209.487,4208.462,4186.795,4205.641,4200.385,4188.59,4200.641,4199.744000000001,4196.667,4175.513,4200.0,0,0
762,60,0,0,4200.385,4397.9490000000005,4198.59,4206.667,4208.462,4173.974,4192.9490000000005,4198.077,4198.205,4214.872,4202.564,4201.154,4201.41,4202.692,0,0
763,61,0,0,4205.128,4410.128,4200.0,4200.641,4206.795,4172.564,4186.795,4200.255999999999,4189.487,4215.897,4203.59,4202.692,4204.231,4208.077,0,0
764,62,0,0,4218.462,4421.154,4205.641,4208.59,4211.667,4182.9490000000005,4192.692,4203.077,4181.923,4214.231,4205.641,4207.436,4204.231,4216.795,0,0
765,63,0,0,4206.026,4402.692,4195.385,4208.205,4200.385,4171.538,4184.103,4189.744000000001,4185.255999999999,4205.128,4194.103,4198.333,4198.59,4201.795,0,0
766,64,0,3126,4183.846,4388.333,4181.41,4196.026,4187.179,4156.026,4175.897,4185.641,4187.436,4197.0509999999995,4182.821,4187.179,4194.487,4187.564,0,0
767,65,0,2762,4192.9490000000005,4396.923,4192.179,4201.41,4197.9490000000005,4176.41,4205.769,4205.0,4187.9490000000005,4202.564,4188.462,4196.026,4203.59,4200.128,0,0
768,66,0,3438,4193.205,4382.436,4189.744000000001,4200.513,4199.103,4190.641,4220.128,4200.255999999999,4175.769,4189.487,4176.923,4190.128,4191.923,4192.821,0,0
769,67,0,3433,4164.744000000001,4341.795,4158.462,4181.026,4175.641,4164.487,4186.026,4168.462,4152.564,4153.205,4146.282,4163.462,4161.795,4162.436,0,0
