,COUNTER, INTERPOLATED, RAW_CQ, AF3, F7, F3, FC5, T7, P7, O1, O2, P8, T8, FC6, F4, F8, AF4, MARKER_HARDWARE, MARKER
0,28,0,0,4888.077,4841.667,4873.333,4988.462,4896.923,4849.872,4557.821,4792.179,4829.487,4860.769,4891.026,4847.308,5013.59,4902.564,0,0
1,29,0,0,4966.923,4907.692,4932.692,5021.795,4972.9490000000005,4893.59,4610.513,4857.9490000000005,4864.103,4920.0,4952.308,4907.179,5069.359,4984.103,0,0
2,30,0,0,4993.205,4922.0509999999995,4960.897,5029.103,4967.564,4905.128,4623.59,4873.462,4893.718,4943.974,4982.9490000000005,4941.923,5071.282,5009.615,0,0
3,31,0,0,4944.487,4860.385,4916.154,4980.385,4904.615,4864.744000000001,4581.154,4814.231,4856.282,4892.308,4943.718,4906.154,4996.282,4955.385,0,0
4,32,0,0,4943.333,4844.872,4901.923,4966.41,4930.897,4846.667,4585.897,4816.282,4835.897,4878.846,4940.897,4892.308,4982.436,4961.282,0,0
5,33,0,0,4943.846,4840.769,4906.538,4972.308,4940.385,4838.205,4588.333,4835.0,4847.564,4898.462,4958.077,4892.692,4993.462,4982.564,0,0
6,34,0,0,4890.641,4778.077,4871.41,4930.128,4869.231,4820.385,4543.59,4792.436,4829.231,4872.179,4934.487,4857.436,4944.231,4936.41,0,0
7,35,0,0,4863.846,4729.615,4847.179,4890.769,4855.0,4823.333,4537.308,4773.077,4814.359,4849.231,4910.0,4840.641,4914.231,4897.179,0,0
8,36,0,0,4854.231,4713.59,4848.462,4884.231,4873.718,4820.128,4554.103,4786.282,4817.0509999999995,4850.897,4904.359,4847.179,4914.872,4883.333,0,0
9,37,0,0,4812.308,4686.154,4829.231,4864.231,4840.128,4800.513,4536.282,4774.359,4815.769,4836.026,4892.821,4827.564,4886.154,4859.103,0,0
10,38,0,0,4769.872,4648.205,4797.821,4832.821,4812.692,4784.744000000001,4513.974,4750.385,4805.0,4808.205,4875.513,4793.077,4849.744000000001,4828.462,0,0
11,39,0,0,4748.59,4617.692,4782.692,4809.103,4807.564,4770.0,4508.59,4736.667,4779.359,4781.154,4857.692,4774.615,4831.667,4801.154,0,0
12,40,0,0,4735.897,4593.846,4776.41,4785.769,4791.923,4758.974,4505.769,4738.59,4773.333,4773.59,4848.846,4768.205,4818.974,4788.59,0,0
13,41,0,0,4717.308,4560.769,4760.0,4770.0,4766.282,4752.436,4498.846,4740.128,4791.026,4776.41,4841.795,4758.077,4798.59,4774.231,0,0
14,42,0,0,4672.9490000000005,4517.821,4719.487,4751.154,4728.974,4725.897,4470.128,4697.308,4761.154,4731.795,4800.255999999999,4721.026,4753.462,4718.846,0,0
15,43,0,0,4639.487,4511.282,4695.513,4732.179,4717.692,4695.385,4446.026,4653.718,4712.564,4682.564,4766.154,4688.462,4710.897,4681.026,0,0
16,44,0,0,4646.282,4545.641,4711.538,4740.513,4748.846,4692.436,4457.179,4667.821,4728.333,4693.846,4774.359,4697.0509999999995,4703.333,4700.128,0,0
17,45,0,0,4638.718,4532.564,4706.795,4738.718,4745.255999999999,4693.333,4447.821,4669.615,4736.923,4690.897,4766.026,4692.564,4680.255999999999,4686.538,0,0
18,46,0,0,4587.9490000000005,4467.179,4658.846,4692.692,4687.436,4666.41,4399.231,4614.487,4671.923,4618.333,4719.872,4643.974,4611.795,4626.538,0,0
19,47,0,0,4562.0509999999995,4448.718,4634.359,4676.026,4662.821,4639.487,4383.077,4587.308,4634.487,4571.538,4700.128,4615.513,4566.538,4605.769,0,0
20,48,0,0,4586.282,4489.231,4650.128,4710.128,4679.231,4649.359,4405.385,4615.769,4671.667,4599.872,4720.385,4630.0,4576.026,4627.564,0,0
21,49,0,0,4580.128,4491.026,4637.692,4697.308,4667.564,4652.308,4390.641,4607.179,4666.795,4593.077,4706.538,4617.179,4562.308,4612.9490000000005,0,0
22,50,0,0,4552.0509999999995,4463.205,4613.974,4659.487,4649.231,4630.769,4368.333,4581.154,4629.231,4553.462,4674.359,4585.385,4525.385,4583.205,0,0
23,51,0,0,4554.359,4469.744000000001,4622.0509999999995,4669.615,4642.692,4624.615,4383.205,4599.359,4649.744000000001,4568.077,4675.0,4585.513,4520.255999999999,4584.615,0,0
24,52,0,0,4542.9490000000005,4469.872,4606.026,4668.077,4623.205,4610.897,4371.795,4593.846,4657.564,4578.333,4665.0,4574.615,4508.333,4565.128,0,0
25,53,0,0,4496.923,4421.154,4558.718,4618.077,4585.128,4571.282,4327.692,4538.462,4602.179,4530.0,4617.692,4525.641,4462.9490000000005,4516.154,0,0
26,54,0,0,4473.59,4385.385,4540.255999999999,4586.154,4550.897,4555.255999999999,4317.692,4513.077,4571.923,4495.513,4591.923,4497.308,4438.846,4497.179,0,0
27,55,0,0,4473.077,4396.282,4542.9490000000005,4587.179,4553.974,4555.897,4326.41,4528.333,4587.9490000000005,4503.205,4608.974,4506.41,4437.0509999999995,4505.128,0,0
28,56,0,0,4459.103,4399.231,4537.821,4589.744000000001,4568.333,4540.385,4310.513,4522.9490000000005,4591.154,4507.9490000000005,4614.103,4507.436,4407.0509999999995,4496.538,0,0
29,57,0,0,4452.564,4393.077,4534.872,4587.564,4555.385,4539.615,4297.821,4502.179,4581.795,4506.538,4600.128,4500.0,4370.641,4484.231,0,0
30,58,0,0,4466.538,4410.255999999999,4534.231,4579.744000000001,4532.821,4554.872,4306.538,4498.846,4572.0509999999995,4502.436,4600.128,4502.9490000000005,4359.231,4492.9490000000005,0,0
31,59,0,0,4494.615,4430.897,4546.282,4588.718,4533.974,4565.641,4323.718,4519.231,4574.231,4508.718,4620.128,4525.0,4370.255999999999,4511.282,0,0
32,60,0,0,4517.308,4435.897,4571.795,4607.821,4543.333,4579.744000000001,4334.615,4537.179,4594.872,4531.41,4637.436,4549.872,4376.923,4527.564,0,0
33,61,0,0,4529.487,4449.231,4586.667,4605.513,4542.564,4591.282,4340.769,4545.0,4607.0509999999995,4556.41,4644.872,4561.41,4371.795,4548.718,0,0
34,62,0,0,4543.974,4472.0509999999995,4592.692,4599.744000000001,4536.026,4587.564,4352.436,4556.923,4604.872,4564.231,4650.769,4569.487,4370.255999999999,4559.487,0,0
35,63,0,0,4530.385,4453.205,4576.923,4593.718,4515.0,4566.282,4338.718,4535.385,4577.564,4520.385,4629.487,4553.846,4342.821,4526.41,0,0
36,64,0,3083,4497.179,4425.0,4546.282,4571.795,4505.513,4545.0,4310.385,4499.487,4551.026,4484.103,4603.462,4525.769,4303.462,4499.359,0,0
37,65,0,2725,4492.179,4433.205,4542.9490000000005,4559.103,4499.103,4543.077,4311.538,4499.872,4558.59,4510.0,4612.0509999999995,4524.231,4299.872,4516.026,0,0
38,66,0,3417,4487.821,4425.0,4535.769,4552.9490000000005,4458.59,4539.487,4303.59,4485.769,4545.769,4505.513,4608.205,4511.795,4287.179,4502.821,0,0
39,67,0,3435,4476.026,4400.128,4515.0,4540.0,4427.9490000000005,4527.179,4277.308,4460.255999999999,4516.538,4466.795,4583.462,4486.41,4261.282,4473.077,0,0
40,68,0,3526,4485.128,4410.513,4522.9490000000005,4541.154,4436.026,4526.41,4285.769,4477.692,4530.897,4483.718,4584.615,4495.128,4273.205,4490.0,0,0
41,69,0,2866,4471.923,4409.359,4522.179,4532.0509999999995,4436.41,4514.231,4294.872,4484.872,4537.9490000000005,4493.077,4582.692,4491.923,4266.538,4488.846,0,0
42,70,0,2902,4432.692,4370.897,4489.872,4497.436,4410.128,4485.385,4261.667,4450.128,4508.846,4453.718,4550.897,4456.154,4216.026,4447.436,0,0
43,71,0,3437,4428.205,4362.179,4476.667,4481.667,4384.872,4468.59,4237.0509999999995,4434.487,4497.692,4446.923,4533.59,4450.769,4201.282,4436.538,0,0
44,72,0,2786,4433.077,4377.179,4479.487,4486.667,4373.59,4467.436,4243.462,4435.769,4493.077,4456.026,4535.0,4456.282,4213.077,4442.436,0,0
45,73,0,3568,4405.769,4357.308,4462.436,4472.308,4357.179,4459.231,4237.692,4420.0,4471.282,4430.641,4518.077,4433.205,4190.385,4419.103,0,0
46,74,0,3293,4373.846,4318.846,4435.0,4441.667,4325.641,4439.231,4212.179,4390.513,4452.9490000000005,4399.744000000001,4487.436,4403.333,4150.255999999999,4384.359,0,0
47,75,0,3289,4381.41,4321.667,4440.769,4440.385,4321.795,4449.744000000001,4223.974,4395.255999999999,4460.897,4407.564,4489.103,4404.872,4143.59,4383.974,0,0
48,76,0,2732,4423.333,4363.718,4482.179,4473.205,4360.897,4487.0509999999995,4268.205,4441.154,4490.897,4447.9490000000005,4527.692,4441.41,4180.641,4423.333,0,0
49,77,0,3145,4403.077,4340.128,4464.359,4457.692,4349.487,4457.179,4239.615,4424.487,4472.179,4427.9490000000005,4515.513,4429.359,4165.897,4410.769,0,0
50,78,0,3293,4321.282,4255.385,4388.846,4391.41,4270.255999999999,4380.385,4162.821,4337.692,4400.0,4338.846,4445.128,4354.359,4076.538,4329.744000000001,0,0
51,79,0,3289,4324.744000000001,4262.821,4390.513,4392.179,4252.436,4386.282,4166.795,4327.179,4390.385,4328.077,4444.872,4346.667,4062.821,4320.769,0,0
52,80,0,2732,4375.897,4325.0,4431.41,4425.513,4293.462,4427.564,4198.974,4370.769,4427.9490000000005,4387.9490000000005,4489.615,4392.692,4117.308,4374.872,0,0
53,81,0,3145,4354.487,4296.538,4401.923,4394.103,4278.333,4403.718,4169.359,4347.436,4412.821,4383.59,4469.615,4372.692,4109.872,4361.282,0,0
54,82,0,3293,4318.205,4251.538,4366.667,4362.692,4246.282,4371.538,4147.436,4314.744000000001,4386.026,4353.333,4436.667,4334.487,4073.974,4321.282,0,0
55,83,0,3289,4312.9490000000005,4269.231,4367.9490000000005,4370.255999999999,4262.0509999999995,4363.462,4159.359,4322.692,4387.436,4353.846,4438.462,4332.308,4062.179,4319.359,0,0
56,84,0,2732,4308.974,4277.179,4359.487,4361.41,4270.641,4360.385,4156.667,4325.513,4390.513,4351.538,4438.846,4328.718,4052.949,4319.103,0,0
57,85,0,3145,4313.333,4263.333,4350.385,4339.359,4247.564,4377.0509999999995,4152.308,4332.692,4406.538,4363.974,4441.41,4331.923,4065.385,4319.872,0,0
58,86,0,3293,4325.769,4270.769,4354.231,4335.641,4249.744000000001,4390.513,4164.231,4347.179,4417.0509999999995,4386.282,4450.0,4344.231,4086.41,4335.641,0,0
59,87,0,3289,4314.103,4267.564,4342.0509999999995,4334.359,4256.538,4369.872,4159.872,4337.0509999999995,4393.974,4365.769,4431.538,4325.385,4066.026,4328.077,0,0
60,88,0,2732,4279.744000000001,4238.846,4314.872,4311.923,4216.538,4347.564,4130.897,4306.795,4364.487,4323.974,4395.897,4288.077,4036.026,4291.795,0,0
61,89,0,3145,4234.487,4209.231,4287.821,4273.462,4170.513,4325.255999999999,4099.744000000001,4276.795,4346.667,4300.641,4370.0,4265.255999999999,4020.1279999999997,4258.846,0,0
62,90,0,3293,4189.744000000001,4168.974,4252.692,4239.872,4144.744000000001,4274.487,4068.077,4230.385,4310.897,4264.359,4336.923,4233.846,3980.256,4220.255999999999,0,0
63,91,0,3289,4163.718,4138.077,4223.59,4218.718,4122.564,4242.564,4038.205,4190.0,4277.9490000000005,4228.718,4307.692,4202.9490000000005,3941.795,4185.513,0,0
64,92,0,2732,4141.667,4134.359,4216.154,4198.462,4095.385,4241.923,4023.205,4179.487,4273.974,4227.179,4296.538,4195.128,3937.949,4179.103,0,0
65,93,0,3145,4119.744000000001,4122.692,4208.205,4181.667,4073.59,4230.641,4017.4359999999997,4170.897,4265.641,4218.718,4281.154,4187.9490000000005,3931.026,4168.718,0,0
66,94,0,3293,4121.667,4113.333,4199.359,4179.103,4069.3590000000004,4211.026,4015.256,4167.564,4260.385,4204.103,4274.359,4183.974,3914.744,4151.923,0,0
67,95,0,3289,4130.513,4122.308,4199.872,4181.282,4061.026,4187.0509999999995,4012.4359999999997,4173.205,4264.615,4205.128,4286.41,4186.282,3905.385,4158.205,0,0
68,96,0,2732,4105.641,4105.385,4186.667,4165.0,4029.2309999999998,4169.103,3995.6409999999996,4155.769,4242.179,4187.821,4276.667,4164.744000000001,3882.821,4152.692,0,0
69,97,0,3145,4077.308,4079.3590000000004,4167.436,4143.846,4014.103,4188.462,3980.385,4133.077,4216.923,4167.436,4254.872,4138.59,3871.282,4125.0,0,0
70,98,0,3293,4108.462,4111.282,4189.487,4160.769,4052.5640000000003,4225.385,4000.385,4161.026,4244.872,4202.436,4280.385,4162.564,3895.513,4142.179,0,0
71,99,0,3289,4130.255999999999,4137.564,4205.897,4177.564,4073.333,4210.769,4014.2309999999998,4175.513,4257.308,4222.179,4297.692,4177.179,3875.513,4161.154,0,0
72,100,0,2732,4090.0,4109.872,4175.897,4154.872,4039.615,4171.154,3985.7690000000002,4127.308,4209.103,4177.564,4261.667,4141.026,3814.8720000000003,4127.436,0,0
73,101,0,3145,4082.308,4113.718,4176.282,4148.462,4030.6409999999996,4178.462,3983.59,4127.0509999999995,4211.538,4184.744000000001,4258.333,4140.255999999999,3829.744,4129.103,0,0
74,102,0,3293,4131.795,4166.795,4226.41,4175.0,4076.026,4217.692,4036.41,4194.615,4273.59,4255.897,4299.744000000001,4192.0509999999995,3892.692,4175.641,0,0
75,103,0,3289,4155.769,4183.205,4242.436,4179.231,4100.513,4236.41,4055.6409999999996,4210.897,4278.718,4269.359,4308.205,4211.154,3898.974,4177.9490000000005,0,0
76,104,0,2732,4145.641,4162.308,4221.282,4162.821,4075.0,4232.436,4027.051,4176.41,4242.692,4230.897,4291.154,4187.179,3876.795,4162.179,0,0
77,105,0,3145,4145.0,4172.308,4227.0509999999995,4168.462,4071.1540000000005,4237.179,4027.692,4183.077,4251.795,4227.692,4292.436,4185.255999999999,3875.7690000000002,4180.769,0,0
78,106,0,3293,4167.179,4211.538,4257.564,4187.179,4121.538,4252.179,4061.1540000000005,4217.0509999999995,4277.821,4254.359,4305.769,4213.462,3873.59,4205.128,0,0
79,107,0,3289,4197.0509999999995,4240.897,4276.41,4200.255999999999,4154.487,4270.0,4082.308,4228.462,4285.128,4271.538,4324.744000000001,4235.769,3862.4359999999997,4216.795,0,0
80,108,0,2732,4191.154,4234.359,4266.41,4193.718,4119.103,4266.667,4072.179,4212.9490000000005,4276.667,4258.205,4323.333,4224.615,3840.0,4208.077,0,0
81,109,0,3145,4144.615,4198.462,4230.769,4161.538,4072.821,4233.462,4042.051,4176.538,4240.641,4211.538,4282.0509999999995,4181.026,3802.4359999999997,4166.923,0,0
82,110,0,3293,4130.897,4192.821,4221.41,4144.359,4073.718,4227.308,4040.7690000000002,4163.718,4218.59,4193.333,4264.872,4162.821,3797.949,4148.333,0,0
83,111,0,3289,4165.255999999999,4230.128,4254.359,4163.974,4087.308,4252.821,4070.0,4189.231,4246.41,4235.128,4299.359,4194.359,3838.205,4182.9490000000005,0,0
84,112,0,2732,4197.9490000000005,4265.897,4282.436,4183.974,4097.308,4264.231,4081.41,4213.205,4279.487,4272.9490000000005,4326.667,4230.0,3877.179,4217.564,0,0
85,113,0,3145,4219.615,4286.795,4290.255999999999,4181.667,4121.41,4267.821,4082.308,4227.692,4288.718,4277.821,4330.513,4242.436,3897.308,4224.359,0,0
86,114,0,3293,4229.103,4300.769,4294.103,4178.59,4130.255999999999,4280.255999999999,4097.0509999999995,4245.385,4296.282,4286.41,4336.795,4248.462,3910.7690000000002,4233.077,0,0
87,115,0,3289,4228.462,4309.744000000001,4297.692,4183.59,4122.0509999999995,4285.128,4103.846,4251.667,4304.744000000001,4296.154,4341.538,4251.667,3924.487,4248.333,0,0
88,116,0,2732,4237.179,4327.9490000000005,4305.769,4185.0,4137.436,4286.41,4107.179,4247.179,4306.026,4289.103,4340.897,4250.255999999999,3926.026,4250.385,0,0
89,117,0,3145,4246.667,4355.769,4310.897,4184.359,4156.538,4294.231,4119.615,4250.0,4307.821,4282.564,4338.205,4251.538,3909.615,4243.974,0,0
90,118,0,3293,4249.359,4377.179,4306.795,4189.615,4163.205,4297.0509999999995,4126.154,4263.077,4318.718,4295.385,4338.718,4258.974,3914.8720000000003,4247.9490000000005,0,0
91,119,0,3289,4256.41,4383.205,4303.333,4185.385,4166.667,4296.154,4125.513,4271.667,4329.487,4309.744000000001,4342.308,4263.333,3945.897,4255.641,0,0
92,120,0,2732,4257.821,4380.769,4301.923,4168.59,4159.103,4292.564,4120.641,4266.667,4323.974,4300.0,4336.026,4258.846,3944.615,4247.179,0,0
93,121,0,3145,4262.0509999999995,4395.513,4308.846,4172.436,4164.872,4294.615,4123.462,4268.462,4320.385,4288.59,4333.846,4267.564,3929.487,4241.923,0,0
94,122,0,3293,4284.103,4416.667,4325.255999999999,4188.333,4191.154,4304.487,4132.821,4275.897,4326.41,4292.9490000000005,4345.897,4283.59,3950.256,4262.9490000000005,0,0
95,123,0,3289,4297.179,4416.667,4336.667,4190.769,4197.564,4315.897,4140.641,4275.255999999999,4328.077,4296.538,4352.308,4285.385,3963.8459999999995,4283.846,0,0
96,124,0,2732,4291.795,4415.513,4343.846,4194.744000000001,4196.026,4330.385,4148.462,4281.667,4326.026,4298.718,4352.179,4287.692,3947.051,4281.154,0,0
97,125,0,3145,4292.308,4429.615,4346.923,4202.821,4213.205,4335.128,4156.026,4294.615,4334.744000000001,4311.154,4359.872,4295.0,3934.8720000000003,4278.846,0,0
98,126,0,3293,4298.333,4441.795,4345.897,4206.795,4223.462,4334.359,4161.667,4296.41,4350.255999999999,4326.667,4373.846,4299.615,3942.4359999999997,4293.974,0,0
99,127,0,52,4301.795,4443.077,4350.385,4216.026,4222.436,4339.487,4168.59,4295.385,4348.59,4329.744000000001,4380.897,4304.487,3955.385,4301.41,0,0
100,0,0,3100,4301.923,4433.846,4353.077,4217.564,4224.872,4338.718,4173.077,4297.564,4332.179,4324.359,4378.205,4306.923,3961.538,4295.641,0,0
101,1,0,2741,4288.718,4415.769,4341.026,4202.564,4213.333,4327.9490000000005,4160.641,4292.692,4330.769,4323.077,4372.564,4301.026,3958.462,4292.821,0,0
102,2,0,3435,4274.359,4406.667,4332.9490000000005,4195.255999999999,4197.564,4317.692,4147.179,4293.846,4345.255999999999,4326.538,4373.59,4296.538,3957.051,4290.255999999999,0,0
103,3,0,3426,4272.9490000000005,4406.154,4334.744000000001,4199.615,4202.564,4309.231,4151.667,4293.462,4340.255999999999,4320.897,4375.0,4296.026,3961.923,4281.154,0,0
104,4,0,3562,4267.179,4397.9490000000005,4337.9490000000005,4203.974,4199.872,4311.538,4153.205,4280.897,4331.026,4314.744000000001,4372.308,4296.923,3960.6409999999996,4276.923,0,0
105,5,0,2880,4266.282,4398.462,4349.487,4215.255999999999,4186.667,4329.615,4151.41,4286.154,4343.846,4326.667,4380.513,4302.564,3961.538,4289.744000000001,0,0
106,6,0,2910,4287.308,4418.59,4361.41,4234.103,4216.667,4335.128,4166.282,4307.692,4348.077,4336.154,4394.103,4311.667,3976.667,4299.615,0,0
107,7,0,3455,4301.923,4432.821,4367.564,4247.9490000000005,4261.154,4336.026,4185.385,4315.641,4339.359,4335.0,4401.026,4321.538,3992.692,4294.487,0,0
108,8,0,2799,4293.846,4430.255999999999,4369.103,4250.255999999999,4257.564,4353.077,4181.667,4311.538,4340.385,4336.154,4400.385,4322.179,3993.974,4291.538,0,0
109,9,0,3574,4286.154,4424.615,4358.333,4238.333,4226.795,4360.513,4169.744000000001,4306.282,4338.333,4325.0,4388.077,4306.026,3981.795,4294.231,0,0
110,10,0,3327,4295.255999999999,4424.872,4353.333,4230.128,4223.59,4350.513,4176.923,4308.333,4334.231,4316.41,4378.718,4301.41,3981.41,4292.179,0,0
111,11,0,3309,4305.513,4437.692,4368.718,4241.282,4243.974,4350.0,4191.667,4328.205,4350.513,4338.846,4386.026,4322.0509999999995,3998.718,4297.692,0,0
112,12,0,2753,4296.923,4443.59,4365.128,4243.718,4241.667,4354.744000000001,4186.923,4334.615,4358.333,4347.308,4388.205,4322.436,4000.256,4304.615,0,0
113,13,0,3167,4279.744000000001,4419.744000000001,4336.538,4226.41,4206.795,4343.974,4171.667,4306.667,4337.821,4319.359,4369.231,4294.744000000001,3980.0,4294.615,0,0
114,14,0,3327,4283.974,4413.333,4344.359,4231.667,4205.513,4337.9490000000005,4176.282,4307.692,4335.513,4321.41,4370.641,4299.103,3986.795,4294.615,0,0
115,15,0,3309,4305.769,4439.872,4376.795,4256.538,4243.59,4343.462,4192.564,4346.923,4361.538,4354.615,4396.41,4330.897,4013.205,4310.769,0,0
116,16,0,0,4313.077,4448.59,4373.846,4254.359,4257.308,4344.744000000001,4197.9490000000005,4361.026,4372.692,4360.0,4399.103,4336.282,4013.974,4315.128,0,0
117,17,0,0,4308.718,4441.41,4357.0509999999995,4243.718,4253.718,4343.59,4200.128,4349.103,4359.231,4344.487,4388.077,4322.0509999999995,4015.897,4312.9490000000005,0,0
118,18,0,0,4304.615,4440.769,4355.128,4243.59,4251.795,4344.744000000001,4198.59,4341.667,4356.667,4342.692,4383.462,4314.487,4027.051,4306.795,0,0
119,19,0,0,4295.513,4439.103,4354.615,4238.59,4239.615,4351.41,4196.795,4341.795,4367.308,4349.872,4378.333,4310.385,4013.974,4293.846,0,0
120,20,0,0,4290.385,4439.487,4353.718,4236.795,4235.641,4357.821,4200.255999999999,4339.744000000001,4361.538,4346.026,4373.462,4307.179,3993.8459999999995,4294.487,0,0
121,21,0,0,4305.0,4445.255999999999,4360.385,4249.103,4253.59,4357.436,4204.359,4337.179,4346.154,4336.282,4377.0509999999995,4310.128,4006.1540000000005,4310.769,0,0
122,22,0,0,4322.9490000000005,4447.692,4372.9490000000005,4260.0,4269.231,4360.128,4212.9490000000005,4347.692,4358.462,4346.538,4390.255999999999,4324.615,4029.2309999999998,4321.026,0,0
123,23,0,0,4328.333,4458.077,4383.333,4267.0509999999995,4277.9490000000005,4366.538,4220.255999999999,4364.231,4380.769,4368.718,4398.718,4337.179,4028.205,4328.846,0,0
124,24,0,0,4336.154,4475.0,4384.487,4272.308,4289.103,4369.487,4217.692,4366.795,4375.128,4370.513,4397.692,4336.41,4021.282,4335.641,0,0
125,25,0,0,4350.255999999999,4473.59,4380.513,4270.513,4295.385,4381.026,4216.538,4367.308,4374.231,4364.487,4402.821,4336.538,4031.282,4338.205,0,0
126,26,0,0,4357.9490000000005,4466.667,4382.9490000000005,4275.128,4302.436,4384.744000000001,4222.821,4371.667,4387.821,4376.154,4414.872,4344.615,4043.462,4349.872,0,0
127,27,0,0,4351.41,4463.205,4382.692,4278.718,4296.795,4364.359,4221.282,4362.308,4373.718,4377.9490000000005,4405.255999999999,4342.0509999999995,4038.205,4352.821,0,0
128,28,0,0,4346.41,4460.255999999999,4376.538,4270.0,4274.744000000001,4364.487,4214.615,4356.538,4354.359,4362.821,4381.282,4331.795,4036.795,4334.103,0,0
129,29,0,0,4343.718,4454.744000000001,4368.718,4260.385,4265.128,4378.59,4210.255999999999,4359.231,4363.077,4354.872,4372.564,4323.974,4040.897,4320.897,0,0
130,30,0,0,4334.872,4449.615,4360.769,4258.462,4276.795,4371.154,4209.359,4351.538,4362.692,4350.769,4371.026,4322.821,4028.8459999999995,4325.897,0,0
131,31,0,0,4328.718,4444.487,4358.718,4260.385,4279.487,4362.436,4215.897,4345.897,4350.641,4343.333,4364.103,4321.41,4021.538,4324.615,0,0
132,32,0,0,4330.513,4438.718,4359.615,4261.154,4273.077,4356.41,4219.359,4346.41,4367.821,4343.846,4359.872,4313.974,4030.1279999999997,4313.974,0,0
133,33,0,0,4330.385,4439.615,4357.692,4261.282,4279.744000000001,4345.513,4213.846,4341.795,4367.821,4343.462,4364.359,4314.615,4028.8459999999995,4318.205,0,0
134,34,0,0,4336.154,4447.308,4362.821,4268.077,4285.897,4353.205,4212.308,4341.667,4346.538,4345.128,4373.59,4328.333,4019.2309999999998,4335.897,0,0
135,35,0,0,4353.59,4443.59,4375.0,4278.974,4278.462,4365.128,4216.538,4353.59,4362.564,4365.385,4379.872,4338.974,4025.256,4345.255999999999,0,0
136,36,0,0,4353.462,4426.667,4377.436,4279.359,4279.231,4360.641,4220.128,4366.795,4386.795,4375.897,4382.564,4338.846,4042.949,4338.718,0,0
137,37,0,0,4349.872,4433.974,4372.0509999999995,4276.667,4296.667,4360.641,4220.769,4371.154,4378.718,4358.846,4382.436,4338.59,4055.513,4336.154,0,0
138,38,0,0,4346.795,4442.9490000000005,4357.9490000000005,4273.59,4287.564,4345.513,4201.41,4346.026,4350.0,4325.769,4362.692,4326.41,4036.026,4333.462,0,0
139,39,0,0,4335.0,4432.692,4344.103,4268.077,4247.0509999999995,4320.128,4177.0509999999995,4314.615,4326.923,4296.795,4340.513,4309.615,4000.6409999999996,4329.744000000001,0,0
140,40,0,0,4361.41,4458.718,4361.538,4282.9490000000005,4249.615,4333.59,4192.179,4327.179,4336.795,4308.59,4355.128,4326.795,4006.41,4351.282,0,0
141,41,0,0,4410.128,4506.795,4393.333,4308.077,4302.308,4354.359,4225.641,4357.0509999999995,4364.359,4347.0509999999995,4382.179,4357.0509999999995,4034.103,4379.615,0,0
142,42,0,0,4425.0,4517.821,4402.564,4313.974,4334.231,4353.718,4235.769,4365.255999999999,4373.205,4366.282,4386.41,4364.359,4039.615,4394.103,0,0
143,43,0,0,4416.538,4508.718,4396.026,4315.385,4324.487,4364.615,4231.282,4363.333,4376.795,4365.0,4383.974,4360.255999999999,4039.103,4402.0509999999995,0,0
144,44,0,0,4411.154,4504.231,4388.974,4317.0509999999995,4296.41,4366.795,4226.026,4356.667,4374.872,4348.205,4374.744000000001,4350.641,4041.667,4392.436,0,0
145,45,0,0,4393.718,4487.692,4376.282,4303.974,4278.846,4336.923,4216.154,4343.846,4349.487,4319.615,4347.564,4329.103,4026.667,4363.205,0,0
146,46,0,0,4366.41,4465.255999999999,4361.154,4286.154,4283.077,4320.385,4202.436,4331.154,4330.128,4306.282,4328.205,4312.179,4008.333,4343.333,0,0
147,47,0,0,4347.0509999999995,4443.333,4345.0,4269.359,4278.077,4327.821,4187.692,4316.282,4331.41,4300.769,4322.308,4300.769,4013.462,4331.538,0,0
148,48,0,0,4344.231,4435.0,4335.769,4261.026,4265.641,4327.692,4181.41,4309.231,4330.128,4284.487,4315.128,4291.282,4025.6409999999996,4317.308,0,0
149,49,0,0,4357.308,4442.692,4343.974,4269.231,4270.255999999999,4319.487,4187.692,4320.385,4334.103,4294.872,4319.615,4297.179,4034.744,4320.769,0,0
150,50,0,0,4354.103,4436.026,4353.205,4275.513,4275.641,4317.692,4185.897,4334.744000000001,4348.846,4321.41,4323.974,4304.487,4043.205,4326.923,0,0
151,51,0,0,4344.359,4426.795,4356.154,4274.231,4277.564,4330.385,4184.744000000001,4344.872,4357.9490000000005,4325.513,4324.872,4311.667,4040.7690000000002,4322.564,0,0
152,52,0,0,4358.333,4435.0,4360.385,4277.436,4283.462,4338.333,4197.821,4350.897,4354.359,4323.846,4335.255999999999,4321.41,4026.1540000000005,4329.872,0,0
153,53,0,0,4369.872,4432.692,4358.718,4279.359,4272.564,4324.615,4202.308,4347.179,4345.0,4326.154,4340.769,4317.179,4023.205,4342.821,0,0
154,54,0,0,4379.744000000001,4436.282,4366.41,4287.308,4277.179,4328.59,4209.231,4359.872,4356.667,4338.077,4351.538,4325.897,4048.718,4358.077,0,0
155,55,0,0,4396.667,4458.077,4381.538,4305.255999999999,4301.154,4352.0509999999995,4227.692,4384.487,4376.282,4364.231,4372.821,4350.513,4068.462,4373.333,0,0
156,56,0,0,4388.59,4440.385,4370.128,4296.667,4288.59,4342.564,4227.179,4374.615,4363.718,4367.0509999999995,4363.462,4341.538,4058.333,4360.769,0,0
157,57,0,0,4372.179,4405.641,4352.9490000000005,4276.538,4278.462,4321.026,4211.026,4348.974,4350.769,4342.0509999999995,4338.59,4321.795,4034.3590000000004,4337.308,0,0
158,58,0,0,4387.436,4426.667,4366.923,4289.615,4301.667,4333.077,4215.385,4352.692,4364.872,4342.821,4352.564,4340.641,4028.59,4351.923,0,0
159,59,0,0,4410.769,4461.795,4384.231,4308.974,4304.615,4350.255999999999,4227.0509999999995,4364.487,4370.128,4365.513,4377.821,4363.077,4052.5640000000003,4385.255999999999,0,0
160,60,0,0,4410.0,4457.436,4386.282,4312.179,4289.615,4345.641,4219.487,4354.744000000001,4357.436,4365.385,4375.513,4363.59,4066.667,4393.462,0,0
161,61,0,0,4392.821,4440.769,4379.103,4306.538,4290.0,4332.564,4199.744000000001,4337.821,4347.308,4349.231,4359.359,4358.462,4049.3590000000004,4379.103,0,0
162,62,0,0,4381.026,4436.538,4371.41,4295.769,4293.846,4326.154,4194.359,4335.0,4344.487,4348.462,4352.692,4352.0509999999995,4037.5640000000003,4367.179,0,0
163,63,0,0,4372.179,4419.103,4358.59,4282.179,4272.692,4310.513,4190.897,4324.744000000001,4342.436,4341.923,4347.436,4334.744000000001,4025.1279999999997,4352.308,0,0
164,64,0,3098,4349.487,4382.436,4330.255999999999,4262.692,4233.077,4281.41,4158.462,4286.282,4318.077,4300.0,4316.923,4303.846,3987.5640000000003,4314.231,0,0
165,65,0,2732,4346.923,4381.282,4328.974,4260.385,4238.59,4278.333,4149.872,4280.255999999999,4301.282,4291.667,4311.026,4305.128,3993.8459999999995,4310.513,0,0
166,66,0,3417,4367.9490000000005,4405.897,4355.641,4279.231,4273.974,4293.974,4178.974,4311.026,4316.154,4324.615,4344.231,4332.821,4023.974,4353.846,0,0
167,67,0,3416,4372.564,4407.821,4357.0509999999995,4289.615,4269.744000000001,4308.974,4189.744000000001,4318.846,4330.0,4335.0,4349.359,4330.0,4009.8720000000003,4367.821,0,0
168,68,0,3519,4358.462,4395.128,4335.385,4277.564,4258.205,4318.462,4176.923,4302.179,4320.897,4313.462,4322.308,4307.179,3997.821,4339.103,0,0
169,69,0,2874,4347.692,4393.077,4328.846,4268.846,4277.692,4315.128,4170.769,4299.487,4314.103,4300.385,4319.103,4306.667,4012.179,4329.359,0,0
170,70,0,2894,4336.795,4392.821,4329.231,4270.255999999999,4278.333,4304.744000000001,4169.487,4307.436,4314.487,4312.9490000000005,4327.564,4311.154,4012.5640000000003,4337.179,0,0
171,71,0,3446,4344.487,4393.718,4332.436,4277.308,4267.9490000000005,4291.41,4171.795,4306.154,4319.359,4329.359,4325.128,4312.179,4020.897,4341.795,0,0
172,72,0,2804,4344.615,4373.59,4325.769,4271.923,4249.872,4258.718,4155.897,4281.026,4302.9490000000005,4297.179,4302.436,4302.821,4024.615,4321.795,0,0
173,73,0,3576,4275.641,4303.974,4272.821,4219.872,4191.026,4213.59,4095.6409999999996,4211.154,4241.026,4209.872,4238.205,4248.077,3949.2309999999998,4246.538,0,0
174,74,0,3327,4274.487,4321.538,4278.333,4220.255999999999,4212.9490000000005,4246.026,4109.872,4220.128,4252.692,4225.385,4245.513,4253.333,3945.897,4252.308,0,0
175,75,0,3299,4357.0509999999995,4409.487,4346.282,4285.641,4299.487,4308.462,4188.718,4312.821,4327.9490000000005,4306.026,4324.615,4327.436,4053.333,4345.897,0,0
176,76,0,2755,4349.359,4386.795,4343.333,4279.744000000001,4299.615,4307.436,4194.487,4335.385,4333.205,4311.923,4332.821,4334.487,4073.718,4352.692,0,0
177,77,0,3164,4308.718,4335.513,4302.9490000000005,4240.513,4261.923,4287.564,4160.255999999999,4306.923,4315.0,4303.462,4299.615,4297.9490000000005,4028.462,4313.59,0,0
178,78,0,3327,4307.564,4348.718,4278.462,4236.41,4243.718,4257.308,4124.615,4263.974,4294.103,4266.923,4262.564,4265.513,4001.282,4292.9490000000005,0,0
179,79,0,3299,4289.615,4353.59,4258.077,4229.487,4235.128,4231.154,4095.513,4214.872,4245.128,4195.255999999999,4215.255999999999,4236.282,3961.795,4263.205,0,0
180,80,0,2755,4320.513,4381.795,4287.179,4251.923,4257.9490000000005,4265.128,4137.0509999999995,4246.795,4260.0,4223.333,4235.385,4266.923,3952.051,4296.026,0,0
181,81,0,3164,4404.487,4457.0509999999995,4336.026,4306.795,4288.333,4298.462,4185.0,4305.769,4310.513,4289.744000000001,4290.128,4317.821,3983.974,4365.897,0,0
182,82,0,3327,4365.385,4446.923,4293.462,4283.846,4261.667,4246.538,4132.9490000000005,4240.0,4257.9490000000005,4203.59,4241.41,4268.846,3932.051,4318.718,0,0
183,83,0,3299,4280.897,4406.282,4241.923,4239.487,4252.308,4211.923,4091.538,4170.128,4201.538,4102.308,4171.667,4210.513,3855.513,4257.821,0,0
184,84,0,2755,4338.718,4472.9490000000005,4280.641,4286.154,4295.641,4254.487,4133.974,4227.436,4246.41,4156.282,4196.538,4248.718,3906.667,4318.205,0,0
185,85,0,3164,4389.744000000001,4515.769,4291.282,4313.59,4271.154,4252.564,4132.436,4240.255999999999,4253.077,4179.231,4201.41,4255.128,3945.7690000000002,4337.692,0,0
186,86,0,3327,4353.205,4489.359,4260.385,4283.718,4220.128,4221.41,4101.667,4187.821,4205.513,4132.692,4157.436,4216.923,3903.718,4285.0,0,0
187,87,0,3299,4344.359,4491.41,4265.255999999999,4279.872,4231.795,4229.103,4113.846,4189.744000000001,4205.128,4137.9490000000005,4142.821,4219.231,3903.718,4275.255999999999,0,0
188,88,0,2755,4334.231,4484.487,4255.513,4274.359,4229.744000000001,4221.41,4102.0509999999995,4184.231,4211.667,4129.103,4132.308,4207.9490000000005,3935.0,4265.769,0,0
189,89,0,3164,4279.744000000001,4437.564,4218.333,4243.205,4176.795,4193.462,4063.205,4139.103,4180.0,4065.385,4098.718,4162.9490000000005,3922.5640000000003,4214.615,0,0
190,90,0,3327,4245.255999999999,4416.538,4208.59,4231.923,4139.615,4185.255999999999,4056.667,4120.0,4147.9490000000005,4036.538,4076.923,4145.769,3900.513,4182.0509999999995,0,0
191,91,0,3299,4223.846,4397.9490000000005,4185.513,4221.282,4103.846,4158.846,4040.897,4093.077,4116.923,4017.692,4058.333,4121.154,3880.0,4159.103,0,0
192,92,0,2755,4165.128,4334.359,4125.769,4175.897,4037.308,4105.641,3987.308,4031.795,4075.256,3956.1540000000005,4022.4359999999997,4056.282,3840.0,4106.538,0,0
193,93,0,3164,4098.077,4265.769,4082.051,4127.692,3988.59,4065.513,3940.0,3981.282,4035.7690000000002,3911.026,3989.487,4004.2309999999998,3805.385,4047.5640000000003,0,0
194,94,0,3327,4033.333,4190.255999999999,4032.051,4079.103,3929.3590000000004,4012.051,3887.179,3912.949,3976.282,3865.6409999999996,3941.667,3947.821,3762.051,3972.4359999999997,0,0
195,95,0,3299,3985.897,4122.436,3972.5640000000003,4033.205,3858.59,3956.41,3835.6409999999996,3844.103,3918.462,3806.282,3895.1279999999997,3886.795,3720.1279999999997,3906.1540000000005,0,0
196,96,0,2755,3985.897,4112.308,3972.308,4025.513,3851.026,3956.1540000000005,3844.3590000000004,3854.615,3918.8459999999995,3792.949,3902.051,3887.179,3750.7690000000002,3905.0,0,0
197,97,0,3164,4003.8459999999995,4131.282,4005.385,4043.974,3885.7690000000002,3978.205,3877.051,3895.6409999999996,3945.385,3819.2309999999998,3931.538,3921.41,3820.7690000000002,3928.077,0,0
198,98,0,3327,4015.7690000000002,4133.718,4013.59,4054.744,3902.308,3986.282,3882.179,3900.897,3957.692,3851.1540000000005,3942.179,3931.923,3846.795,3931.923,0,0
199,99,0,3299,4020.385,4127.692,4008.718,4051.923,3904.2309999999998,3993.718,3881.667,3896.1540000000005,3960.1279999999997,3862.692,3948.205,3926.795,3854.2309999999998,3932.4359999999997,0,0
200,100,0,2755,4032.179,4138.333,4021.026,4058.333,3929.2309999999998,4008.718,3902.308,3914.744,3968.718,3861.795,3969.8720000000003,3937.692,3905.256,3951.026,0,0
201,101,0,3164,4065.7690000000002,4167.179,4053.205,4085.0,3981.41,4035.513,3937.692,3950.6409999999996,3999.103,3894.2309999999998,4004.615,3973.333,3970.897,3987.4359999999997,0,0
202,102,0,3327,4050.1279999999997,4145.513,4041.795,4071.795,3975.256,4035.6409999999996,3921.282,3933.8459999999995,3995.6409999999996,3916.41,3991.923,3960.897,3966.538,3980.0,0,0
203,103,0,3299,4000.513,4091.667,4002.308,4030.513,3936.282,4011.667,3882.821,3889.487,3953.205,3884.8720000000003,3948.462,3910.897,3945.897,3934.487,0,0
204,104,0,2755,4068.718,4153.974,4064.8720000000003,4078.718,4015.7690000000002,4060.513,3956.538,3968.718,4010.513,3931.923,4011.282,3972.692,4039.103,3991.923,0,0
205,105,0,3164,4164.615,4246.41,4146.667,4146.795,4116.538,4131.41,4042.5640000000003,4073.59,4106.282,4038.718,4103.205,4066.795,4131.154,4085.256,0,0
206,106,0,3327,4134.103,4221.026,4119.487,4126.026,4084.487,4119.103,4014.8720000000003,4052.179,4091.538,4031.282,4080.513,4043.205,4110.385,4066.795,0,0
207,107,0,3299,4116.667,4206.795,4112.9490000000005,4128.59,4061.41,4109.231,4013.718,4044.615,4078.333,3989.2309999999998,4065.513,4029.3590000000004,4112.436,4052.179,0,0
208,108,0,2755,4174.487,4258.846,4170.385,4178.974,4135.769,4150.255999999999,4078.205,4108.974,4132.9490000000005,4050.256,4119.359,4090.6409999999996,4178.718,4104.231,0,0
209,109,0,3164,4157.9490000000005,4235.128,4147.564,4150.385,4133.59,4139.487,4065.513,4091.667,4121.538,4083.205,4105.513,4078.205,4170.0,4088.718,0,0
210,110,0,3327,4093.718,4167.0509999999995,4087.051,4095.385,4056.795,4088.718,4010.7690000000002,4016.667,4059.8720000000003,4001.795,4042.692,4016.1540000000005,4101.026,4023.333,0,0
211,111,0,3299,4102.564,4176.41,4105.641,4114.744000000001,4081.667,4092.821,4022.051,4018.333,4067.308,3970.513,4046.41,4029.8720000000003,4107.436,4030.0,0,0
212,112,0,2755,4148.205,4225.255999999999,4149.359,4147.9490000000005,4160.513,4132.564,4062.5640000000003,4065.897,4108.462,4040.897,4089.744,4077.051,4164.615,4080.385,0,0
213,113,0,3164,4161.795,4241.667,4156.538,4151.41,4146.282,4139.615,4073.8459999999995,4076.282,4108.718,4069.103,4104.872,4082.821,4172.564,4097.436,0,0
214,114,0,3327,4153.974,4229.359,4150.128,4152.692,4102.564,4127.436,4066.026,4063.59,4096.923,4036.1540000000005,4090.513,4072.692,4160.641,4086.538,0,0
215,115,0,3299,4151.667,4215.385,4148.718,4149.231,4127.0509999999995,4131.026,4060.897,4064.103,4103.846,4034.8720000000003,4078.077,4077.821,4186.282,4075.0,0,0
216,116,0,2755,4140.0,4205.385,4134.744000000001,4132.821,4127.692,4127.821,4049.744,4051.795,4096.282,4042.051,4070.7690000000002,4069.3590000000004,4200.0,4063.462,0,0
217,117,0,3164,4115.385,4191.923,4114.615,4122.9490000000005,4083.333,4100.0,4034.3590000000004,4023.718,4071.538,4011.026,4058.205,4043.333,4180.128,4053.205,0,0
218,118,0,3327,4135.513,4200.128,4142.308,4143.077,4110.641,4110.128,4065.1279999999997,4053.59,4096.026,4022.692,4075.256,4063.718,4212.821,4078.462,0,0
219,119,0,3299,4175.641,4220.385,4177.0509999999995,4162.692,4145.0,4145.769,4096.538,4091.667,4125.128,4062.308,4096.282,4098.718,4259.744000000001,4103.462,0,0
220,120,0,2755,4159.615,4212.821,4151.667,4149.615,4108.205,4133.205,4068.59,4055.1279999999997,4094.103,4043.462,4071.795,4073.59,4245.897,4080.256,0,0
221,121,0,3164,4141.41,4206.923,4133.333,4144.231,4098.205,4124.615,4057.821,4032.179,4072.051,4018.462,4052.308,4049.744,4238.59,4065.6409999999996,0,0
222,122,0,3327,4181.538,4242.179,4175.385,4177.179,4148.077,4165.0,4101.667,4081.41,4104.872,4046.282,4084.487,4090.7690000000002,4288.846,4101.282,0,0
223,123,0,3299,4204.615,4268.205,4201.41,4197.692,4166.154,4178.718,4117.564,4105.128,4132.564,4074.103,4109.615,4121.795,4336.667,4128.974,0,0
224,124,0,2755,4185.385,4252.308,4179.872,4185.385,4145.255999999999,4152.692,4093.077,4080.256,4123.974,4063.462,4093.59,4102.179,4353.333,4117.821,0,0
225,125,0,3164,4168.462,4228.205,4156.795,4172.179,4134.487,4133.846,4075.513,4065.0,4104.231,4037.949,4067.821,4076.795,4365.385,4096.154,0,0
226,126,0,3327,4166.154,4231.795,4158.205,4171.41,4144.487,4131.026,4077.5640000000003,4068.077,4097.564,4036.923,4062.308,4077.051,4383.59,4091.41,0,0
227,127,0,52,4176.667,4246.795,4172.0509999999995,4173.846,4162.564,4146.795,4092.051,4079.744,4111.282,4063.205,4074.8720000000003,4092.179,4411.41,4105.128,0,0
228,0,0,3114,4184.615,4239.231,4174.103,4173.59,4158.333,4164.103,4101.282,4088.8459999999995,4122.564,4064.103,4080.897,4098.205,4435.641,4114.744000000001,0,0
229,1,0,2739,4170.128,4220.255999999999,4164.487,4169.359,4129.487,4146.41,4085.513,4073.205,4114.615,4041.795,4067.179,4087.308,4441.154,4098.59,0,0
230,2,0,3439,4144.231,4204.231,4154.103,4156.538,4112.436,4116.795,4059.8720000000003,4045.1279999999997,4091.538,4035.7690000000002,4045.385,4071.667,4437.436,4072.949,0,0
231,3,0,3427,4117.821,4176.026,4132.0509999999995,4134.359,4102.179,4102.564,4042.4359999999997,4021.026,4060.513,4006.795,4026.923,4052.4359999999997,4422.0509999999995,4053.8459999999995,0,0
232,4,0,3557,4131.923,4177.692,4134.872,4136.41,4107.179,4118.077,4058.462,4037.179,4072.308,4001.1540000000005,4037.821,4060.1279999999997,4441.026,4071.026,0,0
233,5,0,2885,4172.564,4209.103,4164.487,4156.282,4129.872,4140.513,4086.923,4072.308,4106.667,4050.256,4059.2309999999998,4086.923,4476.154,4098.974,0,0
234,6,0,2904,4172.179,4207.821,4167.692,4159.744000000001,4137.821,4135.641,4087.821,4078.462,4108.846,4066.41,4066.538,4091.282,4467.564,4097.821,0,0
235,7,0,3479,4167.692,4204.744000000001,4173.846,4169.872,4139.487,4145.769,4099.744000000001,4096.667,4119.359,4059.744,4085.897,4104.231,4461.538,4114.359,0,0
236,8,0,2824,4196.282,4230.769,4200.255999999999,4188.974,4156.41,4176.795,4129.487,4131.923,4146.026,4071.923,4104.487,4132.692,4477.564,4146.667,0,0
237,9,0,3599,4191.795,4221.923,4188.718,4177.436,4154.872,4168.59,4118.205,4118.59,4134.103,4071.923,4086.795,4121.026,4462.821,4132.692,0,0
238,10,0,3298,4160.513,4194.103,4161.41,4155.128,4141.282,4144.744000000001,4087.179,4086.1540000000005,4108.462,4058.974,4071.1540000000005,4094.487,4435.897,4103.718,0,0
239,11,0,3323,4173.462,4209.103,4176.538,4163.974,4159.487,4153.846,4091.538,4101.282,4121.282,4071.026,4088.8459999999995,4110.769,4445.385,4117.436,0,0
240,12,0,2779,4199.615,4227.308,4197.0509999999995,4186.026,4168.333,4164.487,4104.231,4124.744000000001,4131.795,4093.8459999999995,4101.667,4131.795,4453.846,4140.255999999999,0,0
241,13,0,3183,4192.179,4217.692,4190.255999999999,4188.462,4148.333,4152.436,4097.9490000000005,4115.255999999999,4123.205,4102.179,4094.744,4127.9490000000005,4443.718,4135.0,0,0
242,14,0,3298,4168.974,4197.436,4171.026,4166.282,4138.333,4124.872,4078.333,4085.7690000000002,4112.0509999999995,4074.3590000000004,4078.333,4108.205,4415.897,4105.255999999999,0,0
243,15,0,3323,4147.308,4170.897,4150.128,4144.231,4124.103,4097.564,4054.487,4057.051,4088.718,4026.923,4059.8720000000003,4083.718,4368.333,4079.103,0,0
244,16,0,0,4149.231,4169.103,4154.103,4148.59,4106.282,4110.128,4055.6409999999996,4064.2309999999998,4081.026,4034.8720000000003,4069.3590000000004,4088.077,4366.538,4099.103,0,0
245,17,0,0,4171.026,4192.308,4177.179,4162.692,4124.872,4146.41,4083.59,4095.6409999999996,4109.359,4092.949,4098.462,4115.0,4408.718,4133.974,0,0
246,18,0,0,4166.538,4180.128,4166.026,4149.359,4139.231,4136.667,4079.8720000000003,4087.308,4115.641,4106.41,4092.5640000000003,4106.538,4401.667,4118.718,0,0
247,19,0,0,4130.128,4139.103,4123.333,4114.744000000001,4098.462,4091.41,4032.4359999999997,4038.8459999999995,4065.7690000000002,4040.897,4057.308,4063.718,4340.769,4074.103,0,0
248,20,0,0,4143.205,4163.462,4135.128,4130.769,4092.308,4106.795,4036.923,4052.5640000000003,4064.3590000000004,4034.487,4073.59,4076.667,4343.718,4094.487,0,0
249,21,0,0,4197.0509999999995,4223.974,4183.846,4181.667,4150.769,4151.41,4090.6409999999996,4112.179,4126.923,4128.205,4120.255999999999,4126.026,4391.923,4156.026,0,0
250,22,0,0,4194.487,4221.026,4181.282,4177.821,4178.333,4135.0,4097.821,4112.821,4128.974,4147.0509999999995,4117.179,4120.769,4371.026,4155.255999999999,0,0
251,23,0,0,4146.41,4178.462,4146.538,4143.59,4140.255999999999,4108.846,4064.487,4078.974,4081.923,4077.821,4086.795,4085.513,4322.308,4113.462,0,0
252,24,0,0,4115.0,4142.179,4120.769,4123.462,4082.821,4112.308,4037.5640000000003,4052.949,4059.8720000000003,4040.256,4061.1540000000005,4063.205,4294.615,4083.718,0,0
253,25,0,0,4130.0,4139.103,4125.513,4120.255999999999,4080.897,4111.923,4043.077,4051.795,4073.8459999999995,4058.462,4060.897,4068.205,4290.897,4085.7690000000002,0,0
254,26,0,0,4178.718,4175.255999999999,4165.897,4151.282,4137.821,4122.821,4080.897,4098.59,4110.897,4098.59,4106.41,4108.333,4330.255999999999,4128.077,0,0
255,27,0,0,4194.231,4187.821,4187.564,4173.59,4155.255999999999,4147.436,4097.821,4130.385,4129.487,4128.205,4131.538,4134.231,4362.9490000000005,4153.462,0,0
256,28,0,0,4169.872,4164.231,4169.872,4150.255999999999,4115.641,4146.026,4079.103,4101.41,4121.41,4131.795,4103.974,4115.769,4336.41,4129.487,0,0
257,29,0,0,4162.692,4162.564,4162.564,4143.462,4101.795,4124.359,4077.179,4082.308,4114.359,4105.255999999999,4092.4359999999997,4103.462,4302.9490000000005,4117.821,0,0
258,30,0,0,4163.974,4172.436,4167.692,4159.744000000001,4125.0,4110.513,4082.949,4091.923,4101.923,4067.4359999999997,4099.231,4109.744000000001,4302.308,4129.103,0,0
259,31,0,0,4164.872,4174.744000000001,4169.872,4157.308,4146.154,4120.769,4081.667,4098.333,4101.026,4086.282,4099.744000000001,4116.026,4305.128,4132.9490000000005,0,0
260,32,0,0,4181.667,4182.821,4174.231,4156.667,4152.308,4144.872,4089.744,4104.487,4124.615,4150.641,4111.795,4121.667,4302.436,4139.103,0,0
261,33,0,0,4162.9490000000005,4155.128,4145.897,4142.692,4114.487,4132.308,4069.2309999999998,4077.4359999999997,4104.615,4122.692,4096.923,4091.538,4276.026,4117.564,0,0
262,34,0,0,4139.359,4131.026,4126.154,4127.564,4087.821,4115.641,4056.1540000000005,4057.051,4072.821,4064.3590000000004,4081.538,4070.6409999999996,4259.487,4097.821,0,0
263,35,0,0,4150.769,4146.026,4139.103,4132.436,4113.718,4123.205,4072.821,4074.744,4089.2309999999998,4095.385,4097.308,4087.821,4263.205,4111.41,0,0
264,36,0,0,4150.897,4145.0,4134.615,4130.641,4132.179,4123.333,4069.3590000000004,4077.949,4094.744,4115.897,4091.667,4083.718,4256.154,4110.641,0,0
265,37,0,0,4146.41,4145.255999999999,4134.231,4133.077,4129.872,4130.513,4067.692,4076.667,4091.1540000000005,4101.154,4082.051,4075.513,4265.255999999999,4107.308,0,0
266,38,0,0,4167.564,4177.692,4159.359,4154.231,4133.462,4139.744000000001,4089.615,4100.513,4120.128,4123.205,4105.255999999999,4098.462,4283.59,4128.974,0,0
267,39,0,0,4182.9490000000005,4190.641,4170.128,4164.359,4143.718,4128.462,4098.462,4119.103,4135.513,4149.487,4117.821,4116.026,4281.795,4144.487,0,0
268,40,0,0,4189.744000000001,4185.897,4171.026,4167.564,4161.795,4143.077,4105.255999999999,4124.615,4124.359,4145.641,4120.0,4123.974,4280.0,4153.846,0,0
269,41,0,0,4190.128,4186.282,4172.436,4170.769,4168.462,4172.9490000000005,4109.615,4119.487,4119.103,4128.205,4123.846,4126.154,4271.538,4154.744000000001,0,0
270,42,0,0,4172.9490000000005,4172.821,4156.667,4159.872,4150.769,4155.385,4089.3590000000004,4102.179,4125.0,4117.9490000000005,4107.436,4107.9490000000005,4247.308,4133.718,0,0
271,43,0,0,4168.974,4171.154,4158.462,4165.897,4133.333,4136.795,4089.487,4106.282,4125.897,4125.641,4110.128,4108.077,4241.282,4131.923,0,0
272,44,0,0,4193.846,4198.846,4189.872,4195.255999999999,4144.872,4168.077,4120.513,4134.231,4128.718,4141.795,4146.154,4142.564,4259.744000000001,4168.59,0,0
273,45,0,0,4193.205,4193.974,4183.59,4190.385,4162.308,4174.359,4109.231,4126.538,4128.974,4124.872,4142.9490000000005,4141.026,4249.872,4175.0,0,0
274,46,0,0,4167.821,4159.487,4149.744000000001,4162.308,4169.103,4144.103,4077.308,4099.487,4121.282,4094.103,4110.897,4106.026,4220.385,4146.154,0,0
275,47,0,0,4176.923,4164.231,4158.974,4172.179,4169.872,4147.179,4091.282,4117.0509999999995,4133.718,4115.641,4123.077,4113.205,4224.103,4152.821,0,0
276,48,0,0,4164.359,4150.769,4152.821,4173.59,4123.462,4130.641,4075.7690000000002,4099.872,4115.513,4091.795,4121.41,4103.974,4201.41,4139.872,0,0
277,49,0,0,4120.385,4106.795,4111.795,4146.282,4083.462,4089.3590000000004,4029.615,4041.538,4065.1279999999997,4020.385,4083.59,4059.744,4148.59,4092.5640000000003,0,0
278,50,0,0,4154.615,4145.255999999999,4145.769,4177.179,4143.974,4130.128,4077.051,4087.179,4102.179,4073.205,4116.795,4096.667,4184.872,4125.385,0,0
279,51,0,0,4212.436,4208.718,4203.974,4225.513,4206.282,4193.333,4144.872,4171.282,4176.923,4164.359,4177.564,4162.564,4251.154,4193.077,0,0
280,52,0,0,4179.103,4177.692,4171.923,4203.077,4167.436,4167.9490000000005,4108.333,4137.9490000000005,4147.179,4133.846,4151.41,4130.897,4209.615,4168.077,0,0
281,53,0,0,4134.615,4132.821,4128.59,4168.59,4124.231,4128.462,4061.1540000000005,4078.077,4091.923,4096.282,4107.0509999999995,4080.0,4146.923,4119.103,0,0
282,54,0,0,4163.462,4161.795,4158.718,4188.077,4143.846,4147.179,4092.4359999999997,4104.744000000001,4121.154,4107.436,4127.821,4106.538,4171.41,4142.821,0,0
283,55,0,0,4183.077,4179.359,4180.641,4201.026,4163.077,4162.179,4116.154,4131.923,4142.308,4088.974,4147.436,4136.154,4201.41,4162.9490000000005,0,0
284,56,0,0,4164.103,4159.615,4163.333,4182.9490000000005,4173.846,4157.564,4103.462,4119.359,4125.769,4116.154,4138.462,4125.641,4197.436,4151.538,0,0
285,57,0,0,4155.641,4150.897,4148.718,4167.564,4158.846,4149.872,4088.974,4104.872,4120.128,4143.718,4132.9490000000005,4107.308,4178.846,4146.282,0,0
286,58,0,0,4161.41,4146.282,4147.308,4162.179,4125.128,4139.103,4080.897,4098.59,4117.0509999999995,4088.59,4133.846,4103.077,4157.0509999999995,4144.103,0,0
287,59,0,0,4175.385,4160.385,4171.026,4182.692,4162.9490000000005,4147.9490000000005,4106.154,4126.41,4138.205,4110.641,4147.821,4132.821,4183.077,4161.795,0,0
288,60,0,0,4177.308,4172.308,4182.436,4195.769,4199.359,4160.128,4124.103,4144.487,4161.154,4162.9490000000005,4155.255999999999,4146.795,4209.615,4176.923,0,0
289,61,0,0,4165.128,4152.0509999999995,4153.974,4170.128,4138.846,4148.846,4094.2309999999998,4115.128,4135.385,4118.974,4137.0509999999995,4116.923,4173.59,4155.128,0,0
290,62,0,0,4175.897,4152.0509999999995,4151.923,4164.103,4102.821,4147.0509999999995,4087.179,4106.026,4114.103,4100.641,4126.667,4112.9490000000005,4150.385,4141.282,0,0
291,63,0,0,4213.974,4199.487,4197.308,4206.154,4180.255999999999,4179.359,4134.231,4154.487,4158.462,4163.462,4159.872,4160.128,4198.462,4183.333,0,0
292,64,0,3123,4192.436,4180.641,4178.718,4194.872,4199.872,4168.974,4118.974,4143.333,4159.231,4149.103,4153.333,4146.282,4194.359,4181.154,0,0
293,65,0,2748,4133.205,4114.872,4119.615,4140.128,4107.821,4120.255999999999,4058.8459999999995,4075.513,4090.1279999999997,4083.718,4093.8459999999995,4080.897,4125.0,4119.487,0,0
294,66,0,3446,4173.846,4155.385,4162.436,4175.128,4120.255999999999,4147.436,4099.615,4112.308,4119.103,4134.359,4114.872,4113.333,4153.59,4151.282,0,0
295,67,0,3448,4226.026,4203.718,4211.154,4217.0509999999995,4199.872,4184.487,4138.205,4170.385,4186.795,4184.231,4168.974,4165.255999999999,4208.974,4205.385,0,0
296,68,0,3542,4170.641,4151.538,4160.128,4171.923,4168.462,4138.077,4084.744,4118.718,4139.615,4120.641,4130.513,4117.9490000000005,4163.462,4154.487,0,0
297,69,0,2892,4131.154,4119.103,4124.487,4142.9490000000005,4116.154,4104.103,4063.59,4075.7690000000002,4088.077,4069.615,4088.8459999999995,4083.333,4123.59,4114.231,0,0
298,70,0,2908,4175.385,4155.897,4158.333,4172.821,4137.308,4132.9490000000005,4096.923,4116.667,4130.641,4115.641,4122.821,4121.154,4154.359,4153.718,0,0
299,71,0,3466,4190.513,4171.538,4176.41,4186.41,4146.538,4149.872,4099.487,4140.255999999999,4159.744000000001,4163.974,4136.41,4135.385,4163.846,4171.154,0,0
300,72,0,2822,4172.0509999999995,4160.0,4173.205,4176.41,4156.41,4148.333,4097.0509999999995,4129.231,4148.462,4159.487,4128.333,4127.436,4145.641,4163.077,0,0
301,73,0,3581,4202.179,4179.744000000001,4193.59,4191.282,4204.103,4163.077,4124.615,4148.333,4163.205,4165.255999999999,4157.9490000000005,4154.103,4164.487,4186.538,0,0
302,74,0,3304,4222.821,4194.615,4196.923,4201.923,4183.846,4167.436,4129.615,4156.026,4162.564,4175.897,4165.0,4158.59,4174.359,4188.718,0,0
303,75,0,3315,4198.333,4176.795,4177.9490000000005,4186.795,4131.026,4167.564,4120.255999999999,4140.0,4149.744000000001,4164.359,4146.538,4135.255999999999,4156.795,4170.897,0,0
304,76,0,2760,4207.308,4174.615,4190.0,4188.205,4162.564,4181.026,4137.308,4154.487,4177.564,4160.385,4165.0,4153.718,4162.564,4188.718,0,0
305,77,0,3174,4232.179,4190.0,4209.744000000001,4205.769,4199.487,4178.205,4148.205,4171.667,4189.615,4168.846,4183.59,4179.231,4173.462,4203.846,0,0
306,78,0,3304,4195.128,4168.846,4180.128,4185.255999999999,4164.744000000001,4149.872,4116.282,4140.0,4145.255999999999,4161.41,4149.359,4144.872,4147.821,4170.128,0,0
307,79,0,3315,4157.821,4144.231,4153.59,4161.538,4133.462,4132.436,4091.923,4115.128,4122.436,4141.282,4121.538,4113.333,4124.103,4143.59,0,0
308,80,0,2760,4198.59,4182.436,4191.667,4195.513,4172.308,4154.615,4128.718,4157.692,4163.718,4155.0,4155.513,4152.0509999999995,4154.231,4177.564,0,0
309,81,0,3174,4229.744000000001,4208.205,4213.718,4216.026,4202.692,4176.026,4157.308,4188.846,4195.0,4177.821,4183.718,4181.154,4180.255999999999,4203.846,0,0
310,82,0,3304,4194.615,4169.359,4174.872,4181.154,4165.641,4166.538,4128.077,4156.795,4174.744000000001,4165.0,4155.769,4147.564,4153.718,4173.718,0,0
311,83,0,3315,4164.231,4140.255999999999,4150.255999999999,4161.154,4135.641,4151.923,4101.282,4124.231,4139.744000000001,4137.436,4125.128,4115.385,4121.282,4141.795,0,0
312,84,0,2760,4176.538,4157.692,4169.487,4177.0509999999995,4151.41,4149.359,4111.667,4130.769,4130.641,4137.0509999999995,4135.385,4127.0509999999995,4124.103,4153.718,0,0
313,85,0,3174,4197.0509999999995,4170.769,4186.667,4189.744000000001,4160.769,4153.205,4122.821,4146.538,4142.821,4141.41,4155.385,4151.026,4137.0509999999995,4179.103,0,0
314,86,0,3304,4212.0509999999995,4170.641,4195.0,4196.795,4170.0,4155.897,4127.821,4155.128,4162.821,4147.179,4165.128,4165.385,4134.231,4190.0,0,0
315,87,0,3315,4213.846,4180.513,4200.769,4198.718,4187.308,4155.513,4132.9490000000005,4157.692,4172.0509999999995,4173.718,4167.0509999999995,4168.462,4128.846,4191.026,0,0
316,88,0,2760,4193.59,4170.641,4187.564,4185.385,4163.846,4149.615,4123.333,4139.231,4143.333,4157.692,4153.846,4155.897,4120.641,4174.615,0,0
317,89,0,3174,4188.333,4156.026,4176.667,4182.179,4127.436,4147.308,4111.923,4128.59,4127.308,4118.59,4153.077,4148.077,4114.359,4167.436,0,0
318,90,0,3304,4208.846,4159.359,4186.667,4191.154,4136.923,4154.231,4119.359,4147.436,4148.205,4153.205,4164.231,4156.026,4117.0509999999995,4183.077,0,0
319,91,0,3315,4206.282,4155.255999999999,4190.255999999999,4183.077,4171.026,4163.077,4130.0,4155.897,4159.487,4190.0,4150.897,4151.667,4115.255999999999,4178.59,0,0
320,92,0,2760,4181.795,4152.564,4178.846,4173.974,4175.0,4151.538,4117.9490000000005,4129.872,4141.154,4140.0,4140.769,4137.692,4100.385,4161.667,0,0
321,93,0,3174,4181.41,4160.641,4176.41,4181.282,4156.923,4133.59,4105.0,4114.103,4134.231,4122.179,4167.436,4145.513,4102.0509999999995,4175.0,0,0
322,94,0,3304,4206.795,4158.59,4185.769,4184.487,4152.308,4150.385,4115.769,4138.718,4152.436,4173.205,4198.718,4168.333,4133.974,4206.667,0,0
323,95,0,3315,4229.487,4156.795,4194.231,4185.128,4152.436,4172.9490000000005,4128.718,4162.436,4166.41,4198.846,4210.255999999999,4179.103,4161.923,4228.59,0,0
324,96,0,2760,4247.821,4182.821,4207.821,4198.205,4164.359,4169.615,4133.333,4169.744000000001,4186.282,4235.513,4221.41,4190.0,4160.769,4251.667,0,0
325,97,0,3174,4281.41,4207.692,4234.103,4218.077,4197.564,4172.179,4147.436,4193.077,4216.154,4274.231,4257.179,4221.538,4157.179,4286.795,0,0
326,98,0,3304,4310.641,4197.564,4245.769,4216.538,4202.436,4182.9490000000005,4160.385,4203.333,4207.564,4249.487,4290.0,4242.179,4181.667,4315.769,0,0
327,99,0,3315,4318.59,4185.385,4239.231,4204.359,4172.9490000000005,4168.333,4160.385,4188.333,4181.154,4261.41,4288.59,4239.231,4178.333,4334.615,0,0
328,100,0,2760,4319.359,4182.0509999999995,4227.821,4196.667,4158.077,4139.231,4148.333,4180.769,4185.0,4303.718,4273.718,4230.769,4118.205,4337.9490000000005,0,0
329,101,0,3174,4326.026,4164.231,4226.282,4191.282,4148.462,4138.333,4132.9490000000005,4181.667,4191.923,4266.026,4282.0509999999995,4234.744000000001,4099.615,4341.026,0,0
330,102,0,3304,4334.615,4142.436,4242.436,4191.41,4135.385,4159.615,4134.359,4180.897,4190.641,4245.897,4305.255999999999,4256.667,4145.385,4358.846,0,0
331,103,0,3315,4347.179,4157.436,4264.744000000001,4198.974,4175.0,4181.41,4162.564,4209.872,4217.179,4329.615,4330.641,4290.769,4177.692,4387.564,0,0
332,104,0,2760,4358.077,4185.128,4273.718,4208.462,4228.205,4199.487,4183.462,4242.0509999999995,4237.9490000000005,4362.0509999999995,4349.103,4307.0509999999995,4178.59,4405.385,0,0
333,105,0,3174,4342.564,4164.487,4262.179,4203.59,4212.821,4200.128,4180.255999999999,4229.487,4232.564,4310.513,4347.179,4288.205,4185.641,4394.872,0,0
334,106,0,3304,4315.897,4127.436,4248.59,4193.974,4177.436,4187.0509999999995,4181.923,4222.436,4240.513,4311.538,4346.154,4275.385,4197.308,4378.205,0,0
335,107,0,3315,4305.255999999999,4112.0509999999995,4248.077,4190.769,4207.692,4184.744000000001,4190.128,4247.308,4252.9490000000005,4363.077,4354.487,4285.0,4201.923,4370.128,0,0
336,108,0,2760,4300.0,4106.282,4254.231,4194.359,4258.718,4194.231,4189.615,4258.462,4264.487,4385.897,4358.846,4289.615,4197.564,4363.077,0,0
337,109,0,3174,4262.564,4076.923,4232.692,4181.026,4233.974,4188.974,4167.436,4229.744000000001,4261.154,4331.795,4342.9490000000005,4264.359,4173.077,4327.821,0,0
338,110,0,3304,4212.821,4028.077,4201.538,4148.462,4189.872,4182.436,4151.41,4206.667,4233.974,4288.974,4317.692,4230.641,4154.103,4278.846,0,0
339,111,0,3315,4182.564,3993.333,4192.179,4129.744000000001,4193.077,4189.744000000001,4160.0,4215.385,4220.897,4324.744000000001,4300.385,4211.154,4145.255999999999,4250.897,0,0
340,112,0,2760,4176.538,3992.179,4196.667,4136.282,4208.59,4205.897,4173.077,4230.769,4243.077,4352.9490000000005,4302.692,4215.513,4150.128,4251.154,0,0
341,113,0,3174,4204.487,4016.795,4217.564,4156.026,4223.333,4230.385,4199.744000000001,4260.641,4285.513,4351.282,4331.154,4245.128,4183.974,4280.769,0,0
342,114,0,3304,4198.462,3998.8459999999995,4204.103,4143.205,4205.641,4212.9490000000005,4197.0509999999995,4255.897,4280.255999999999,4314.487,4319.744000000001,4231.923,4173.718,4266.538,0,0
343,115,0,3315,4152.0509999999995,3964.744,4171.923,4118.974,4185.897,4174.487,4160.0,4212.692,4240.897,4277.564,4277.179,4192.308,4120.128,4216.923,0,0
344,116,0,2760,4168.462,3996.923,4195.0,4138.205,4230.897,4184.103,4163.462,4214.487,4253.718,4321.795,4286.026,4213.333,4114.359,4232.692,0,0
345,117,0,3174,4212.9490000000005,4044.2309999999998,4224.359,4166.026,4261.667,4210.513,4192.0509999999995,4243.205,4281.923,4362.0509999999995,4315.0,4245.0,4126.538,4275.641,0,0
346,118,0,3304,4191.154,4039.8720000000003,4203.718,4164.231,4228.718,4209.615,4176.923,4227.179,4263.718,4294.744000000001,4303.846,4224.744000000001,4080.256,4256.795,0,0
347,119,0,3315,4156.282,4018.8459999999995,4181.795,4148.462,4206.282,4187.308,4145.128,4197.821,4244.615,4258.59,4277.564,4206.026,4032.821,4221.282,0,0
348,120,0,2760,4160.769,4018.205,4180.255999999999,4134.615,4212.308,4168.462,4141.41,4192.9490000000005,4231.026,4291.41,4255.385,4204.744000000001,4023.974,4215.897,0,0
349,121,0,3174,4157.436,4020.897,4168.718,4122.179,4203.718,4168.205,4134.487,4180.897,4197.821,4250.255999999999,4234.103,4189.231,3996.282,4205.641,0,0
350,122,0,3304,4140.513,4016.282,4158.59,4122.821,4178.718,4171.026,4124.103,4168.59,4188.974,4203.59,4226.667,4175.255999999999,3967.051,4191.154,0,0
351,123,0,3315,4122.0509999999995,4005.6409999999996,4150.0,4124.359,4162.179,4155.128,4119.872,4167.308,4201.154,4215.641,4210.128,4162.308,3967.179,4178.205,0,0
352,124,0,2760,4106.795,4007.179,4141.795,4115.513,4172.308,4148.077,4114.231,4167.179,4199.103,4207.179,4191.026,4150.513,3964.103,4167.308,0,0
353,125,0,3174,4114.615,4018.333,4143.205,4107.821,4185.0,4154.872,4117.821,4170.641,4197.564,4200.769,4199.231,4154.872,3945.897,4171.154,0,0
354,126,0,3304,4120.897,4012.4359999999997,4140.897,4111.282,4149.103,4145.0,4123.205,4175.769,4202.9490000000005,4227.692,4202.564,4155.513,3936.795,4170.0,0,0
355,127,0,52,4107.436,4008.333,4142.0509999999995,4123.846,4128.846,4136.923,4123.718,4178.59,4198.974,4218.205,4190.513,4152.436,3940.256,4160.641,0,0
356,0,0,3114,4106.282,4022.5640000000003,4146.795,4128.718,4167.9490000000005,4146.026,4123.205,4181.282,4206.795,4196.41,4196.026,4159.103,3930.1279999999997,4164.744000000001,0,0
357,1,0,2736,4108.462,4018.974,4131.154,4119.615,4174.231,4144.872,4111.538,4166.538,4212.179,4203.59,4196.923,4145.769,3901.795,4159.744000000001,0,0
358,2,0,3433,4071.923,3982.692,4096.923,4099.872,4109.359,4118.846,4081.923,4115.897,4162.179,4152.9490000000005,4162.179,4105.897,3860.0,4119.872,0,0
359,3,0,3449,4040.7690000000002,3964.8720000000003,4086.282,4089.744,4072.179,4104.487,4068.333,4087.051,4113.462,4098.333,4135.255999999999,4088.974,3839.487,4095.6409999999996,0,0
360,4,0,3543,4068.974,3992.949,4107.9490000000005,4108.462,4113.077,4121.282,4084.8720000000003,4119.872,4143.333,4144.231,4149.231,4111.026,3862.308,4119.615,0,0
361,5,0,2907,4083.205,4003.718,4109.103,4119.744000000001,4123.59,4116.41,4080.256,4133.59,4178.333,4184.103,4161.538,4120.255999999999,3867.051,4131.41,0,0
362,6,0,2927,4037.4359999999997,3960.0,4067.692,4090.7690000000002,4067.5640000000003,4068.077,4038.205,4077.821,4123.333,4120.255999999999,4131.026,4082.5640000000003,3817.4359999999997,4090.897,0,0
363,7,0,3463,4020.897,3948.205,4051.795,4078.718,4050.1279999999997,4052.4359999999997,4022.308,4049.8720000000003,4083.333,4076.795,4111.538,4062.5640000000003,3795.7690000000002,4067.692,0,0
364,8,0,2805,4070.1279999999997,4008.59,4094.744,4120.385,4082.179,4097.0509999999995,4056.538,4095.1279999999997,4134.744000000001,4118.59,4148.718,4106.667,3838.974,4106.282,0,0
365,9,0,3579,4096.667,4038.59,4123.718,4146.923,4099.487,4111.154,4073.077,4118.846,4155.128,4134.744000000001,4176.026,4134.744000000001,3847.949,4134.487,0,0
366,10,0,3327,4077.051,4014.3590000000004,4109.359,4132.436,4119.615,4077.821,4056.1540000000005,4098.846,4118.974,4120.385,4155.641,4113.718,3804.487,4123.462,0,0
367,11,0,3307,4081.923,4030.0,4105.897,4134.744000000001,4144.359,4084.2309999999998,4061.795,4105.385,4128.077,4147.0509999999995,4149.231,4113.205,3793.974,4130.641,0,0
368,12,0,2745,4098.718,4057.692,4115.513,4146.538,4116.154,4114.487,4077.821,4118.718,4151.667,4165.513,4159.231,4121.538,3797.4359999999997,4140.513,0,0
369,13,0,3172,4077.821,4030.385,4099.359,4126.538,4080.0,4094.103,4062.051,4092.4359999999997,4122.436,4122.436,4140.0,4094.487,3767.179,4112.0509999999995,0,0
370,14,0,3327,4060.513,4017.308,4089.615,4113.077,4101.923,4071.538,4052.821,4084.487,4115.513,4100.769,4131.795,4085.7690000000002,3761.41,4098.205,0,0
371,15,0,3307,4083.718,4043.077,4108.077,4128.205,4133.077,4103.333,4071.026,4109.872,4137.179,4130.385,4150.513,4109.744000000001,3793.333,4120.641,0,0
372,16,0,0,4101.538,4050.7690000000002,4122.436,4140.641,4123.333,4123.59,4080.385,4111.795,4123.333,4131.154,4158.718,4118.718,3789.3590000000004,4133.59,0,0
373,17,0,0,4102.0509999999995,4059.2309999999998,4132.692,4150.255999999999,4108.462,4114.359,4083.8459999999995,4111.538,4122.436,4126.667,4165.255999999999,4128.333,3774.2309999999998,4136.538,0,0
374,18,0,0,4114.231,4079.2309999999998,4142.308,4160.128,4119.103,4115.641,4092.4359999999997,4129.359,4147.821,4156.026,4169.615,4138.205,3792.308,4142.564,0,0
375,19,0,0,4122.692,4076.923,4139.615,4156.538,4139.872,4121.538,4089.615,4126.667,4150.255999999999,4173.077,4162.564,4127.436,3803.333,4146.795,0,0
376,20,0,0,4120.897,4075.256,4135.0,4153.205,4147.9490000000005,4125.255999999999,4092.821,4115.897,4140.255999999999,4171.667,4173.077,4127.564,3802.821,4156.026,0,0
377,21,0,0,4124.231,4091.1540000000005,4140.897,4163.462,4134.231,4118.462,4107.308,4125.513,4146.026,4173.846,4188.077,4141.667,3810.513,4160.0,0,0
378,22,0,0,4117.564,4086.41,4136.923,4164.872,4122.436,4105.255999999999,4099.487,4127.0509999999995,4149.359,4157.179,4176.154,4131.026,3802.308,4143.462,0,0
379,23,0,0,4104.487,4071.667,4127.179,4159.744000000001,4129.359,4122.564,4091.026,4124.487,4152.9490000000005,4157.436,4167.308,4121.026,3795.6409999999996,4132.436,0,0
380,24,0,0,4104.487,4078.333,4127.308,4158.718,4140.385,4142.9490000000005,4103.333,4135.0,4159.359,4185.641,4171.923,4130.0,3813.205,4136.154,0,0
381,25,0,0,4110.255999999999,4090.1279999999997,4127.564,4156.026,4141.795,4120.769,4105.0,4138.205,4155.128,4177.308,4170.897,4128.846,3817.179,4135.641,0,0
382,26,0,0,4117.436,4096.026,4137.564,4165.641,4132.821,4116.026,4102.9490000000005,4143.462,4157.821,4164.872,4174.103,4131.154,3820.513,4144.487,0,0
383,27,0,0,4133.333,4108.205,4155.769,4184.487,4148.462,4154.231,4119.615,4159.872,4176.154,4208.205,4184.487,4146.538,3848.077,4166.026,0,0
384,28,0,0,4151.538,4125.0,4166.795,4188.846,4187.564,4167.179,4136.41,4170.0,4192.692,4245.0,4194.872,4152.692,3857.692,4175.0,0,0
385,29,0,0,4151.282,4128.077,4163.205,4182.308,4187.564,4146.026,4132.9490000000005,4166.41,4190.769,4227.821,4194.872,4149.103,3843.333,4168.974,0,0
386,30,0,0,4143.077,4127.308,4160.385,4182.436,4160.385,4140.513,4124.231,4161.538,4180.255999999999,4206.795,4188.077,4155.385,3843.974,4169.872,0,0
387,31,0,0,4154.744000000001,4137.564,4174.103,4186.538,4170.641,4158.718,4125.641,4161.538,4179.231,4209.359,4194.872,4170.0,3863.205,4180.385,0,0
388,32,0,0,4172.692,4141.795,4183.205,4188.205,4197.692,4162.692,4129.487,4159.487,4183.846,4218.846,4208.077,4174.487,3869.103,4184.231,0,0
389,33,0,0,4167.692,4133.974,4173.205,4182.0509999999995,4179.103,4147.9490000000005,4117.821,4154.744000000001,4188.205,4212.692,4202.0509999999995,4169.231,3852.821,4181.026,0,0
390,34,0,0,4159.744000000001,4136.795,4167.821,4177.179,4154.359,4151.667,4110.897,4157.564,4184.359,4206.923,4195.641,4169.615,3849.3590000000004,4184.487,0,0
391,35,0,0,4148.974,4129.744000000001,4160.128,4171.538,4155.769,4151.667,4108.718,4141.923,4157.308,4206.795,4189.872,4159.103,3848.333,4175.897,0,0
392,36,0,0,4115.128,4088.718,4128.59,4148.718,4136.538,4118.59,4084.8720000000003,4099.872,4124.487,4177.436,4161.538,4123.333,3821.41,4142.0509999999995,0,0
393,37,0,0,4126.41,4091.41,4139.487,4153.462,4136.667,4126.154,4097.564,4120.385,4152.564,4173.333,4170.0,4134.359,3834.744,4151.026,0,0
394,38,0,0,4172.692,4140.0,4181.538,4186.795,4182.9490000000005,4167.692,4139.744000000001,4180.128,4204.103,4229.615,4211.41,4177.692,3885.1279999999997,4193.846,0,0
395,39,0,0,4164.103,4146.026,4170.513,4188.974,4195.0,4161.795,4131.154,4165.385,4188.59,4238.59,4200.897,4164.872,3881.41,4185.0,0,0
396,40,0,0,4144.615,4134.487,4152.0509999999995,4178.462,4163.462,4149.359,4116.538,4143.462,4167.692,4195.897,4182.0509999999995,4142.564,3864.2309999999998,4164.615,0,0
397,41,0,0,4167.821,4155.513,4172.564,4191.41,4168.59,4169.359,4143.974,4183.846,4192.821,4209.231,4207.821,4166.538,3895.1279999999997,4183.462,0,0
398,42,0,0,4175.513,4170.128,4180.128,4197.0509999999995,4209.103,4175.641,4154.872,4197.0509999999995,4204.231,4245.769,4219.872,4177.179,3905.7690000000002,4194.744000000001,0,0
399,43,0,0,4152.821,4154.231,4167.436,4185.641,4212.308,4167.821,4136.538,4164.872,4187.0509999999995,4236.795,4201.282,4157.308,3876.1540000000005,4182.0509999999995,0,0
400,44,0,0,4151.667,4140.0,4169.103,4184.231,4185.513,4165.255999999999,4126.154,4159.359,4178.974,4220.513,4198.846,4153.077,3872.949,4179.231,0,0
401,45,0,0,4161.154,4137.821,4168.333,4184.359,4176.026,4155.385,4121.923,4162.564,4172.692,4204.615,4199.744000000001,4156.538,3886.923,4178.205,0,0
402,46,0,0,4155.255999999999,4144.103,4162.564,4181.41,4189.744000000001,4158.205,4126.282,4160.513,4172.9490000000005,4196.026,4190.513,4155.769,3889.487,4172.692,0,0
403,47,0,0,4120.897,4122.436,4141.538,4161.923,4168.974,4151.154,4106.154,4143.077,4173.59,4202.436,4174.872,4138.462,3863.974,4149.487,0,0
404,48,0,0,4095.6409999999996,4090.256,4112.564,4138.462,4118.974,4117.9490000000005,4070.0,4107.436,4145.255999999999,4180.255999999999,4155.128,4112.692,3829.487,4122.9490000000005,0,0
405,49,0,0,4151.282,4135.897,4151.667,4171.282,4157.179,4136.154,4111.538,4138.077,4150.897,4188.59,4180.513,4148.59,3861.923,4167.436,0,0
406,50,0,0,4221.026,4209.103,4221.026,4223.333,4238.846,4202.0509999999995,4184.872,4222.436,4209.359,4262.179,4235.769,4217.564,3935.6409999999996,4238.59,0,0
407,51,0,0,4209.872,4206.795,4216.923,4220.769,4231.667,4212.0509999999995,4175.128,4231.282,4230.0,4293.333,4240.641,4218.205,3947.949,4233.846,0,0
408,52,0,0,4174.615,4169.872,4179.872,4193.077,4192.436,4172.0509999999995,4131.282,4181.667,4203.462,4253.718,4213.462,4177.0509999999995,3910.897,4198.333,0,0
409,53,0,0,4172.821,4170.0,4180.255999999999,4191.923,4195.641,4161.795,4135.897,4178.205,4191.795,4217.179,4210.128,4170.128,3898.462,4198.462,0,0
410,54,0,0,4168.846,4178.718,4182.308,4190.897,4199.615,4177.564,4149.103,4192.821,4192.179,4230.897,4213.077,4180.769,3901.41,4201.282,0,0
411,55,0,0,4150.385,4163.718,4165.769,4174.872,4194.103,4173.846,4132.9490000000005,4173.846,4176.795,4254.231,4200.0,4167.436,3890.0,4183.718,0,0
412,56,0,0,4134.103,4139.487,4152.564,4166.282,4175.385,4153.333,4109.231,4148.333,4162.821,4218.205,4183.59,4139.487,3873.462,4162.308,0,0
413,57,0,0,4125.0,4126.923,4142.436,4161.026,4140.0,4150.897,4104.872,4147.9490000000005,4166.538,4179.103,4175.641,4131.026,3860.385,4148.59,0,0
414,58,0,0,4149.487,4147.9490000000005,4157.9490000000005,4172.179,4166.282,4173.205,4139.231,4181.026,4187.0509999999995,4231.154,4195.255999999999,4161.026,3880.1279999999997,4169.744000000001,0,0
415,59,0,0,4176.41,4168.462,4180.0,4189.231,4210.769,4181.538,4163.846,4199.615,4192.436,4260.0,4214.615,4177.436,3915.1279999999997,4193.462,0,0
416,60,0,0,4145.255999999999,4136.538,4149.359,4165.255999999999,4158.59,4155.513,4126.282,4163.718,4163.59,4182.0509999999995,4182.9490000000005,4137.179,3898.333,4159.231,0,0
417,61,0,0,4115.897,4113.205,4121.538,4137.9490000000005,4123.718,4148.59,4103.846,4145.513,4153.59,4166.026,4156.795,4117.436,3870.513,4133.718,0,0
418,62,0,0,4146.795,4147.0509999999995,4155.897,4160.513,4179.359,4177.436,4142.821,4180.0,4181.154,4230.385,4189.615,4157.692,3896.538,4171.538,0,0
419,63,0,0,4164.615,4157.308,4175.897,4174.615,4192.308,4180.897,4153.846,4187.436,4193.59,4245.641,4208.205,4173.59,3915.385,4190.128,0,0
420,64,0,3122,4141.795,4130.897,4157.821,4156.667,4155.769,4162.564,4129.231,4168.333,4183.205,4230.897,4182.9490000000005,4154.359,3899.103,4169.103,0,0
421,65,0,2758,4145.255999999999,4138.718,4159.872,4160.641,4163.974,4162.179,4135.128,4177.692,4183.462,4226.282,4174.872,4158.333,3902.5640000000003,4170.0,0,0
422,66,0,3451,4159.615,4152.179,4165.769,4167.0509999999995,4174.103,4161.282,4134.872,4174.744000000001,4177.692,4206.026,4187.9490000000005,4165.769,3909.744,4177.179,0,0
423,67,0,3453,4143.205,4136.667,4152.0509999999995,4152.179,4153.077,4149.359,4112.0509999999995,4141.282,4156.282,4184.103,4187.436,4152.9490000000005,3895.0,4164.231,0,0
424,68,0,3552,4136.538,4135.513,4150.897,4149.359,4158.59,4155.0,4112.821,4133.205,4156.154,4200.513,4183.205,4150.385,3894.8720000000003,4163.333,0,0
425,69,0,2897,4156.667,4154.103,4164.359,4162.179,4183.846,4171.538,4130.0,4162.564,4182.564,4232.308,4193.205,4164.615,3911.41,4180.128,0,0
426,70,0,2915,4181.154,4168.846,4181.538,4180.255999999999,4189.359,4184.872,4146.41,4192.692,4204.872,4246.538,4215.128,4187.9490000000005,3930.897,4193.974,0,0
427,71,0,3468,4190.128,4176.282,4192.436,4193.846,4182.9490000000005,4190.769,4158.077,4199.615,4203.974,4250.255999999999,4221.026,4203.205,3944.615,4196.538,0,0
428,72,0,2818,4160.897,4159.231,4171.923,4176.026,4177.0509999999995,4170.255999999999,4134.872,4167.179,4178.462,4238.077,4191.41,4175.0,3918.59,4178.718,0,0
429,73,0,3575,4119.487,4131.282,4140.513,4144.231,4168.077,4150.769,4098.718,4127.821,4150.641,4207.436,4163.846,4136.282,3876.282,4150.513,0,0
430,74,0,3330,4114.359,4124.103,4135.641,4138.974,4159.744000000001,4155.385,4102.179,4125.897,4145.128,4178.462,4161.795,4132.692,3871.1540000000005,4136.282,0,0
431,75,0,3309,4143.974,4140.769,4159.359,4159.103,4177.564,4169.487,4130.255999999999,4156.538,4163.846,4183.462,4177.9490000000005,4156.667,3896.282,4151.538,0,0
432,76,0,2748,4169.487,4162.564,4180.385,4176.538,4194.231,4177.9490000000005,4142.692,4181.154,4186.41,4224.872,4198.846,4180.128,3922.949,4183.205,0,0
433,77,0,3166,4172.436,4168.205,4176.41,4177.0509999999995,4176.538,4175.513,4139.359,4176.026,4191.41,4251.026,4203.974,4179.359,3938.59,4191.667,0,0
434,78,0,3330,4170.641,4167.692,4176.282,4179.103,4181.41,4170.513,4142.179,4172.821,4186.282,4244.359,4201.41,4175.0,3944.2309999999998,4184.231,0,0
435,79,0,3309,4176.154,4171.795,4185.897,4187.821,4216.923,4172.821,4147.0509999999995,4183.718,4191.026,4235.128,4203.462,4182.9490000000005,3940.7690000000002,4187.436,0,0
436,80,0,2748,4175.0,4169.744000000001,4178.846,4184.744000000001,4201.795,4174.615,4139.872,4180.769,4194.359,4231.923,4204.359,4181.923,3930.256,4189.487,0,0
437,81,0,3166,4167.436,4167.0509999999995,4167.821,4179.615,4157.564,4169.744000000001,4132.179,4167.0509999999995,4184.103,4219.744000000001,4199.359,4170.255999999999,3923.718,4184.487,0,0
438,82,0,3330,4166.538,4167.308,4168.59,4177.9490000000005,4175.0,4166.923,4132.821,4158.59,4177.436,4210.897,4186.538,4167.436,3921.795,4180.385,0,0
439,83,0,3309,4177.0509999999995,4170.0,4174.359,4175.0,4219.487,4176.026,4143.462,4165.385,4184.359,4227.692,4180.0,4177.308,3930.385,4187.436,0,0
440,84,0,2748,4189.615,4181.154,4185.128,4183.462,4220.385,4188.462,4153.077,4181.667,4191.282,4241.667,4192.564,4185.641,3940.7690000000002,4197.179,0,0
441,85,0,3166,4182.0509999999995,4180.769,4183.974,4190.0,4192.9490000000005,4180.897,4140.641,4177.564,4184.872,4224.231,4193.846,4175.0,3929.487,4185.255999999999,0,0
442,86,0,3330,4170.641,4169.744000000001,4173.205,4181.795,4180.513,4166.923,4126.154,4158.846,4183.718,4213.59,4182.821,4165.0,3923.974,4173.974,0,0
443,87,0,3309,4172.692,4165.255999999999,4171.923,4171.923,4186.538,4169.872,4125.641,4158.974,4184.744000000001,4224.487,4184.615,4172.9490000000005,3929.103,4184.231,0,0
444,88,0,2748,4160.769,4154.872,4165.513,4162.564,4191.282,4165.513,4119.872,4156.538,4169.744000000001,4217.821,4181.667,4167.179,3909.3590000000004,4183.59,0,0
445,89,0,3166,4175.0,4171.154,4179.744000000001,4178.59,4216.538,4171.667,4143.462,4165.513,4177.692,4216.282,4191.795,4173.846,3919.744,4192.9490000000005,0,0
446,90,0,3330,4227.308,4217.564,4218.718,4216.667,4250.513,4208.462,4187.179,4208.974,4219.487,4264.359,4231.538,4213.718,3979.8720000000003,4233.462,0,0
447,91,0,3309,4230.255999999999,4216.923,4216.282,4220.897,4234.615,4224.872,4183.333,4227.0509999999995,4238.333,4294.744000000001,4244.359,4223.846,3991.795,4241.282,0,0
448,92,0,2748,4195.513,4184.487,4186.026,4199.359,4199.359,4208.205,4163.846,4208.462,4221.923,4256.41,4221.667,4198.846,3956.282,4210.769,0,0
449,93,0,3166,4188.077,4182.821,4182.564,4195.641,4195.897,4189.487,4164.359,4198.077,4203.974,4227.821,4211.795,4186.282,3950.7690000000002,4197.9490000000005,0,0
450,94,0,3330,4170.769,4171.154,4177.564,4193.205,4191.41,4173.077,4152.564,4182.436,4190.769,4230.641,4203.59,4176.538,3945.7690000000002,4192.0509999999995,0,0
451,95,0,3309,4147.0509999999995,4144.487,4161.154,4181.026,4183.974,4172.436,4139.744000000001,4164.103,4182.436,4223.333,4185.641,4160.769,3923.077,4178.077,0,0
452,96,0,2748,4166.923,4153.077,4164.872,4182.308,4193.974,4186.026,4146.154,4172.564,4183.205,4217.564,4191.282,4160.897,3924.744,4180.0,0,0
453,97,0,3166,4172.179,4154.103,4162.564,4186.923,4182.9490000000005,4171.282,4134.103,4166.282,4173.462,4202.9490000000005,4200.897,4156.41,3921.282,4176.667,0,0
454,98,0,3330,4135.0,4124.231,4140.385,4180.641,4147.308,4144.744000000001,4107.9490000000005,4129.615,4150.897,4167.564,4184.744000000001,4135.385,3898.077,4151.282,0,0
455,99,0,3309,4130.0,4123.974,4140.641,4177.564,4146.667,4151.667,4111.923,4129.487,4154.231,4162.692,4176.923,4135.385,3903.59,4146.026,0,0
456,100,0,2748,4167.692,4161.41,4171.282,4198.205,4188.077,4170.769,4145.255999999999,4177.9490000000005,4193.205,4200.641,4204.359,4167.0509999999995,3936.667,4176.538,0,0
457,101,0,3166,4193.59,4187.564,4193.462,4228.333,4215.897,4187.9490000000005,4172.436,4211.282,4215.641,4227.179,4231.154,4192.436,3951.538,4202.0509999999995,0,0
458,102,0,3330,4191.538,4187.9490000000005,4191.026,4231.282,4212.308,4207.0509999999995,4170.255999999999,4203.974,4205.0,4242.179,4232.0509999999995,4191.795,3949.615,4202.821,0,0
459,103,0,3309,4182.179,4178.846,4183.59,4215.255999999999,4205.385,4201.923,4156.667,4189.231,4195.897,4244.103,4221.41,4185.255999999999,3948.205,4200.0,0,0
460,104,0,2748,4181.795,4175.897,4182.821,4213.333,4201.923,4186.538,4150.385,4185.128,4196.667,4213.205,4213.077,4184.359,3939.487,4197.692,0,0
461,105,0,3166,4200.255999999999,4186.795,4190.641,4226.026,4201.026,4201.154,4161.41,4191.538,4201.154,4212.179,4223.59,4193.462,3944.103,4200.769,0,0
462,106,0,3330,4206.795,4196.026,4195.513,4230.128,4209.872,4207.0509999999995,4174.615,4195.255999999999,4203.205,4241.667,4235.128,4197.9490000000005,3955.513,4209.103,0,0
463,107,0,3309,4175.769,4177.9490000000005,4178.846,4211.282,4207.436,4173.59,4151.154,4179.231,4189.103,4222.308,4217.564,4176.154,3934.3590000000004,4197.179,0,0
464,108,0,2748,4163.462,4160.0,4169.615,4198.718,4196.667,4167.564,4129.103,4171.923,4185.641,4199.744000000001,4205.255999999999,4166.538,3920.256,4183.59,0,0
465,109,0,3166,4195.385,4175.128,4187.308,4215.128,4205.128,4197.692,4148.59,4190.255999999999,4201.923,4241.154,4221.282,4188.462,3952.179,4199.103,0,0
466,110,0,3330,4178.59,4165.385,4168.59,4204.103,4183.718,4183.462,4138.205,4170.897,4183.59,4230.385,4201.282,4168.205,3943.205,4184.359,0,0
467,111,0,3309,4133.077,4136.667,4138.59,4175.897,4154.487,4161.923,4111.667,4139.744000000001,4159.487,4161.154,4169.872,4135.897,3901.41,4151.538,0,0
468,112,0,2748,4172.179,4174.231,4179.615,4205.385,4199.872,4193.718,4151.026,4180.769,4193.974,4203.333,4213.718,4179.615,3941.026,4190.513,0,0
469,113,0,3166,4222.179,4222.564,4220.128,4239.487,4236.41,4212.436,4185.769,4221.154,4228.462,4277.821,4252.821,4220.0,3990.897,4237.436,0,0
470,114,0,3330,4203.59,4207.821,4203.077,4228.59,4216.923,4203.077,4170.255999999999,4213.333,4222.564,4246.282,4222.9490000000005,4198.333,3971.667,4220.255999999999,0,0
471,115,0,3309,4195.641,4193.846,4199.103,4225.0,4228.462,4214.615,4168.462,4213.077,4216.795,4217.9490000000005,4209.231,4192.9490000000005,3966.795,4206.795,0,0
472,116,0,2748,4202.9490000000005,4198.718,4200.385,4226.667,4234.103,4207.821,4160.897,4191.154,4197.9490000000005,4225.513,4215.897,4197.564,3977.4359999999997,4207.308,0,0
473,117,0,3166,4177.308,4183.077,4171.795,4207.308,4191.538,4167.9490000000005,4132.692,4147.179,4163.846,4205.128,4189.872,4167.0509999999995,3948.8459999999995,4187.308,0,0
474,118,0,3330,4171.538,4182.179,4168.462,4208.077,4186.282,4168.718,4141.282,4161.282,4176.154,4205.255999999999,4185.255999999999,4161.282,3941.026,4183.077,0,0
475,119,0,3309,4198.205,4200.513,4190.0,4222.436,4221.41,4197.308,4160.641,4197.0509999999995,4210.641,4228.077,4212.821,4183.718,3965.7690000000002,4199.359,0,0
476,120,0,2748,4193.974,4199.487,4184.359,4216.667,4222.9490000000005,4190.769,4152.821,4185.385,4198.462,4221.026,4210.513,4178.974,3964.2309999999998,4201.923,0,0
477,121,0,3166,4174.103,4193.59,4174.103,4211.154,4201.282,4182.179,4151.667,4177.0509999999995,4183.846,4214.615,4200.0,4169.231,3959.8720000000003,4198.333,0,0
478,122,0,3330,4160.385,4182.0509999999995,4167.821,4202.436,4180.769,4181.795,4140.255999999999,4175.0,4187.308,4201.41,4193.846,4163.462,3955.1279999999997,4183.077,0,0
479,123,0,3309,4146.026,4160.641,4148.462,4179.872,4173.077,4169.872,4112.821,4144.615,4165.641,4168.59,4168.462,4141.538,3933.333,4159.359,0,0
480,124,0,2748,4161.026,4168.718,4153.205,4182.821,4200.385,4174.231,4129.615,4146.41,4160.513,4184.872,4166.41,4144.103,3942.179,4168.59,0,0
481,125,0,3166,4179.744000000001,4183.462,4172.564,4196.923,4212.179,4180.513,4150.0,4168.974,4184.615,4207.0509999999995,4186.795,4165.0,3957.5640000000003,4183.59,0,0
482,126,0,3330,4162.564,4170.513,4163.462,4185.385,4178.205,4169.872,4121.026,4150.385,4171.795,4189.615,4179.615,4158.333,3933.59,4169.872,0,0
483,127,0,52,4183.077,4190.897,4180.513,4199.359,4192.179,4187.0509999999995,4135.385,4164.744000000001,4173.59,4225.641,4192.308,4178.077,3955.0,4192.9490000000005,0,0
484,0,0,3108,4235.385,4232.692,4225.641,4239.359,4245.385,4212.179,4189.872,4221.026,4219.487,4264.231,4235.255999999999,4225.385,4013.077,4242.179,0,0
485,1,0,2736,4217.0509999999995,4211.026,4210.897,4225.128,4217.564,4189.872,4167.436,4203.59,4206.795,4210.769,4227.0509999999995,4210.897,3991.41,4227.436,0,0
486,2,0,3437,4176.41,4175.769,4172.0509999999995,4189.359,4166.026,4171.154,4119.359,4153.077,4161.667,4180.769,4190.385,4173.974,3949.8720000000003,4190.385,0,0
487,3,0,3426,4197.692,4197.0509999999995,4185.769,4205.769,4196.026,4189.487,4138.462,4174.615,4186.026,4242.564,4196.538,4188.462,3971.41,4206.667,0,0
488,4,0,3534,4207.821,4211.795,4199.359,4219.359,4214.872,4190.641,4156.667,4201.667,4214.359,4262.179,4206.795,4198.974,3983.8459999999995,4217.308,0,0
489,5,0,2888,4184.487,4194.872,4184.872,4203.077,4184.103,4183.718,4140.769,4184.487,4190.641,4206.923,4197.0509999999995,4183.333,3970.897,4194.615,0,0
490,6,0,2905,4185.128,4191.282,4176.795,4200.0,4182.436,4186.795,4136.923,4173.846,4181.538,4185.128,4198.974,4179.872,3973.205,4188.846,0,0
491,7,0,3441,4180.641,4181.923,4166.026,4196.154,4184.103,4166.282,4133.974,4161.795,4179.359,4186.154,4190.0,4168.333,3956.026,4181.667,0,0
492,8,0,2818,4185.641,4186.923,4175.513,4205.128,4190.255999999999,4164.872,4143.974,4169.872,4177.564,4213.974,4189.359,4172.564,3959.2309999999998,4186.026,0,0
493,9,0,3568,4204.103,4208.205,4195.128,4218.462,4215.641,4194.487,4157.9490000000005,4197.436,4199.487,4254.103,4210.641,4195.128,3999.3590000000004,4203.846,0,0
494,10,0,3319,4174.103,4182.564,4166.41,4184.872,4194.103,4186.282,4130.0,4179.359,4189.615,4208.846,4196.667,4173.846,3982.308,4181.026,0,0
495,11,0,3300,4151.41,4157.692,4145.897,4160.641,4161.41,4163.205,4115.897,4153.974,4161.026,4158.205,4175.385,4152.179,3949.8720000000003,4162.821,0,0
496,12,0,2751,4208.077,4203.718,4191.795,4209.103,4193.205,4187.821,4159.359,4192.9490000000005,4193.077,4226.026,4207.692,4191.923,3995.7690000000002,4211.154,0,0
497,13,0,3160,4245.385,4242.308,4221.538,4244.744000000001,4223.59,4212.821,4179.615,4227.436,4232.179,4295.641,4235.128,4221.282,4036.282,4245.385,0,0
498,14,0,3319,4206.41,4217.308,4192.0509999999995,4217.9490000000005,4209.231,4198.718,4147.692,4194.615,4204.487,4252.0509999999995,4208.205,4196.282,4007.051,4212.692,0,0
499,15,0,3300,4199.103,4210.385,4185.513,4210.897,4207.821,4195.0,4143.59,4177.692,4187.692,4205.128,4204.231,4190.128,3998.462,4202.692,0,0
500,16,0,0,4226.538,4231.026,4208.205,4231.026,4222.436,4205.641,4168.59,4208.077,4211.667,4221.154,4227.179,4207.9490000000005,4023.333,4223.462,0,0
501,17,0,0,4207.564,4215.385,4194.359,4217.692,4217.9490000000005,4196.795,4161.026,4205.0,4199.359,4224.744000000001,4208.718,4193.077,4006.282,4205.769,0,0
502,18,0,0,4169.103,4182.179,4163.846,4184.872,4196.282,4177.308,4131.282,4162.9490000000005,4162.0509999999995,4202.0509999999995,4175.255999999999,4162.9490000000005,3969.615,4173.974,0,0
503,19,0,0,4178.077,4181.795,4171.41,4187.692,4185.641,4175.897,4131.41,4160.769,4168.462,4201.026,4182.308,4165.769,3976.41,4179.487,0,0
504,20,0,0,4201.795,4197.308,4191.282,4209.103,4187.692,4184.359,4148.59,4187.436,4192.0509999999995,4216.923,4198.333,4184.872,3997.692,4195.385,0,0
505,21,0,0,4179.744000000001,4180.128,4173.205,4195.128,4176.667,4173.077,4131.282,4165.255999999999,4175.641,4202.821,4173.077,4168.846,3978.333,4175.385,0,0
506,22,1,0,4182.9490000000005,4181.667,4175.769,4194.615,4180.128,4176.41,4135.385,4170.641,4179.487,4206.667,4177.308,4172.0509999999995,3985.1279999999997,4178.205,0,0
507,23,1,0,4186.154,4183.205,4178.333,4194.103,4183.59,4179.744000000001,4139.487,4176.026,4183.333,4210.513,4181.538,4175.255999999999,3991.923,4181.026,0,0
508,24,1,0,4189.359,4184.744000000001,4180.897,4193.59,4187.0509999999995,4183.077,4143.59,4181.41,4187.179,4214.359,4185.769,4178.462,3998.718,4183.846,0,0
509,25,1,0,4192.564,4186.282,4183.462,4193.077,4190.513,4186.41,4147.692,4186.795,4191.026,4218.205,4190.0,4181.667,4005.513,4186.667,0,0
510,26,1,0,4195.769,4187.821,4186.026,4192.564,4193.974,4189.744000000001,4151.795,4192.179,4194.872,4222.0509999999995,4194.231,4184.872,4012.308,4189.487,0,0
511,27,1,0,4198.974,4189.359,4188.59,4192.0509999999995,4197.436,4193.077,4155.897,4197.564,4198.718,4225.897,4198.462,4188.077,4019.103,4192.308,0,0
512,28,0,0,4202.436,4191.154,4191.282,4191.538,4201.282,4196.41,4160.769,4203.333,4202.821,4230.128,4202.692,4191.41,4025.897,4195.385,0,0
513,29,0,0,4180.255999999999,4187.308,4176.41,4181.154,4190.513,4181.795,4139.615,4173.462,4183.462,4193.59,4184.487,4166.154,4008.8459999999995,4179.359,0,0
514,30,0,0,4193.205,4202.692,4187.0509999999995,4197.821,4200.0,4191.795,4145.769,4177.308,4183.205,4217.436,4181.795,4171.795,4014.487,4190.255999999999,0,0
515,31,0,0,4207.692,4206.154,4196.538,4202.308,4219.615,4198.077,4157.0509999999995,4194.744000000001,4192.564,4236.795,4194.359,4189.359,4026.41,4202.436,0,0
516,32,0,0,4187.692,4187.308,4179.359,4181.154,4200.769,4185.128,4144.744000000001,4182.9490000000005,4182.179,4213.333,4183.077,4180.0,4010.513,4182.821,0,0
517,33,0,0,4178.077,4179.103,4166.923,4176.282,4171.154,4180.513,4132.308,4166.667,4168.974,4193.974,4169.103,4167.692,3992.5640000000003,4168.974,0,0
518,34,0,0,4193.077,4191.282,4178.846,4193.59,4183.59,4185.385,4142.9490000000005,4175.385,4176.538,4195.641,4191.282,4180.128,4006.795,4191.41,0,0
519,35,0,0,4193.846,4196.282,4191.538,4199.231,4202.308,4185.255999999999,4163.333,4198.846,4198.077,4219.359,4203.59,4192.436,4023.718,4205.0,0,0
520,36,0,0,4186.795,4187.179,4182.564,4184.359,4195.769,4185.128,4167.436,4206.154,4206.538,4229.359,4187.436,4184.744000000001,4018.462,4192.692,0,0
521,37,0,0,4190.385,4178.974,4169.359,4170.255999999999,4193.077,4186.282,4153.333,4185.897,4185.513,4202.436,4181.538,4176.026,4015.385,4187.9490000000005,0,0
522,38,0,0,4175.385,4164.872,4162.436,4166.154,4183.333,4180.0,4130.641,4164.487,4162.9490000000005,4186.795,4174.231,4165.641,4012.4359999999997,4177.436,0,0
523,39,0,0,4170.769,4170.0,4171.026,4174.615,4181.923,4188.333,4142.436,4189.103,4187.179,4223.333,4168.846,4169.487,4011.41,4174.615,0,0
524,40,0,0,4207.436,4208.59,4199.487,4198.462,4206.154,4215.513,4187.0509999999995,4236.538,4225.897,4250.128,4195.255999999999,4199.744000000001,4038.718,4204.872,0,0
525,41,0,0,4219.744000000001,4219.103,4209.359,4213.59,4204.615,4218.462,4191.026,4228.846,4215.255999999999,4234.103,4207.9490000000005,4210.769,4062.308,4220.128,0,0
526,42,0,0,4190.513,4192.821,4190.769,4195.255999999999,4195.385,4199.103,4165.513,4195.769,4190.769,4224.615,4181.41,4189.615,4051.026,4200.897,0,0
527,43,0,0,4183.846,4190.128,4183.462,4181.282,4203.974,4200.385,4168.974,4201.154,4200.128,4223.462,4176.026,4182.179,4038.333,4191.795,0,0
528,44,0,0,4192.179,4197.308,4185.513,4186.41,4195.897,4206.667,4173.59,4208.333,4207.692,4222.692,4189.744000000001,4184.359,4033.974,4190.769,0,0
529,45,0,0,4178.846,4176.41,4172.692,4178.974,4185.0,4181.538,4153.974,4183.077,4186.923,4199.872,4175.0,4167.0509999999995,4017.821,4173.974,0,0
530,46,0,0,4170.128,4162.9490000000005,4164.359,4168.462,4195.769,4163.205,4150.0,4164.615,4165.769,4156.41,4153.718,4154.487,4001.026,4159.744000000001,0,0
531,47,0,0,4164.615,4163.462,4168.59,4169.744000000001,4188.974,4179.487,4156.026,4172.308,4168.205,4150.897,4149.231,4155.641,3993.333,4152.308,0,0
532,48,0,0,4157.436,4158.59,4170.255999999999,4169.872,4174.359,4194.615,4147.436,4184.359,4182.821,4200.769,4154.744000000001,4159.872,3998.59,4152.9490000000005,0,0
533,49,0,0,4178.462,4175.769,4183.077,4179.103,4194.615,4194.103,4157.308,4202.821,4197.692,4247.692,4172.0509999999995,4184.103,4034.744,4178.333,0,0
534,50,0,0,4211.923,4206.667,4205.385,4200.641,4205.513,4202.436,4175.0,4221.667,4209.744000000001,4246.282,4191.41,4207.436,4069.3590000000004,4207.0509999999995,0,0
535,51,0,0,4205.255999999999,4200.769,4196.795,4193.974,4188.077,4203.59,4157.564,4205.513,4198.333,4215.255999999999,4190.897,4193.59,4055.6409999999996,4199.744000000001,0,0
536,52,0,0,4171.41,4174.359,4167.179,4167.564,4181.538,4175.255999999999,4129.744000000001,4167.692,4167.179,4188.462,4174.615,4166.154,4021.795,4169.744000000001,0,0
537,53,0,0,4172.179,4182.179,4169.103,4175.255999999999,4197.0509999999995,4162.692,4132.692,4171.795,4167.308,4196.667,4168.846,4165.513,4016.667,4168.462,0,0
538,54,0,0,4197.9490000000005,4206.41,4194.487,4200.128,4208.59,4192.9490000000005,4151.923,4202.308,4196.282,4219.872,4174.103,4178.462,4030.513,4185.769,0,0
539,55,0,0,4211.154,4219.231,4209.615,4211.282,4218.846,4220.769,4166.667,4210.769,4208.846,4238.718,4187.821,4188.59,4048.59,4196.795,0,0
540,56,0,0,4201.538,4215.513,4201.538,4204.487,4221.41,4212.692,4166.154,4199.231,4194.487,4229.615,4194.615,4187.821,4058.205,4195.513,0,0
541,57,0,0,4188.333,4201.795,4188.462,4191.538,4207.179,4195.769,4153.462,4193.462,4181.282,4199.744000000001,4186.282,4180.0,4047.692,4186.795,0,0
542,58,0,0,4190.128,4203.077,4191.923,4190.769,4207.308,4197.436,4151.795,4196.667,4185.641,4212.9490000000005,4181.667,4180.513,4040.385,4186.923,0,0
543,59,0,0,4199.231,4215.769,4197.9490000000005,4196.41,4214.744000000001,4204.359,4158.718,4202.692,4197.0509999999995,4241.538,4185.769,4186.154,4053.077,4197.436,0,0
544,60,0,0,4206.923,4217.692,4193.205,4196.795,4201.795,4201.923,4158.333,4209.615,4201.538,4227.564,4188.462,4186.795,4058.462,4204.103,0,0
545,61,0,0,4200.641,4207.564,4190.769,4193.974,4196.795,4198.333,4154.103,4200.641,4195.513,4208.077,4186.282,4184.872,4046.026,4199.744000000001,0,0
546,62,0,0,4187.9490000000005,4201.026,4196.026,4193.974,4208.333,4198.718,4155.128,4191.026,4193.462,4220.255999999999,4186.923,4184.359,4044.2309999999998,4195.128,0,0
547,63,0,0,4190.641,4201.538,4198.333,4195.0,4207.9490000000005,4199.231,4160.897,4206.026,4201.923,4234.231,4190.641,4188.205,4056.1540000000005,4196.667,0,0
548,64,0,3119,4213.462,4216.154,4210.769,4208.462,4212.436,4204.615,4172.564,4227.0509999999995,4213.59,4236.795,4201.41,4203.333,4066.795,4211.667,0,0
549,65,0,2746,4219.744000000001,4225.641,4218.333,4220.255999999999,4222.0509999999995,4205.769,4175.897,4218.462,4209.231,4224.231,4207.0509999999995,4206.795,4060.6409999999996,4217.308,0,0
550,66,0,3451,4185.641,4194.615,4187.436,4195.513,4199.487,4190.255999999999,4150.513,4182.692,4176.538,4191.667,4178.205,4171.154,4030.513,4186.282,0,0
551,67,0,3440,4145.0,4151.667,4145.641,4163.333,4164.615,4165.513,4112.179,4148.462,4141.795,4153.333,4138.974,4130.769,3997.949,4143.077,0,0
552,68,0,3553,4135.641,4148.59,4138.974,4168.077,4166.41,4165.255999999999,4106.923,4143.205,4142.9490000000005,4140.128,4141.026,4129.103,3998.974,4137.308,0,0
553,69,0,2902,4161.923,4180.255999999999,4167.0509999999995,4199.615,4192.436,4192.0509999999995,4140.255999999999,4177.436,4174.487,4167.179,4171.41,4155.641,4038.974,4170.641,0,0
554,70,0,2917,4185.897,4202.436,4188.205,4225.128,4194.744000000001,4207.179,4161.154,4204.872,4196.154,4186.41,4188.846,4172.179,4065.0,4191.41,0,0
555,71,0,3466,4188.333,4199.103,4189.487,4233.205,4187.308,4198.718,4151.795,4205.385,4203.077,4187.821,4194.359,4172.308,4052.692,4186.923,0,0
556,72,0,2837,4186.41,4190.513,4181.026,4221.026,4207.308,4191.154,4132.436,4198.974,4199.103,4203.718,4193.59,4170.897,4044.615,4185.513,0,0
557,73,0,3589,4176.923,4186.667,4171.282,4201.538,4209.103,4185.513,4113.462,4186.538,4179.487,4194.103,4180.897,4166.667,4052.692,4183.718,0,0
558,74,0,3310,4175.128,4188.59,4177.436,4204.615,4183.333,4185.255999999999,4113.846,4190.513,4184.487,4168.333,4183.333,4167.9490000000005,4056.282,4182.9490000000005,0,0
559,75,0,3316,4193.077,4192.0509999999995,4189.359,4220.513,4189.615,4190.513,4124.744000000001,4207.564,4205.0,4190.385,4198.846,4177.308,4053.718,4193.718,0,0
560,76,0,2769,4186.795,4185.385,4176.41,4214.872,4193.333,4176.154,4110.513,4187.692,4182.692,4186.41,4184.359,4168.077,4039.2309999999998,4184.487,0,0
561,77,0,3181,4166.538,4180.128,4161.41,4201.154,4167.179,4171.41,4097.436,4163.333,4156.667,4138.974,4166.667,4156.538,4028.205,4167.692,0,0
562,78,0,3310,4178.974,4185.0,4168.974,4203.205,4167.308,4193.974,4110.641,4176.795,4170.385,4155.255999999999,4175.513,4164.872,4046.1540000000005,4175.385,0,0
563,79,0,3316,4183.974,4178.077,4167.0509999999995,4201.41,4188.462,4192.436,4109.103,4177.308,4176.538,4193.205,4172.821,4160.0,4057.692,4172.179,0,0
564,80,0,2769,4155.897,4164.872,4154.615,4188.205,4185.641,4165.641,4091.795,4161.667,4168.718,4177.564,4160.255999999999,4141.667,4041.1540000000005,4157.308,0,0
565,81,0,3181,4142.564,4164.872,4148.333,4180.385,4156.795,4148.333,4085.513,4156.538,4163.974,4162.436,4157.436,4134.231,4029.615,4155.769,0,0
566,82,0,3310,4160.769,4176.282,4152.9490000000005,4188.462,4156.41,4152.821,4093.974,4163.205,4164.103,4170.385,4167.179,4144.744000000001,4046.795,4166.538,0,0
567,83,0,3316,4192.436,4196.667,4176.538,4208.462,4205.385,4183.077,4117.821,4190.897,4189.487,4169.231,4193.59,4174.359,4077.821,4188.974,0,0
568,84,0,2769,4208.718,4208.077,4188.205,4215.769,4223.333,4204.487,4130.0,4208.205,4210.255999999999,4185.769,4208.077,4188.846,4085.385,4205.641,0,0
569,85,0,3181,4185.769,4190.255999999999,4167.0509999999995,4202.692,4176.282,4187.0509999999995,4113.077,4186.538,4188.846,4216.41,4185.128,4165.641,4060.0,4188.974,0,0
570,86,0,3310,4170.255999999999,4181.154,4162.436,4201.538,4163.59,4174.872,4106.538,4177.821,4180.769,4217.436,4180.641,4162.0509999999995,4053.718,4176.282,0,0
571,87,0,3316,4197.308,4201.538,4184.231,4216.667,4205.897,4192.0509999999995,4126.795,4202.308,4200.128,4201.41,4211.282,4187.821,4086.923,4196.923,0,0
572,88,0,2769,4206.923,4201.154,4185.128,4211.154,4210.641,4194.231,4135.897,4209.872,4201.282,4202.0509999999995,4205.897,4180.128,4093.718,4195.897,0,0
573,89,0,3181,4175.513,4173.333,4162.436,4188.077,4178.333,4175.769,4120.0,4189.359,4183.205,4186.026,4172.0509999999995,4152.179,4059.487,4162.308,0,0
574,90,0,3310,4154.872,4160.255999999999,4146.282,4177.821,4160.897,4160.513,4096.154,4156.667,4157.0509999999995,4145.385,4158.59,4142.564,4039.103,4145.641,0,0
575,91,0,3316,4170.255999999999,4174.231,4158.077,4190.0,4160.769,4163.462,4097.179,4150.641,4153.205,4162.821,4170.128,4155.385,4058.718,4168.205,0,0
576,92,0,2769,4193.59,4190.641,4185.769,4207.564,4175.385,4184.359,4125.255999999999,4188.718,4187.821,4216.795,4188.974,4181.026,4086.026,4197.0509999999995,0,0
577,93,0,3181,4182.179,4178.077,4176.667,4195.769,4176.538,4175.641,4120.385,4193.205,4190.255999999999,4193.077,4178.077,4174.103,4066.923,4181.923,0,0
578,94,0,3310,4155.769,4159.103,4149.231,4172.9490000000005,4153.077,4151.538,4090.6409999999996,4152.308,4153.077,4135.385,4151.41,4145.897,4028.333,4152.564,0,0
579,95,0,3316,4183.718,4183.718,4175.769,4196.923,4166.154,4176.538,4117.564,4169.487,4168.974,4167.821,4175.128,4169.615,4052.692,4178.205,0,0
580,96,0,2769,4236.282,4224.487,4220.897,4235.385,4219.103,4213.333,4167.692,4229.487,4219.744000000001,4240.385,4221.154,4216.538,4113.077,4224.872,0,0
581,97,0,3181,4225.513,4221.026,4207.436,4221.282,4223.077,4198.077,4155.385,4226.538,4215.513,4242.179,4205.769,4205.255999999999,4109.872,4213.718,0,0
582,98,0,3310,4175.385,4187.179,4163.462,4184.487,4171.795,4163.462,4110.513,4176.667,4177.179,4187.179,4164.231,4161.795,4059.8720000000003,4170.385,0,0
583,99,0,3316,4162.436,4169.231,4151.41,4178.974,4149.103,4157.0509999999995,4100.0,4163.205,4164.872,4156.667,4164.872,4151.795,4047.051,4156.923,0,0
584,100,0,2769,4172.564,4170.255999999999,4161.923,4187.0509999999995,4166.795,4161.667,4114.872,4180.255999999999,4172.821,4178.205,4177.308,4159.872,4062.4359999999997,4163.846,0,0
585,101,0,3181,4167.436,4177.179,4164.744000000001,4184.744000000001,4184.359,4165.128,4117.179,4175.641,4169.615,4191.538,4170.128,4155.641,4067.5640000000003,4166.282,0,0
586,102,0,3310,4169.103,4186.026,4167.9490000000005,4186.923,4188.333,4171.795,4116.795,4168.846,4168.205,4184.615,4171.923,4157.821,4070.256,4171.282,0,0
587,103,0,3316,4166.795,4172.0509999999995,4158.205,4182.821,4165.128,4165.255999999999,4111.41,4156.282,4163.59,4163.846,4170.641,4153.077,4059.2309999999998,4158.462,0,0
588,104,0,2769,4140.255999999999,4145.128,4132.692,4165.897,4139.872,4146.538,4093.077,4121.154,4138.077,4119.231,4148.59,4125.641,4032.051,4128.974,0,0
589,105,0,3181,4135.513,4151.154,4134.872,4168.846,4155.769,4149.359,4097.308,4122.564,4134.359,4122.308,4146.41,4124.615,4035.385,4131.282,0,0
590,106,0,3310,4171.538,4185.255999999999,4169.872,4192.821,4196.923,4183.59,4136.538,4177.0509999999995,4175.641,4195.513,4178.333,4162.821,4080.1279999999997,4165.0,0,0
591,107,0,3316,4196.923,4205.769,4186.41,4206.923,4205.641,4200.641,4162.436,4205.641,4209.487,4236.41,4199.872,4181.41,4103.974,4187.436,0,0
592,108,0,2769,4186.667,4198.718,4171.667,4202.692,4187.0509999999995,4183.718,4151.282,4187.821,4200.385,4211.026,4189.615,4168.077,4091.1540000000005,4182.0509999999995,0,0
593,109,0,3181,4182.692,4190.0,4171.282,4200.128,4194.103,4182.308,4149.487,4190.641,4186.026,4190.385,4182.564,4167.9490000000005,4094.8720000000003,4178.077,0,0
594,110,0,3310,4193.974,4196.282,4188.718,4206.41,4200.513,4197.436,4162.436,4206.538,4190.255999999999,4191.538,4193.59,4182.308,4110.513,4186.154,0,0
595,111,0,3316,4178.205,4182.9490000000005,4176.667,4196.41,4177.564,4186.667,4142.9490000000005,4184.872,4180.513,4184.615,4186.154,4171.41,4092.949,4173.333,0,0
596,112,0,2769,4150.897,4158.462,4150.641,4176.154,4173.333,4162.179,4115.513,4158.077,4164.487,4187.436,4163.846,4148.333,4068.077,4148.846,0,0
597,113,0,3181,4164.103,4174.231,4164.103,4181.538,4189.231,4163.846,4131.538,4176.795,4184.744000000001,4211.026,4174.231,4157.9490000000005,4085.0,4160.513,0,0
598,114,0,3310,4183.333,4190.128,4178.718,4194.744000000001,4181.923,4177.692,4147.308,4196.154,4202.436,4212.436,4188.59,4170.255999999999,4102.179,4175.641,0,0
599,115,0,3316,4149.872,4153.974,4141.154,4171.154,4152.692,4165.255999999999,4109.103,4152.564,4163.077,4170.255999999999,4156.923,4135.0,4066.1540000000005,4139.615,0,0
600,116,0,2769,4131.795,4146.026,4128.077,4155.641,4149.615,4163.59,4098.205,4133.462,4144.615,4160.255999999999,4142.564,4121.538,4050.0,4124.872,0,0
601,117,0,3181,4170.513,4190.128,4168.846,4186.795,4178.59,4193.462,4145.0,4181.667,4186.282,4193.462,4173.846,4159.872,4093.718,4163.462,0,0
602,118,0,3310,4174.487,4185.513,4169.103,4192.692,4182.179,4189.615,4147.436,4184.872,4191.923,4180.513,4172.821,4156.41,4103.718,4161.41,0,0
603,119,0,3316,4144.872,4149.872,4133.462,4162.308,4161.795,4156.795,4113.462,4148.462,4161.795,4163.462,4142.692,4121.667,4074.8720000000003,4129.103,0,0
604,120,0,2769,4154.103,4160.769,4141.026,4161.923,4166.154,4164.872,4127.821,4165.897,4172.179,4196.795,4148.846,4137.564,4085.385,4142.308,0,0
605,121,0,3181,4170.897,4174.744000000001,4166.282,4180.897,4173.205,4188.462,4149.103,4193.59,4192.308,4210.769,4168.846,4166.026,4105.0,4163.333,0,0
606,122,0,3310,4157.308,4159.231,4161.41,4175.0,4156.538,4166.923,4125.769,4172.308,4179.231,4188.59,4160.385,4155.0,4089.3590000000004,4151.538,0,0
607,123,0,3316,4144.872,4149.615,4145.641,4156.795,4145.128,4135.385,4101.923,4144.103,4155.897,4149.872,4139.359,4135.385,4069.103,4135.897,0,0
608,124,0,2769,4140.897,4146.795,4137.9490000000005,4147.692,4141.538,4134.231,4097.0509999999995,4130.641,4145.385,4112.308,4130.769,4127.436,4056.538,4128.333,0,0
609,125,0,3181,4153.974,4156.41,4153.974,4156.538,4142.821,4160.255999999999,4113.205,4146.923,4162.436,4149.231,4147.564,4142.564,4070.7690000000002,4145.897,0,0
610,126,0,3310,4179.103,4180.385,4178.718,4178.718,4161.538,4181.795,4136.41,4177.308,4180.513,4215.641,4163.462,4166.026,4101.538,4173.718,0,0
611,127,0,52,4160.897,4160.641,4158.205,4167.564,4161.026,4158.718,4117.9490000000005,4153.077,4155.385,4181.795,4137.564,4143.846,4076.538,4148.846,0,0
612,0,0,3120,4140.641,4139.487,4137.179,4148.974,4157.308,4143.462,4104.359,4131.538,4144.103,4136.923,4126.154,4121.154,4053.333,4127.821,0,0
613,1,0,2752,4165.513,4173.974,4163.59,4168.974,4178.077,4169.615,4133.333,4162.179,4170.385,4172.9490000000005,4160.897,4146.795,4097.692,4159.872,0,0
614,2,0,3449,4176.282,4188.974,4178.333,4181.41,4181.026,4181.282,4139.359,4166.667,4167.179,4191.154,4169.744000000001,4162.436,4117.0509999999995,4168.462,0,0
615,3,0,3445,4168.718,4173.718,4166.667,4176.923,4165.385,4170.513,4122.821,4152.179,4149.487,4168.333,4156.026,4153.333,4093.8459999999995,4156.41,0,0
616,4,0,3537,4161.795,4167.308,4154.231,4169.103,4157.821,4156.538,4112.821,4155.641,4161.154,4159.615,4160.385,4145.513,4082.949,4158.077,0,0
617,5,0,2907,4131.923,4142.564,4128.462,4143.59,4141.282,4131.923,4088.974,4128.974,4150.641,4147.436,4145.385,4119.615,4056.667,4131.282,0,0
618,6,0,2906,4134.615,4142.308,4134.487,4149.231,4147.692,4147.436,4101.154,4128.462,4138.333,4159.615,4141.026,4121.923,4060.6409999999996,4125.769,0,0
619,7,0,3474,4190.385,4195.255999999999,4186.923,4197.308,4187.9490000000005,4203.462,4156.41,4193.974,4178.718,4209.103,4184.231,4177.436,4129.103,4182.821,0,0
620,8,0,2829,4178.846,4187.9490000000005,4178.333,4187.0509999999995,4174.103,4195.769,4147.564,4189.872,4181.795,4197.0509999999995,4177.179,4170.0,4125.255999999999,4177.564,0,0
621,9,0,3592,4111.923,4127.436,4121.41,4137.179,4120.641,4153.077,4105.513,4126.923,4139.615,4140.769,4120.641,4110.513,4054.8720000000003,4112.308,0,0
622,10,0,3321,4122.436,4141.282,4130.897,4148.974,4138.205,4166.667,4119.487,4138.718,4150.769,4145.385,4131.41,4125.385,4065.7690000000002,4125.0,0,0
623,11,0,3325,4173.333,4188.462,4173.974,4179.872,4190.128,4193.205,4145.0,4177.692,4176.795,4171.154,4178.59,4173.59,4118.205,4175.641,0,0
624,12,0,2767,4171.923,4184.615,4173.205,4177.436,4178.205,4186.795,4146.667,4173.59,4165.255999999999,4174.615,4175.385,4168.59,4118.333,4170.513,0,0
625,13,0,3186,4150.769,4164.487,4154.872,4168.974,4146.41,4176.538,4138.974,4162.179,4161.41,4189.231,4152.564,4147.179,4102.0509999999995,4147.821,0,0
626,14,0,3321,4143.462,4158.462,4146.667,4159.615,4147.564,4172.179,4121.923,4149.872,4162.308,4184.103,4146.41,4138.59,4089.103,4140.641,0,0
627,15,0,3325,4134.872,4147.0509999999995,4141.41,4149.231,4149.231,4162.179,4112.692,4132.564,4141.795,4141.282,4141.282,4127.821,4070.0,4131.026,0,0
628,16,0,0,4130.385,4136.923,4142.0509999999995,4150.128,4139.231,4157.9490000000005,4121.026,4133.462,4138.205,4130.385,4136.282,4127.0509999999995,4064.487,4125.769,0,0
629,17,0,0,4142.9490000000005,4146.41,4148.846,4160.255999999999,4140.385,4167.692,4130.897,4153.077,4157.436,4161.41,4143.846,4139.359,4079.487,4133.974,0,0
630,18,0,0,4163.333,4162.0509999999995,4164.231,4171.41,4155.128,4188.718,4148.846,4185.769,4184.359,4196.026,4162.308,4154.744000000001,4115.0,4151.154,0,0
631,19,0,0,4164.103,4158.462,4166.795,4166.795,4156.154,4187.692,4157.308,4197.308,4193.205,4201.026,4166.154,4156.667,4133.333,4155.385,0,0
632,20,0,0,4138.205,4139.359,4143.077,4145.641,4141.667,4161.667,4130.641,4158.077,4159.487,4161.923,4146.923,4135.513,4105.128,4134.487,0,0
633,21,0,0,4124.231,4132.692,4127.436,4141.282,4135.255999999999,4155.385,4107.564,4122.692,4130.0,4134.872,4133.205,4123.846,4081.923,4119.487,0,0
634,22,0,0,4131.282,4140.641,4131.282,4148.59,4138.205,4161.026,4109.487,4125.128,4131.795,4139.872,4133.718,4129.103,4088.718,4119.487,0,0
635,23,0,0,4145.0,4155.769,4146.41,4157.308,4141.667,4166.538,4127.9490000000005,4148.077,4149.615,4149.872,4145.897,4139.359,4111.795,4131.538,0,0
636,24,0,0,4164.872,4171.154,4166.154,4173.974,4158.846,4180.641,4148.846,4175.0,4175.641,4179.231,4162.179,4156.795,4138.077,4155.769,0,0
637,25,0,0,4173.974,4171.154,4167.692,4178.333,4181.282,4189.615,4148.077,4178.718,4181.538,4209.744000000001,4162.0509999999995,4163.205,4145.641,4163.974,0,0
638,26,0,0,4169.744000000001,4168.846,4159.615,4173.462,4184.487,4183.462,4143.974,4165.385,4166.026,4203.077,4156.538,4154.487,4134.487,4154.231,0,0
639,27,0,0,4167.9490000000005,4174.744000000001,4163.462,4176.923,4179.487,4179.487,4151.795,4166.667,4169.103,4187.436,4164.487,4155.641,4124.359,4154.487,0,0
640,28,0,0,4165.128,4169.744000000001,4160.641,4171.667,4174.231,4183.59,4145.385,4171.538,4178.077,4187.179,4163.846,4158.205,4117.436,4154.615,0,0
641,29,0,0,4161.538,4159.744000000001,4153.59,4165.255999999999,4161.923,4182.692,4135.769,4163.718,4165.255999999999,4186.154,4150.128,4147.692,4111.923,4145.769,0,0
642,30,0,0,4175.385,4170.255999999999,4169.359,4180.769,4174.231,4187.564,4153.205,4170.255999999999,4164.872,4188.718,4160.385,4152.9490000000005,4127.308,4155.255999999999,0,0
643,31,0,0,4180.255999999999,4175.897,4176.282,4180.641,4204.231,4192.179,4158.846,4182.308,4180.641,4191.026,4177.179,4163.205,4134.872,4166.795,0,0
644,32,0,0,4148.077,4146.282,4146.667,4147.692,4180.255999999999,4177.308,4127.179,4161.41,4167.0509999999995,4171.026,4151.667,4141.282,4104.103,4140.769,0,0
645,33,0,0,4123.59,4122.9490000000005,4129.359,4139.615,4130.513,4162.436,4111.41,4136.538,4142.821,4150.0,4121.538,4118.462,4080.6409999999996,4113.077,0,0
646,34,0,0,4127.564,4127.692,4136.154,4152.821,4135.513,4161.154,4121.923,4134.103,4136.41,4143.59,4126.538,4117.821,4085.385,4114.359,0,0
647,35,0,0,4136.923,4135.641,4143.333,4157.436,4154.615,4162.9490000000005,4132.436,4136.795,4139.231,4145.897,4141.282,4126.282,4093.333,4121.41,0,0
648,36,0,0,4143.59,4143.974,4152.821,4169.231,4156.154,4167.0509999999995,4137.821,4143.846,4148.333,4157.436,4149.615,4140.513,4097.692,4128.462,0,0
649,37,0,0,4153.718,4161.538,4168.333,4191.41,4176.923,4183.846,4143.077,4164.103,4165.0,4174.231,4169.103,4155.641,4114.744000000001,4149.615,0,0
650,38,0,0,4162.436,4176.154,4170.897,4201.795,4195.513,4193.462,4143.974,4176.154,4174.103,4184.872,4186.538,4158.333,4128.59,4163.846,0,0
651,39,0,0,4161.795,4173.077,4158.974,4198.974,4188.077,4185.255999999999,4142.308,4172.0509999999995,4174.103,4189.359,4187.821,4155.513,4124.615,4152.179,0,0
652,40,0,0,4157.308,4162.179,4154.744000000001,4197.436,4175.769,4179.744000000001,4143.205,4170.255999999999,4174.615,4184.487,4186.154,4153.205,4118.462,4144.359,0,0
653,41,0,0,4150.385,4156.026,4150.255999999999,4196.154,4168.205,4177.0509999999995,4138.462,4163.846,4166.41,4170.385,4177.821,4138.974,4111.667,4143.077,0,0
654,42,0,0,4149.359,4161.282,4147.692,4200.641,4171.41,4170.385,4136.154,4155.897,4159.231,4166.538,4170.641,4133.974,4106.538,4142.9490000000005,0,0
655,43,0,0,4151.026,4160.769,4151.795,4205.641,4171.538,4166.538,4137.564,4154.359,4165.0,4166.923,4178.333,4147.821,4105.0,4150.128,0,0
656,44,0,0,4156.026,4152.0509999999995,4152.9490000000005,4200.513,4161.41,4177.179,4135.641,4154.872,4171.538,4164.744000000001,4186.41,4154.744000000001,4105.128,4155.255999999999,0,0
657,45,0,0,4169.744000000001,4159.744000000001,4155.385,4199.615,4172.179,4186.41,4138.462,4159.103,4166.282,4163.974,4186.026,4153.59,4105.897,4156.154,0,0
658,46,0,0,4167.9490000000005,4166.41,4155.128,4198.846,4187.0509999999995,4171.41,4138.462,4160.385,4159.615,4157.821,4180.128,4149.103,4107.821,4151.154,0,0
659,47,0,0,4162.692,4167.436,4158.462,4198.462,4180.255999999999,4162.821,4136.41,4167.179,4175.769,4169.103,4182.821,4150.641,4124.103,4154.103,0,0
660,48,0,0,4169.872,4172.9490000000005,4161.282,4199.744000000001,4174.744000000001,4177.179,4136.795,4171.538,4184.103,4193.974,4190.769,4160.385,4138.59,4163.846,0,0
661,49,0,0,4163.205,4163.462,4148.974,4189.744000000001,4161.538,4177.821,4127.821,4145.769,4159.744000000001,4179.487,4178.462,4151.026,4126.795,4153.333,0,0
662,50,0,0,4151.795,4149.487,4136.923,4178.333,4149.487,4163.718,4117.0509999999995,4123.59,4143.333,4142.9490000000005,4162.436,4130.769,4115.0,4137.436,0,0
663,51,0,0,4162.9490000000005,4160.769,4148.333,4185.641,4178.077,4170.897,4128.462,4147.9490000000005,4160.513,4159.487,4175.255999999999,4143.333,4130.128,4149.615,0,0
664,52,0,0,4176.795,4175.769,4166.538,4202.179,4203.333,4188.846,4147.9490000000005,4175.513,4184.872,4197.179,4191.154,4166.282,4144.359,4170.0,0,0
665,53,0,0,4176.026,4168.462,4164.615,4200.513,4181.923,4186.923,4150.255999999999,4166.026,4189.359,4182.692,4182.692,4158.974,4134.615,4167.821,0,0
666,54,0,0,4181.026,4171.667,4162.0509999999995,4198.462,4173.846,4178.974,4150.897,4163.974,4179.744000000001,4161.667,4178.205,4155.641,4133.462,4164.359,0,0
667,55,0,0,4188.718,4191.026,4171.41,4211.667,4196.282,4186.026,4159.487,4180.769,4178.077,4186.41,4188.462,4172.436,4152.9490000000005,4171.026,0,0
668,56,0,0,4183.974,4195.385,4173.846,4213.077,4203.846,4191.026,4158.718,4174.872,4180.513,4207.436,4188.462,4174.872,4152.692,4174.359,0,0
669,57,0,0,4181.538,4185.128,4164.872,4199.103,4199.487,4183.59,4149.359,4165.385,4177.179,4187.436,4182.9490000000005,4162.692,4140.641,4176.538,0,0
670,58,0,0,4190.0,4181.795,4163.333,4195.128,4198.59,4186.667,4150.385,4178.205,4181.923,4173.846,4186.923,4160.0,4154.103,4180.385,0,0
671,59,0,0,4197.564,4198.333,4175.0,4207.0509999999995,4203.205,4199.359,4160.897,4184.872,4190.641,4200.0,4193.59,4168.974,4170.0,4187.179,0,0
672,60,0,0,4190.0,4199.744000000001,4172.0509999999995,4206.282,4194.872,4195.897,4149.615,4161.923,4176.026,4201.923,4186.282,4163.974,4155.255999999999,4182.179,0,0
673,61,0,0,4185.128,4186.538,4162.436,4195.128,4189.231,4187.308,4132.436,4146.282,4160.385,4171.282,4177.179,4153.205,4141.154,4171.795,0,0
674,62,0,0,4208.205,4205.641,4180.128,4210.513,4213.974,4197.821,4151.923,4174.103,4182.692,4190.255999999999,4195.513,4173.462,4161.795,4190.255999999999,0,0
675,63,0,0,4226.923,4231.667,4201.41,4230.128,4229.231,4214.487,4178.974,4205.255999999999,4206.538,4231.154,4219.359,4199.231,4183.718,4215.769,0,0
676,64,0,3131,4220.641,4230.0,4199.103,4227.692,4222.692,4219.487,4176.667,4205.641,4205.128,4226.923,4220.385,4197.0509999999995,4188.718,4216.41,0,0
677,65,0,2754,4214.615,4224.231,4196.538,4221.538,4225.128,4210.255999999999,4169.615,4199.103,4202.692,4223.077,4216.667,4192.0509999999995,4190.128,4210.641,0,0
678,66,0,3459,4220.641,4227.436,4204.231,4223.077,4223.077,4197.9490000000005,4175.385,4206.026,4212.9490000000005,4248.846,4220.513,4200.0,4191.282,4215.897,0,0
679,67,0,3454,4225.385,4223.846,4202.0509999999995,4217.179,4211.41,4199.359,4174.231,4207.0509999999995,4213.59,4247.0509999999995,4219.359,4202.821,4188.846,4215.513,0,0
680,68,0,3563,4225.0,4225.0,4197.436,4213.718,4217.692,4209.872,4167.9490000000005,4196.923,4196.667,4224.103,4212.821,4199.487,4185.255999999999,4209.359,0,0
681,69,0,2908,4229.487,4232.564,4202.564,4225.128,4223.846,4215.897,4169.359,4197.0509999999995,4193.974,4228.333,4214.359,4201.282,4186.795,4212.308,0,0
682,70,0,2918,4231.923,4233.846,4206.538,4233.718,4218.205,4221.41,4172.0509999999995,4209.744000000001,4208.974,4233.333,4219.872,4205.769,4190.641,4218.974,0,0
683,71,0,3477,4225.513,4230.641,4202.692,4230.0,4228.974,4215.897,4170.513,4214.103,4212.9490000000005,4217.179,4217.0509999999995,4201.154,4191.667,4213.846,0,0
684,72,0,2820,4215.513,4221.154,4192.9490000000005,4220.255999999999,4235.769,4197.179,4165.641,4199.359,4198.462,4207.692,4203.462,4183.846,4183.333,4196.282,0,0
685,73,0,3587,4216.154,4223.718,4194.487,4222.179,4235.897,4201.538,4170.513,4201.154,4193.59,4227.308,4198.59,4179.487,4182.436,4195.255999999999,0,0
686,74,0,3328,4217.564,4234.103,4197.692,4229.103,4230.641,4223.462,4175.128,4219.487,4205.513,4230.513,4201.282,4186.282,4190.0,4199.615,0,0
687,75,0,3327,4212.179,4230.513,4190.255999999999,4226.795,4210.513,4216.026,4170.0,4214.744000000001,4209.615,4202.308,4196.154,4179.615,4187.0509999999995,4186.154,0,0
688,76,0,2771,4215.897,4228.59,4193.462,4227.821,4218.205,4202.564,4177.692,4210.897,4209.231,4205.0,4200.385,4180.897,4187.564,4184.103,0,0
689,77,0,3185,4220.128,4230.385,4206.667,4235.0,4246.282,4221.026,4191.41,4229.615,4215.769,4221.026,4208.205,4194.359,4191.795,4199.487,0,0
690,78,0,3328,4219.744000000001,4232.308,4205.641,4240.255999999999,4240.0,4236.923,4189.359,4235.385,4218.462,4204.359,4201.41,4193.462,4183.205,4199.231,0,0
691,79,0,3327,4231.667,4244.231,4208.333,4248.718,4227.436,4234.103,4193.333,4229.487,4216.282,4203.974,4206.538,4192.564,4181.282,4198.333,0,0
692,80,0,2771,4242.564,4244.872,4221.667,4249.744000000001,4238.077,4231.282,4203.205,4233.462,4216.154,4230.641,4219.103,4204.872,4191.154,4210.255999999999,0,0
693,81,0,3185,4231.282,4223.846,4213.462,4233.974,4229.231,4224.103,4193.718,4238.462,4221.026,4230.513,4208.718,4201.282,4187.692,4204.487,0,0
694,82,0,3328,4220.513,4215.0,4199.487,4224.103,4207.692,4217.692,4185.769,4232.821,4222.0509999999995,4215.0,4195.641,4183.846,4177.179,4187.436,0,0
695,83,0,3327,4222.692,4215.128,4197.564,4220.513,4214.359,4218.462,4190.769,4225.513,4216.795,4204.744000000001,4196.282,4183.333,4181.026,4187.692,0,0
696,84,0,2771,4223.077,4205.385,4192.821,4215.128,4210.769,4218.846,4187.179,4232.179,4217.179,4206.667,4193.462,4187.821,4187.692,4188.462,0,0
697,85,0,3185,4211.795,4199.487,4185.255999999999,4215.897,4183.462,4216.282,4183.974,4232.564,4213.59,4216.667,4179.744000000001,4175.769,4174.615,4173.205,0,0
698,86,0,3328,4191.667,4180.641,4181.41,4211.667,4177.179,4207.179,4180.513,4204.359,4196.795,4189.615,4166.795,4160.255999999999,4150.255999999999,4158.59,0,0
699,87,0,3327,4189.231,4156.923,4179.744000000001,4194.487,4189.615,4200.385,4176.41,4191.026,4189.744000000001,4169.615,4172.179,4166.795,4152.308,4165.897,0,0
700,88,0,2771,4208.718,4171.154,4188.333,4199.103,4197.564,4212.0509999999995,4187.564,4218.462,4205.769,4220.0,4194.872,4187.9490000000005,4174.744000000001,4187.0509999999995,0,0
701,89,0,3185,4226.026,4195.641,4212.564,4230.641,4208.077,4229.359,4203.077,4244.103,4225.255999999999,4266.026,4215.769,4204.231,4187.692,4205.769,0,0
702,90,0,3328,4234.231,4185.641,4225.0,4239.487,4217.436,4234.359,4210.513,4252.308,4235.385,4251.538,4228.718,4215.769,4196.154,4217.692,0,0
703,91,0,3327,4232.564,4148.846,4213.077,4226.667,4220.513,4233.462,4212.179,4249.744000000001,4237.9490000000005,4243.974,4228.205,4213.846,4199.487,4217.564,0,0
704,92,0,2771,4222.436,4121.282,4205.128,4228.205,4226.282,4231.923,4210.255999999999,4237.821,4231.026,4258.333,4214.487,4198.846,4190.897,4208.333,0,0
705,93,0,3185,4227.308,4133.846,4214.231,4243.846,4237.436,4236.538,4212.692,4239.615,4232.821,4262.692,4220.385,4204.103,4195.769,4214.615,0,0
706,94,0,3328,4239.231,4141.538,4217.179,4238.59,4240.0,4249.103,4218.846,4252.308,4240.385,4265.0,4237.692,4219.744000000001,4210.641,4228.333,0,0
707,95,0,3327,4231.538,4110.641,4209.359,4225.128,4237.179,4246.923,4215.897,4251.282,4237.0509999999995,4264.744000000001,4235.513,4208.974,4200.255999999999,4221.026,0,0
708,96,0,2771,4230.769,4095.385,4214.359,4238.333,4250.641,4235.0,4216.538,4246.41,4237.436,4269.231,4234.231,4199.231,4187.179,4215.128,0,0
709,97,0,3185,4235.513,4085.897,4213.59,4237.564,4238.59,4230.769,4215.641,4234.615,4232.821,4264.359,4233.846,4202.692,4183.974,4214.231,0,0
710,98,0,3328,4231.795,4081.282,4211.41,4230.385,4212.9490000000005,4241.923,4211.538,4228.974,4225.641,4253.077,4227.821,4203.974,4183.59,4210.897,0,0
711,99,0,3327,4252.821,4116.282,4247.179,4273.077,4251.538,4263.59,4237.9490000000005,4270.513,4249.615,4284.872,4243.205,4227.821,4207.308,4233.718,0,0
712,100,0,2771,4271.282,4113.974,4271.154,4300.128,4297.9490000000005,4264.103,4258.205,4302.0509999999995,4276.795,4308.077,4256.667,4250.769,4222.308,4249.872,0,0
713,101,0,3185,4251.026,4090.897,4246.667,4270.128,4270.769,4244.744000000001,4236.795,4264.872,4258.077,4274.231,4241.795,4234.231,4200.769,4226.795,0,0
714,102,0,3328,4231.282,4177.564,4231.026,4267.308,4253.718,4242.436,4218.462,4228.077,4226.026,4256.795,4228.077,4216.923,4183.205,4212.564,0,0
715,103,0,3327,4222.821,4263.974,4227.9490000000005,4280.769,4272.692,4255.0,4216.026,4231.026,4216.154,4261.026,4222.692,4219.231,4185.128,4217.179,0,0
716,104,0,2771,4228.59,4208.333,4227.179,4274.615,4250.128,4252.564,4226.282,4242.179,4218.974,4247.0509999999995,4218.205,4223.59,4191.154,4215.0,0,0
717,105,0,3185,4230.897,4181.154,4228.718,4288.462,4220.641,4229.359,4231.41,4238.846,4218.718,4239.744000000001,4211.923,4216.667,4187.179,4203.462,0,0
718,106,0,3328,4183.462,4237.308,4197.692,4287.692,4228.077,4202.308,4196.154,4210.385,4202.9490000000005,4234.872,4187.308,4188.077,4163.205,4174.359,0,0
719,107,0,3327,4141.667,4226.538,4158.846,4274.744000000001,4240.128,4190.897,4161.282,4183.205,4181.154,4207.821,4165.769,4164.359,4143.59,4147.9490000000005,0,0
720,108,0,2771,4163.846,4182.179,4167.308,4319.487,4238.077,4194.615,4174.359,4183.718,4172.179,4194.872,4167.308,4165.641,4152.308,4150.385,0,0
721,109,0,3185,4173.333,4180.255999999999,4176.154,4374.744000000001,4221.41,4182.564,4174.872,4177.9490000000005,4169.103,4188.974,4158.462,4157.821,4143.59,4144.744000000001,0,0
722,110,0,3328,4137.9490000000005,4180.385,4156.154,4382.0509999999995,4211.667,4156.538,4146.538,4157.436,4163.974,4171.282,4140.385,4138.846,4114.487,4121.282,0,0
723,111,0,3327,4142.436,4170.385,4169.359,4417.692,4213.59,4161.538,4155.0,4163.718,4165.513,4177.821,4155.128,4150.769,4120.897,4126.923,0,0
724,112,0,2771,4172.0509999999995,4195.128,4192.0509999999995,4494.487,4228.974,4192.179,4177.692,4180.128,4170.641,4196.154,4175.769,4169.744000000001,4138.077,4147.179,0,0
725,113,0,3185,4153.718,4248.462,4160.0,4525.641,4259.487,4188.462,4163.59,4162.564,4157.564,4184.872,4154.231,4148.462,4116.154,4127.821,0,0
726,114,0,3328,4138.205,4217.179,4139.615,4547.564,4278.59,4171.282,4152.821,4150.897,4143.205,4158.59,4125.255999999999,4129.487,4093.333,4107.179,0,0
727,115,0,3327,4172.821,4136.154,4183.077,4612.692,4283.462,4193.846,4176.026,4185.255999999999,4164.359,4164.231,4142.179,4158.462,4124.744000000001,4136.154,0,0
728,116,0,2771,4207.0509999999995,4194.231,4216.282,4685.385,4312.0509999999995,4210.513,4202.692,4233.462,4208.59,4215.513,4189.744000000001,4197.179,4180.0,4173.205,0,0
729,117,0,3185,4209.487,4312.179,4207.821,4735.769,4341.282,4198.59,4204.103,4250.641,4223.59,4252.9490000000005,4216.154,4207.564,4202.692,4188.205,0,0
730,118,0,3328,4217.436,4287.436,4211.026,4786.538,4344.103,4208.077,4202.564,4249.615,4224.615,4243.59,4206.538,4209.487,4201.538,4205.513,0,0
731,119,0,3327,4224.744000000001,4254.359,4212.692,4837.692,4368.462,4223.205,4205.128,4249.744000000001,4235.128,4228.205,4193.333,4209.615,4189.872,4211.667,0,0
732,120,0,2771,4218.846,4287.308,4210.0,4856.667,4400.255999999999,4219.615,4200.513,4244.744000000001,4228.59,4243.718,4183.974,4201.41,4180.641,4200.0,0,0
733,121,0,3185,4230.128,4294.359,4231.795,4869.615,4392.179,4220.897,4202.564,4245.769,4214.103,4274.231,4189.744000000001,4204.615,4195.641,4211.41,0,0
734,122,0,3328,4262.692,4278.333,4253.205,4923.462,4398.333,4231.795,4223.846,4269.744000000001,4228.077,4286.41,4242.564,4238.333,4219.487,4246.154,0,0
735,123,0,3327,4296.154,4239.103,4264.359,4998.205,4433.462,4251.41,4244.103,4298.205,4259.744000000001,4287.179,4272.9490000000005,4273.974,4221.026,4270.255999999999,0,0
736,124,0,2771,4297.436,4298.846,4268.077,5032.692,4466.538,4273.59,4242.9490000000005,4301.795,4274.359,4298.59,4207.821,4266.923,4217.821,4271.667,0,0
737,125,0,3185,4267.564,4451.795,4239.615,5026.667,4497.436,4267.436,4231.026,4287.692,4265.128,4309.615,4156.026,4237.179,4226.282,4261.667,0,0
738,126,0,3328,4284.359,4372.436,4248.205,5048.077,4501.41,4253.59,4240.128,4289.359,4254.744000000001,4302.179,4224.744000000001,4255.897,4232.0509999999995,4271.538,0,0
739,127,0,52,4336.026,4238.718,4311.282,5082.179,4500.897,4275.128,4270.641,4317.564,4274.487,4303.462,4258.718,4298.59,4254.744000000001,4296.923,0,0
740,0,0,3146,4286.41,4386.154,4261.667,5080.0,4517.308,4264.744000000001,4241.923,4293.718,4263.205,4292.821,4159.359,4251.154,4242.821,4264.615,0,0
741,1,0,2681,4213.59,4402.179,4172.436,5071.667,4500.769,4216.282,4183.077,4227.821,4201.282,4246.538,4113.462,4182.564,4171.667,4209.359,0,0
742,2,0,3471,4265.513,4273.077,4225.769,5077.692,4513.974,4240.897,4222.436,4254.487,4214.359,4249.103,4168.846,4228.974,4174.615,4238.333,0,0
743,3,0,3451,4348.333,4404.103,4301.538,5096.282,4610.0,4312.564,4307.308,4342.9490000000005,4293.333,4330.128,4207.0509999999995,4301.41,4263.462,4306.667,0,0
744,4,0,3518,4378.974,4468.462,4305.128,5142.821,4655.641,4323.333,4320.513,4359.615,4314.103,4398.205,4235.513,4301.41,4296.154,4323.333,0,0
745,5,0,2902,4390.128,4363.718,4308.333,5169.103,4616.282,4288.974,4295.385,4326.923,4284.872,4368.846,4261.026,4289.487,4248.846,4304.872,0,0
746,6,0,2916,4380.0,4432.308,4298.718,5146.41,4635.385,4281.667,4279.744000000001,4318.718,4273.59,4324.359,4233.846,4293.846,4221.282,4295.897,0,0
747,7,0,3479,4346.41,4516.282,4252.436,5127.308,4686.795,4278.205,4251.41,4297.9490000000005,4273.59,4352.308,4176.923,4260.769,4230.897,4273.333,0,0
748,8,0,2845,4354.359,4434.231,4251.282,5149.487,4702.436,4264.872,4235.255999999999,4271.282,4272.692,4375.769,4180.897,4237.0509999999995,4242.436,4262.308,0,0
749,9,0,3577,4385.513,4460.255999999999,4275.128,5163.462,4718.077,4262.0509999999995,4239.872,4275.897,4261.667,4358.077,4256.923,4264.872,4236.154,4289.487,0,0
750,10,0,3330,4377.308,4538.333,4251.795,5134.487,4711.154,4249.103,4225.385,4262.9490000000005,4228.718,4362.0509999999995,4279.231,4256.923,4209.872,4279.744000000001,0,0
751,11,0,3313,4389.615,4492.179,4247.436,5116.923,4724.487,4247.821,4227.179,4257.436,4240.255999999999,4407.179,4241.026,4236.41,4218.333,4262.179,0,0
752,12,0,2777,4450.513,4476.282,4290.0,5139.615,4785.513,4279.231,4265.513,4298.59,4288.846,4462.436,4265.641,4275.897,4252.692,4302.0509999999995,0,0
753,13,0,3174,4487.436,4516.154,4311.795,5155.385,4811.41,4299.103,4289.103,4327.179,4296.026,4526.026,4331.667,4307.9490000000005,4258.333,4333.462,0,0
754,14,0,3330,4475.255999999999,4546.795,4287.436,5135.641,4788.974,4287.692,4276.282,4309.487,4279.231,4552.692,4335.641,4281.538,4239.872,4312.308,0,0
755,15,0,3313,4484.103,4545.385,4289.231,5122.179,4779.487,4299.231,4280.385,4307.692,4289.103,4559.231,4338.974,4279.744000000001,4241.026,4314.231,0,0
756,16,0,0,4499.487,4541.026,4310.513,5105.513,4789.615,4317.0509999999995,4297.436,4325.0,4303.846,4603.974,4366.154,4306.923,4253.718,4335.0,0,0
757,17,0,0,4484.744000000001,4557.821,4300.385,5065.769,4793.846,4300.897,4287.436,4322.436,4298.846,4636.41,4365.513,4295.641,4248.462,4320.769,0,0
758,18,0,0,4491.667,4578.462,4301.154,5043.462,4803.333,4296.923,4283.333,4328.59,4302.9490000000005,4649.231,4381.41,4291.41,4251.41,4324.103,0,0
759,19,0,0,4518.59,4599.872,4325.769,5030.513,4808.59,4315.385,4303.462,4344.615,4321.795,4687.564,4412.9490000000005,4316.282,4275.897,4355.769,0,0
760,20,0,0,4526.026,4640.897,4335.0,5008.718,4798.462,4320.769,4312.308,4343.333,4331.41,4726.41,4429.872,4327.308,4293.846,4370.0,0,0
761,21,0,0,4530.0,4683.462,4334.487,4988.462,4763.462,4309.359,4305.255999999999,4337.179,4327.564,4722.821,4432.9490000000005,4323.846,4291.41,4365.0,0,0
762,22,0,0,4527.179,4658.205,4328.846,4956.41,4721.538,4300.769,4299.103,4328.974,4309.872,4695.513,4420.641,4314.103,4275.641,4348.333,0,0
