title:hello_EEG, recorded:24.09.18 22.35.22, timestamp started:2018-09-24T22:35:22.120-06:00;1537850122.120, sampling:128, subject:andrew, labels:COUNTER INTERPOLATED AF3 F7 F3 FC5 T7 P7 O1 O2 P8 T8 FC6 F4 F8 AF4 RAW_CQ GYROX GYROY MARKER MARKER_HARDWARE SYNC TIME_STAMP_s TIME_STAMP_ms TimeStamp CQ_AF3 CQ_F7 CQ_F3 CQ_FC5 CQ_T7 CQ_P7 CQ_O1 CQ_O2 CQ_P8 CQ_T8 CQ_FC6 CQ_F4 CQ_F8 CQ_AF4 CQ_CMS CQ_DRL, chan:40, samples:7768, units:emotiv
108.000000, 0.000000, 4283.076660, 4120.512695, 4618.461426, 4431.794922, 4056.923096, 4809.230469, 4302.051270, 4410.769043, 4403.076660, 4489.230469, 4305.127930, 4086.153809, 4304.615234, 4198.461426, 98.000000, 1681.000000, 1650.000000, 1.000000, 1.000000, 0.000000, 0.000000, 0.000000, 1537850122.120000, 2.000000, 4.000000, 4.000000, 4.000000, 0.000000, 4.000000, 4.000000, 4.000000, 4.000000, 0.000000, 1.000000, 4.000000, 4.000000, 4.000000, 4.000000, 4.000000
109.000000, 0.000000, 4273.846191, 4158.974121, 4603.076660, 4423.589844, 4056.410156, 4802.051270, 4289.230469, 4396.410156, 4386.153809, 4489.230469, 4309.743652, 4069.230713, 4332.307617, 4185.641113, 485.000000, 1680.000000, 1654.000000, 0.000000, 0.000000, 0.000000, 0.000000, 7.692308, 1537850122.127692, 2.000000, 4.000000, 4.000000, 4.000000, 0.000000, 4.000000, 4.000000, 4.000000, 4.000000, 0.000000, 1.000000, 4.000000, 4.000000, 4.000000, 4.000000, 4.000000
110.000000, 0.000000, 4282.051270, 4207.179199, 4615.897461, 4467.179199, 4056.923096, 4821.025391, 4304.615234, 4408.205078, 4401.025391, 4489.230469, 4312.820312, 4071.281982, 4339.487305, 4194.871582, 500.000000, 1681.000000, 1653.000000, 0.000000, 0.000000, 0.000000, 0.000000, 15.384615, 1537850122.135385, 2.000000, 4.000000, 4.000000, 4.000000, 0.000000, 4.000000, 4.000000, 4.000000, 4.000000, 0.000000, 1.000000, 4.000000, 4.000000, 4.000000, 4.000000, 4.000000
111.000000, 0.000000, 4290.769043, 4166.666504, 4629.743652, 4480.512695, 4055.897217, 4831.281738, 4321.025391, 4428.205078, 4432.307617, 4489.230469, 4309.230469, 4085.640869, 4327.692383, 4212.307617, 500.000000, 1679.000000, 1656.000000, 0.000000, 0.000000, 0.000000, 0.000000, 23.589745, 1537850122.143590, 2.000000, 4.000000, 4.000000, 4.000000, 0.000000, 4.000000, 4.000000, 4.000000, 4.000000, 0.000000, 1.000000, 4.000000, 4.000000, 4.000000, 4.000000, 4.000000
112.000000, 0.000000, 4289.743652, 4130.769043, 4629.230469, 4454.871582, 4055.897217, 4816.410156, 4311.794922, 4421.025391, 4425.127930, 4489.230469, 4315.384277, 4088.717773, 4364.615234, 4215.384277, 98.000000, 1680.000000, 1660.000000, 0.000000, 0.000000, 0.000000, 0.000000, 31.282051, 1537850122.151282, 2.000000, 4.000000, 4.000000, 4.000000, 0.000000, 4.000000, 4.000000, 4.000000, 4.000000, 0.000000, 1.000000, 4.000000, 4.000000, 4.000000, 4.000000, 4.000000
113.000000, 0.000000, 4289.230469, 4189.743652, 4638.461426, 4465.127930, 4055.897217, 4811.794922, 4301.538574, 4408.717773, 4391.281738, 4489.230469, 4321.025391, 4092.820312, 4375.384277, 4220.512695, 485.000000, 1680.000000, 1664.000000, 0.000000, 0.000000, 0.000000, 0.000000, 38.974358, 1537850122.158974, 2.000000, 4.000000, 4.000000, 4.000000, 0.000000, 4.000000, 4.000000, 4.000000, 4.000000, 0.000000, 1.000000, 4.000000, 4.000000, 4.000000, 4.000000, 4.000000
114.000000, 0.000000, 4286.666504, 4205.641113, 4638.461426, 4478.461426, 4054.871582, 4813.846191, 4298.461426, 4406.666504, 4378.461426, 4489.230469, 4310.769043, 4091.281982, 4318.461426, 4220.512695, 500.000000, 1680.000000, 1667.000000, 0.000000, 0.000000, 0.000000, 0.000000, 47.179485, 1537850122.167179, 2.000000, 4.000000, 4.000000, 4.000000, 0.000000, 4.000000, 4.000000, 4.000000, 4.000000, 0.000000, 1.000000, 4.000000, 4.000000, 4.000000, 4.000000, 4.000000
115.000000, 0.000000, 4278.461426, 4125.641113, 4619.487305, 4446.666504, 4054.871582, 4802.563965, 4291.281738, 4399.487305, 4384.615234, 4489.230469, 4302.563965, 4073.333252, 4303.076660, 4203.076660, 500.000000, 1681.000000, 1670.000000, 0.000000, 0.000000, 0.000000, 0.000000, 54.871796, 1537850122.174872, 2.000000, 4.000000, 4.000000, 4.000000, 0.000000, 4.000000, 4.000000, 4.000000, 4.000000, 0.000000, 1.000000, 4.000000, 4.000000, 4.000000, 4.000000, 4.000000
116.000000, 0.000000, 4281.538574, 4110.256348, 4625.641113, 4432.820312, 4056.923096, 4803.076660, 4299.487305, 4406.153809, 4400.000000, 4489.230469, 4306.153809, 4077.435791, 4343.589844, 4203.589844, 98.000000, 1682.000000, 1671.000000, 0.000000, 0.000000, 0.000000, 0.000000, 62.564102, 1537850122.182564, 2.000000, 4.000000, 4.000000, 4.000000, 0.000000, 4.000000, 4.000000, 4.000000, 4.000000, 0.000000, 1.000000, 4.000000, 4.000000, 4.000000, 4.000000, 4.000000
117.000000, 0.000000, 4289.230469, 4190.256348, 4647.692383, 4470.769043, 4055.384521, 4824.102539, 4319.487305, 4427.692383, 4417.948730, 4489.230469, 4312.820312, 4101.025391, 4367.692383, 4224.102539, 485.000000, 1682.000000, 1671.000000, 0.000000, 0.000000, 0.000000, 0.000000, 70.256409, 1537850122.190256, 2.000000, 4.000000, 4.000000, 4.000000, 0.000000, 4.000000, 4.000000, 4.000000, 4.000000, 0.000000, 1.000000, 4.000000, 4.000000, 4.000000, 4.000000, 4.000000
118.000000, 0.000000, 4290.256348, 4193.333008, 4656.410156, 4486.153809, 4052.307617, 4833.333008, 4325.127930, 4431.281738, 4416.410156, 4489.230469, 4315.897461, 4102.563965, 4367.692383, 4231.281738, 500.000000, 1683.000000, 1673.000000, 0.000000, 0.000000, 0.000000, 0.000000, 78.461540, 1537850122.198462, 2.000000, 4.000000, 4.000000, 4.000000, 0.000000, 4.000000, 4.000000, 4.000000, 4.000000, 0.000000, 1.000000, 4.000000, 4.000000, 4.000000, 4.000000, 4.000000
119.000000, 0.000000, 4290.769043, 4162.563965, 4662.563965, 4475.897461, 4055.897217, 4833.846191, 4326.153809, 4429.743652, 4410.769043, 4489.230469, 4309.743652, 4098.461426, 4352.307617, 4232.820312, 500.000000, 1683.000000, 1671.000000, 0.000000, 0.000000, 0.000000, 0.000000, 86.153847, 1537850122.206154, 2.000000, 4.000000, 4.000000, 4.000000, 0.000000, 4.000000, 4.000000, 4.000000, 4.000000, 0.000000, 1.000000, 4.000000, 4.000000, 4.000000, 4.000000, 4.000000
120.000000, 0.000000, 4287.692383, 4171.281738, 4655.897461, 4468.205078, 4057.435791, 4828.205078, 4320.512695, 4429.743652, 4417.948730, 4489.230469, 4305.127930, 4098.461426, 4331.794922, 4231.281738, 98.000000, 1683.000000, 1672.000000, 0.000000, 0.000000, 0.000000, 0.000000, 93.846153, 1537850122.213846, 2.000000, 4.000000, 4.000000, 4.000000, 0.000000, 4.000000, 4.000000, 4.000000, 4.000000, 0.000000, 1.000000, 4.000000, 4.000000, 4.000000, 4.000000, 4.000000
121.000000, 0.000000, 4278.461426, 4167.179199, 4625.641113, 4460.512695, 4055.384521, 4811.794922, 4298.974121, 4410.256348, 4406.666504, 4489.230469, 4308.717773, 4077.948730, 4337.436035, 4210.256348, 485.000000, 1684.000000, 1670.000000, 0.000000, 0.000000, 0.000000, 0.000000, 102.051277, 1537850122.222051, 2.000000, 4.000000, 4.000000, 4.000000, 0.000000, 4.000000, 4.000000, 4.000000, 4.000000, 0.000000, 1.000000, 4.000000, 4.000000, 4.000000, 4.000000, 4.000000
122.000000, 0.000000, 4277.436035, 4186.666504, 4618.974121, 4469.230469, 4054.871582, 4816.410156, 4298.974121, 4404.615234, 4400.512695, 4489.230469, 4307.692383, 4071.281982, 4354.871582, 4203.589844, 500.000000, 1682.000000, 1672.000000, 0.000000, 0.000000, 0.000000, 0.000000, 109.743584, 1537850122.229744, 2.000000, 4.000000, 4.000000, 4.000000, 0.000000, 4.000000, 4.000000, 4.000000, 4.000000, 0.000000, 1.000000, 4.000000, 4.000000, 4.000000, 4.000000, 4.000000
123.000000, 0.000000, 4287.179199, 4218.974121, 4641.025391, 4476.410156, 4056.410156, 4833.846191, 4320.000000, 4428.205078, 4425.641113, 4489.230469, 4304.615234, 4093.845947, 4353.846191, 4227.692383, 500.000000, 1684.000000, 1672.000000, 0.000000, 0.000000, 0.000000, 0.000000, 117.435890, 1537850122.237436, 2.000000, 4.000000, 4.000000, 4.000000, 0.000000, 4.000000, 4.000000, 4.000000, 4.000000, 0.000000, 1.000000, 4.000000, 4.000000, 4.000000, 4.000000, 4.000000
124.000000, 0.000000, 4290.769043, 4187.692383, 4647.179199, 4458.461426, 4057.435791, 4822.563965, 4316.410156, 4428.717773, 4428.205078, 4489.230469, 4310.256348, 4096.410156, 4354.358887, 4230.769043, 98.000000, 1683.000000, 1671.000000, 0.000000, 0.000000, 0.000000, 0.000000, 125.128197, 1537850122.245128, 2.000000, 4.000000, 4.000000, 4.000000, 0.000000, 4.000000, 4.000000, 4.000000, 4.000000, 0.000000, 1.000000, 4.000000, 4.000000, 4.000000, 4.000000, 4.000000
125.000000, 0.000000, 4293.333008, 4136.410156, 4649.743652, 4451.794922, 4057.435791, 4809.743652, 4307.179199, 4411.281738, 4406.153809, 4489.230469, 4309.743652, 4086.666504, 4344.615234, 4220.000000, 485.000000, 1684.000000, 1671.000000, 0.000000, 0.000000, 0.000000, 0.000000, 132.820503, 1537850122.252820, 2.000000, 4.000000, 4.000000, 4.000000, 0.000000, 4.000000, 4.000000, 4.000000, 4.000000, 0.000000, 1.000000, 4.000000, 4.000000, 4.000000, 4.000000, 4.000000
126.000000, 0.000000, 4292.820312, 4158.461426, 4661.025391, 4476.410156, 4053.845947, 4820.000000, 4315.384277, 4414.871582, 4401.025391, 4489.230469, 4300.512695, 4092.307617, 4320.000000, 4232.820312, 500.000000, 1683.000000, 1670.000000, 0.000000, 0.000000, 0.000000, 0.000000, 140.512810, 1537850122.260513, 2.000000, 4.000000, 4.000000, 4.000000, 0.000000, 4.000000, 4.000000, 4.000000, 4.000000, 0.000000, 1.000000, 4.000000, 4.000000, 4.000000, 4.000000, 4.000000
127.000000, 0.000000, 4295.384277, 4155.897461, 4668.205078, 4470.769043, 4053.845947, 4829.743652, 4323.076660, 4428.205078, 4412.820312, 4489.230469, 4308.717773, 4102.051270, 4340.000000, 4245.127930, 500.000000, 1682.000000, 1670.000000, 0.000000, 0.000000, 0.000000, 0.000000, 148.717949, 1537850122.268718, 2.000000, 4.000000, 4.000000, 4.000000, 0.000000, 4.000000, 4.000000, 4.000000, 4.000000, 0.000000, 1.000000, 4.000000, 4.000000, 4.000000, 4.000000, 4.000000
128.000000, 0.000000, 4300.512695, 4157.436035, 4678.461426, 4466.666504, 4056.923096, 4835.384277, 4333.333008, 4439.487305, 4432.820312, 4489.230469, 4322.051270, 4116.410156, 4382.051270, 4248.717773, 98.000000, 1682.000000, 1670.000000, 0.000000, 0.000000, 0.000000, 0.000000, 156.410255, 1537850122.276410, 2.000000, 4.000000, 4.000000, 4.000000, 0.000000, 4.000000, 4.000000, 4.000000, 4.000000, 0.000000, 1.000000, 4.000000, 4.000000, 4.000000, 4.000000, 4.000000
0.000000, 0.000000, 4293.846191, 4255.384277, 4673.333008, 4503.076660, 4056.923096, 4840.000000, 4341.538574, 4446.666504, 4444.102539, 4489.230469, 4313.846191, 4120.000000, 4387.692383, 4248.717773, 498.000000, 1682.000000, 1669.000000, 0.000000, 0.000000, 0.000000, 0.000000, 164.102562, 1537850122.284102, 2.000000, 4.000000, 4.000000, 4.000000, 0.000000, 4.000000, 4.000000, 4.000000, 4.000000, 0.000000, 1.000000, 4.000000, 4.000000, 4.000000, 4.000000, 4.000000
1.000000, 0.000000, 4287.692383, 4247.692383, 4662.563965, 4501.025391, 4054.871582, 4840.512695, 4340.512695, 4449.230469, 4440.512695, 4489.743652, 4304.615234, 4111.281738, 4377.948730, 4246.153809, 500.000000, 1682.000000, 1666.000000, 0.000000, 0.000000, 0.000000, 0.000000, 172.307686, 1537850122.292308, 2.000000, 4.000000, 4.000000, 4.000000, 0.000000, 4.000000, 4.000000, 4.000000, 4.000000, 0.000000, 1.000000, 4.000000, 4.000000, 4.000000, 4.000000, 4.000000
2.000000, 0.000000, 4293.846191, 4142.051270, 4671.281738, 4466.666504, 4057.435791, 4834.871582, 4333.846191, 4440.512695, 4427.692383, 4489.230469, 4308.205078, 4114.871582, 4361.025391, 4249.743652, 255.000000, 1682.000000, 1664.000000, 0.000000, 0.000000, 0.000000, 0.000000, 179.999992, 1537850122.300000, 2.000000, 4.000000, 4.000000, 4.000000, 0.000000, 4.000000, 4.000000, 4.000000, 4.000000, 0.000000, 1.000000, 4.000000, 4.000000, 4.000000, 4.000000, 4.000000
3.000000, 0.000000, 4294.358887, 4151.281738, 4683.589844, 4460.512695, 4058.974365, 4828.717773, 4329.230469, 4428.205078, 4414.871582, 4489.230469, 4310.769043, 4126.666504, 4359.487305, 4256.410156, 500.000000, 1682.000000, 1661.000000, 0.000000, 0.000000, 0.000000, 0.000000, 187.692299, 1537850122.307692, 2.000000, 4.000000, 4.000000, 4.000000, 0.000000, 4.000000, 4.000000, 4.000000, 4.000000, 0.000000, 1.000000, 4.000000, 4.000000, 4.000000, 4.000000, 4.000000
4.000000, 0.000000, 4292.820312, 4206.153809, 4683.076660, 4465.641113, 4057.435791, 4831.281738, 4330.256348, 4432.307617, 4424.102539, 4489.743652, 4310.256348, 4126.666504, 4375.897461, 4256.410156, 0.000000, 1680.000000, 1656.000000, 0.000000, 0.000000, 0.000000, 0.000000, 195.384605, 1537850122.315385, 2.000000, 4.000000, 4.000000, 4.000000, 0.000000, 4.000000, 4.000000, 4.000000, 4.000000, 0.000000, 1.000000, 4.000000, 4.000000, 4.000000, 4.000000, 4.000000
5.000000, 0.000000, 4294.358887, 4170.769043, 4676.410156, 4459.487305, 4055.384521, 4828.205078, 4321.025391, 4432.307617, 4442.051270, 4489.230469, 4310.769043, 4120.512695, 4361.538574, 4250.256348, 500.000000, 1680.000000, 1650.000000, 0.000000, 0.000000, 0.000000, 0.000000, 203.589745, 1537850122.323590, 2.000000, 4.000000, 4.000000, 4.000000, 0.000000, 4.000000, 4.000000, 4.000000, 4.000000, 0.000000, 1.000000, 4.000000, 4.000000, 4.000000, 4.000000, 4.000000
6.000000, 0.000000, 4289.230469, 4162.051270, 4669.743652, 4467.179199, 4056.923096, 4821.538574, 4310.769043, 4421.025391, 4430.769043, 4488.717773, 4304.615234, 4118.461426, 4342.051270, 4245.641113, 500.000000, 1679.000000, 1643.000000, 0.000000, 0.000000, 0.000000, 0.000000, 211.282051, 1537850122.331282, 2.000000, 4.000000, 4.000000, 4.000000, 0.000000, 4.000000, 4.000000, 4.000000, 4.000000, 0.000000, 1.000000, 4.000000, 4.000000, 4.000000, 4.000000, 4.000000
7.000000, 0.000000, 4288.205078, 4224.615234, 4677.435547, 4485.127930, 4058.461426, 4843.076660, 4325.641113, 4432.307617, 4421.025391, 4488.717773, 4303.589844, 4125.127930, 4369.743652, 4254.871582, 472.000000, 1679.000000, 1639.000000, 0.000000, 0.000000, 0.000000, 0.000000, 218.974358, 1537850122.338974, 2.000000, 4.000000, 4.000000, 4.000000, 0.000000, 4.000000, 4.000000, 4.000000, 4.000000, 0.000000, 1.000000, 4.000000, 4.000000, 4.000000, 4.000000, 4.000000
8.000000, 0.000000, 4293.846191, 4204.615234, 4690.256348, 4470.769043, 4057.435791, 4852.820312, 4331.281738, 4439.487305, 4434.871582, 4488.717773, 4313.846191, 4131.794922, 4380.000000, 4267.692383, 454.000000, 1679.000000, 1635.000000, 0.000000, 0.000000, 0.000000, 0.000000, 226.666664, 1537850122.346667, 2.000000, 4.000000, 4.000000, 4.000000, 0.000000, 4.000000, 4.000000, 4.000000, 4.000000, 0.000000, 1.000000, 4.000000, 4.000000, 4.000000, 4.000000, 4.000000
9.000000, 0.000000, 4284.615234, 4148.205078, 4666.666504, 4438.461426, 4056.410156, 4808.717773, 4296.410156, 4402.563965, 4418.461426, 4489.743652, 4312.307617, 4109.230469, 4345.641113, 4245.641113, 0.000000, 1679.000000, 1633.000000, 0.000000, 0.000000, 0.000000, 0.000000, 234.358971, 1537850122.354359, 2.000000, 4.000000, 4.000000, 4.000000, 0.000000, 4.000000, 4.000000, 4.000000, 4.000000, 0.000000, 1.000000, 4.000000, 4.000000, 4.000000, 4.000000, 4.000000
10.000000, 0.000000, 4270.256348, 4162.563965, 4635.384277, 4434.871582, 4055.384521, 4790.769043, 4280.000000, 4381.538574, 4391.794922, 4490.769043, 4303.076660, 4080.512695, 4339.487305, 4208.205078, 500.000000, 1679.000000, 1631.000000, 0.000000, 0.000000, 0.000000, 0.000000, 242.564095, 1537850122.362564, 2.000000, 4.000000, 4.000000, 4.000000, 0.000000, 4.000000, 4.000000, 4.000000, 4.000000, 0.000000, 1.000000, 4.000000, 4.000000, 4.000000, 4.000000, 4.000000
11.000000, 0.000000, 4278.974121, 4139.487305, 4642.051270, 4441.538574, 4054.871582, 4815.897461, 4294.871582, 4398.461426, 4397.435547, 4491.281738, 4304.102539, 4085.640869, 4332.820312, 4211.281738, 500.000000, 1679.000000, 1629.000000, 0.000000, 0.000000, 0.000000, 0.000000, 250.256416, 1537850122.370256, 2.000000, 4.000000, 4.000000, 4.000000, 0.000000, 4.000000, 4.000000, 4.000000, 4.000000, 0.000000, 1.000000, 4.000000, 4.000000, 4.000000, 4.000000, 4.000000
12.000000, 0.000000, 4292.307617, 4074.871582, 4661.538574, 4423.589844, 4054.871582, 4811.281738, 4297.436035, 4401.025391, 4395.384277, 4490.769043, 4303.589844, 4103.076660, 4307.179199, 4238.461426, 97.000000, 1679.000000, 1624.000000, 0.000000, 0.000000, 0.000000, 0.000000, 257.948708, 1537850122.377949, 2.000000, 4.000000, 4.000000, 4.000000, 0.000000, 4.000000, 4.000000, 4.000000, 4.000000, 0.000000, 1.000000, 4.000000, 4.000000, 4.000000, 4.000000, 4.000000
13.000000, 0.000000, 4292.307617, 4169.743652, 4673.846191, 4439.487305, 4056.410156, 4822.051270, 4315.384277, 4417.435547, 4412.307617, 4490.256348, 4300.512695, 4115.897461, 4331.281738, 4253.846191, 485.000000, 1680.000000, 1620.000000, 0.000000, 0.000000, 0.000000, 0.000000, 265.641029, 1537850122.385641, 2.000000, 4.000000, 4.000000, 4.000000, 0.000000, 4.000000, 4.000000, 4.000000, 4.000000, 0.000000, 1.000000, 4.000000, 4.000000, 4.000000, 4.000000, 4.000000
14.000000, 0.000000, 4291.794922, 4284.102539, 4684.102539, 4488.205078, 4056.923096, 4854.871582, 4334.358887, 4444.102539, 4447.179199, 4490.256348, 4310.769043, 4125.641113, 4392.820312, 4258.461426, 500.000000, 1680.000000, 1619.000000, 0.000000, 0.000000, 0.000000, 0.000000, 273.846138, 1537850122.393846, 2.000000, 4.000000, 4.000000, 4.000000, 0.000000, 4.000000, 4.000000, 4.000000, 4.000000, 0.000000, 1.000000, 4.000000, 4.000000, 4.000000, 4.000000, 4.000000
15.000000, 0.000000, 4300.000000, 4163.076660, 4690.256348, 4471.281738, 4056.410156, 4827.179199, 4308.717773, 4415.897461, 4411.281738, 4490.256348, 4315.897461, 4121.025391, 4400.512695, 4256.410156, 500.000000, 1680.000000, 1618.000000, 0.000000, 0.000000, 0.000000, 0.000000, 281.538460, 1537850122.401539, 2.000000, 4.000000, 4.000000, 4.000000, 0.000000, 4.000000, 4.000000, 4.000000, 4.000000, 0.000000, 1.000000, 4.000000, 4.000000, 4.000000, 4.000000, 4.000000
16.000000, 0.000000, 4294.358887, 4075.897217, 4681.538574, 4432.820312, 4055.384521, 4792.820312, 4292.820312, 4397.948730, 4382.051270, 4490.256348, 4300.512695, 4107.179199, 4346.666504, 4246.153809, 0.000000, 1680.000000, 1619.000000, 0.000000, 0.000000, 0.000000, 0.000000, 289.230751, 1537850122.409231, 2.000000, 4.000000, 4.000000, 4.000000, 0.000000, 4.000000, 4.000000, 4.000000, 4.000000, 0.000000, 1.000000, 4.000000, 4.000000, 4.000000, 4.000000, 4.000000
17.000000, 0.000000, 4283.076660, 4227.692383, 4667.179199, 4458.461426, 4057.435791, 4806.666504, 4309.743652, 4423.076660, 4438.974121, 4490.256348, 4291.794922, 4108.717773, 4330.769043, 4241.025391, 0.000000, 1682.000000, 1621.000000, 0.000000, 0.000000, 0.000000, 0.000000, 296.923073, 1537850122.416923, 2.000000, 4.000000, 4.000000, 4.000000, 0.000000, 4.000000, 4.000000, 4.000000, 4.000000, 0.000000, 1.000000, 4.000000, 4.000000, 4.000000, 4.000000, 4.000000
18.000000, 0.000000, 4287.692383, 4310.769043, 4668.717773, 4494.358887, 4057.948730, 4816.922852, 4312.307617, 4421.025391, 4447.179199, 4490.256348, 4298.974121, 4121.538574, 4358.974121, 4253.846191, 0.000000, 1682.000000, 1622.000000, 0.000000, 0.000000, 0.000000, 0.000000, 305.128212, 1537850122.425128, 2.000000, 4.000000, 4.000000, 4.000000, 0.000000, 4.000000, 4.000000, 4.000000, 4.000000, 0.000000, 1.000000, 4.000000, 4.000000, 4.000000, 4.000000, 4.000000
19.000000, 0.000000, 4296.410156, 4146.666504, 4687.179199, 4473.333008, 4053.333252, 4826.666504, 4313.333008, 4412.820312, 4385.641113, 4490.256348, 4301.538574, 4126.153809, 4362.563965, 4262.051270, 0.000000, 1683.000000, 1623.000000, 0.000000, 0.000000, 0.000000, 0.000000, 312.820503, 1537850122.432821, 2.000000, 4.000000, 4.000000, 4.000000, 0.000000, 4.000000, 4.000000, 4.000000, 4.000000, 0.000000, 1.000000, 4.000000, 4.000000, 4.000000, 4.000000, 4.000000
20.000000, 0.000000, 4289.743652, 4056.923096, 4690.256348, 4444.102539, 4052.820312, 4839.487305, 4321.538574, 4426.666504, 4386.666504, 4490.256348, 4298.974121, 4115.897461, 4352.307617, 4244.102539, 0.000000, 1683.000000, 1622.000000, 0.000000, 0.000000, 0.000000, 0.000000, 320.512825, 1537850122.440513, 2.000000, 4.000000, 4.000000, 4.000000, 0.000000, 4.000000, 4.000000, 4.000000, 4.000000, 0.000000, 1.000000, 4.000000, 4.000000, 4.000000, 4.000000, 4.000000
21.000000, 0.000000, 4290.256348, 4209.743652, 4689.743652, 4471.794922, 4056.410156, 4829.743652, 4318.974121, 4426.153809, 4420.000000, 4490.256348, 4297.948730, 4120.000000, 4365.127930, 4244.615234, 0.000000, 1683.000000, 1622.000000, 0.000000, 0.000000, 0.000000, 0.000000, 328.205116, 1537850122.448205, 2.000000, 4.000000, 4.000000, 4.000000, 0.000000, 4.000000, 4.000000, 4.000000, 4.000000, 0.000000, 1.000000, 4.000000, 4.000000, 4.000000, 4.000000, 4.000000
22.000000, 0.000000, 4300.000000, 4262.563965, 4703.589844, 4492.307617, 4054.358887, 4822.563965, 4318.974121, 4422.051270, 4415.384277, 4490.256348, 4295.384277, 4135.897461, 4372.307617, 4268.717773, 0.000000, 1684.000000, 1621.000000, 0.000000, 0.000000, 0.000000, 0.000000, 335.897438, 1537850122.455898, 2.000000, 4.000000, 4.000000, 4.000000, 0.000000, 4.000000, 4.000000, 4.000000, 4.000000, 0.000000, 1.000000, 4.000000, 4.000000, 4.000000, 4.000000, 4.000000
23.000000, 0.000000, 4291.794922, 4130.256348, 4696.410156, 4460.512695, 4050.769043, 4827.692383, 4317.948730, 4429.743652, 4419.487305, 4490.256348, 4293.846191, 4124.102539, 4342.563965, 4257.948730, 0.000000, 1682.000000, 1624.000000, 0.000000, 0.000000, 0.000000, 0.000000, 343.589729, 1537850122.463590, 2.000000, 4.000000, 4.000000, 4.000000, 0.000000, 4.000000, 4.000000, 4.000000, 4.000000, 0.000000, 1.000000, 4.000000, 4.000000, 4.000000, 4.000000, 4.000000
24.000000, 0.000000, 4287.179199, 4138.974121, 4684.615234, 4456.410156, 4054.358887, 4828.205078, 4314.358887, 4429.743652, 4433.333008, 4490.256348, 4297.436035, 4115.384277, 4328.205078, 4244.615234, 0.000000, 1684.000000, 1624.000000, 0.000000, 0.000000, 0.000000, 0.000000, 351.794868, 1537850122.471795, 2.000000, 4.000000, 4.000000, 4.000000, 0.000000, 4.000000, 4.000000, 4.000000, 4.000000, 0.000000, 1.000000, 4.000000, 4.000000, 4.000000, 4.000000, 4.000000
25.000000, 0.000000, 4295.897461, 4278.974121, 4698.461426, 4502.051270, 4057.435791, 4842.563965, 4331.794922, 4434.358887, 4428.717773, 4490.256348, 4298.461426, 4137.948730, 4360.000000, 4271.281738, 0.000000, 1682.000000, 1627.000000, 0.000000, 0.000000, 0.000000, 0.000000, 359.487160, 1537850122.479487, 2.000000, 4.000000, 4.000000, 4.000000, 0.000000, 4.000000, 4.000000, 4.000000, 4.000000, 0.000000, 1.000000, 4.000000, 4.000000, 4.000000, 4.000000, 4.000000
26.000000, 0.000000, 4293.333008, 4267.692383, 4696.922852, 4498.974121, 4056.410156, 4844.102539, 4337.948730, 4437.435547, 4420.512695, 4490.256348, 4298.461426, 4136.922852, 4392.307617, 4272.820312, 0.000000, 1682.000000, 1632.000000, 0.000000, 0.000000, 0.000000, 0.000000, 367.179482, 1537850122.487180, 2.000000, 4.000000, 4.000000, 4.000000, 0.000000, 4.000000, 4.000000, 4.000000, 4.000000, 0.000000, 1.000000, 4.000000, 4.000000, 4.000000, 4.000000, 4.000000
27.000000, 0.000000, 4287.179199, 4140.000000, 4677.435547, 4448.205078, 4055.384521, 4826.666504, 4321.538574, 4428.717773, 4417.948730, 4490.256348, 4300.000000, 4116.922852, 4388.205078, 4247.692383, 0.000000, 1683.000000, 1635.000000, 0.000000, 0.000000, 0.000000, 0.000000, 374.871773, 1537850122.494872, 2.000000, 4.000000, 4.000000, 4.000000, 0.000000, 4.000000, 4.000000, 4.000000, 4.000000, 0.000000, 1.000000, 4.000000, 4.000000, 4.000000, 4.000000, 4.000000
28.000000, 0.000000, 4303.076660, 4092.307617, 4697.435547, 4444.615234, 4057.435791, 4837.435547, 4333.846191, 4440.512695, 4429.230469, 4490.256348, 4293.846191, 4136.922852, 4359.487305, 4267.692383, 0.000000, 1684.000000, 1638.000000, 0.000000, 0.000000, 0.000000, 0.000000, 382.564095, 1537850122.502564, 2.000000, 4.000000, 4.000000, 4.000000, 0.000000, 4.000000, 4.000000, 4.000000, 4.000000, 0.000000, 1.000000, 4.000000, 4.000000, 4.000000, 4.000000, 4.000000
29.000000, 0.000000, 4305.641113, 4186.666504, 4717.948730, 4485.641113, 4057.435791, 4852.820312, 4351.281738, 4450.256348, 4434.358887, 4490.256348, 4293.333008, 4158.461426, 4356.922852, 4293.333008, 0.000000, 1684.000000, 1641.000000, 0.000000, 0.000000, 0.000000, 0.000000, 390.256386, 1537850122.510256, 2.000000, 4.000000, 4.000000, 4.000000, 0.000000, 4.000000, 4.000000, 4.000000, 4.000000, 0.000000, 1.000000, 4.000000, 4.000000, 4.000000, 4.000000, 4.000000
30.000000, 0.000000, 4285.127930, 4296.922852, 4685.127930, 4501.538574, 4055.897217, 4843.589844, 4339.487305, 4438.974121, 4424.102539, 4490.256348, 4305.127930, 4137.436035, 4367.179199, 4268.205078, 0.000000, 1685.000000, 1644.000000, 0.000000, 0.000000, 0.000000, 0.000000, 398.461525, 1537850122.518461, 2.000000, 4.000000, 4.000000, 4.000000, 0.000000, 4.000000, 4.000000, 4.000000, 4.000000, 0.000000, 1.000000, 4.000000, 4.000000, 4.000000, 4.000000, 4.000000
31.000000, 0.000000, 4284.615234, 4229.743652, 4668.205078, 4477.948730, 4056.923096, 4839.487305, 4341.025391, 4448.205078, 4435.897461, 4490.256348, 4307.179199, 4130.256348, 4360.512695, 4254.358887, 0.000000, 1685.000000, 1642.000000, 0.000000, 0.000000, 0.000000, 0.000000, 406.153847, 1537850122.526154, 2.000000, 4.000000, 4.000000, 4.000000, 0.000000, 4.000000, 4.000000, 4.000000, 4.000000, 0.000000, 1.000000, 4.000000, 4.000000, 4.000000, 4.000000, 4.000000
32.000000, 0.000000, 4301.538574, 4108.717773, 4696.410156, 4456.410156, 4056.923096, 4847.179199, 4356.922852, 4466.153809, 4449.230469, 4490.256348, 4298.461426, 4149.743652, 4360.000000, 4275.897461, 0.000000, 1684.000000, 1642.000000, 0.000000, 0.000000, 0.000000, 0.000000, 413.846138, 1537850122.533846, 2.000000, 4.000000, 4.000000, 4.000000, 0.000000, 4.000000, 4.000000, 4.000000, 4.000000, 0.000000, 1.000000, 4.000000, 4.000000, 4.000000, 4.000000, 4.000000
33.000000, 0.000000, 4295.897461, 4125.127930, 4698.974121, 4454.358887, 4055.384521, 4842.563965, 4347.692383, 4450.769043, 4424.615234, 4490.256348, 4295.897461, 4144.615234, 4368.205078, 4275.384277, 0.000000, 1685.000000, 1640.000000, 0.000000, 0.000000, 0.000000, 0.000000, 421.538460, 1537850122.541538, 2.000000, 4.000000, 4.000000, 4.000000, 0.000000, 4.000000, 4.000000, 4.000000, 4.000000, 0.000000, 1.000000, 4.000000, 4.000000, 4.000000, 4.000000, 4.000000
34.000000, 0.000000, 4288.205078, 4216.922852, 4678.974121, 4477.435547, 4059.487061, 4839.487305, 4337.948730, 4439.487305, 4411.281738, 4489.230469, 4300.000000, 4132.820312, 4366.666504, 4262.051270, 0.000000, 1683.000000, 1640.000000, 0.000000, 0.000000, 0.000000, 0.000000, 429.743568, 1537850122.549744, 2.000000, 4.000000, 4.000000, 4.000000, 0.000000, 4.000000, 4.000000, 4.000000, 4.000000, 0.000000, 1.000000, 4.000000, 4.000000, 4.000000, 4.000000, 4.000000
35.000000, 0.000000, 4301.538574, 4252.307617, 4693.846191, 4508.717773, 4059.487061, 4857.948730, 4361.538574, 4464.102539, 4440.000000, 4488.717773, 4304.615234, 4154.871582, 4376.410156, 4283.589844, 0.000000, 1684.000000, 1640.000000, 0.000000, 0.000000, 0.000000, 0.000000, 437.435890, 1537850122.557436, 2.000000, 4.000000, 4.000000, 4.000000, 0.000000, 4.000000, 4.000000, 4.000000, 4.000000, 0.000000, 1.000000, 4.000000, 4.000000, 4.000000, 4.000000, 4.000000
36.000000, 0.000000, 4307.179199, 4171.281738, 4716.410156, 4491.281738, 4054.871582, 4866.153809, 4371.794922, 4473.333008, 4452.820312, 4488.717773, 4303.076660, 4169.230469, 4378.974121, 4301.538574, 0.000000, 1684.000000, 1641.000000, 0.000000, 0.000000, 0.000000, 0.000000, 445.128181, 1537850122.565128, 2.000000, 4.000000, 4.000000, 4.000000, 0.000000, 4.000000, 4.000000, 4.000000, 4.000000, 0.000000, 1.000000, 4.000000, 4.000000, 4.000000, 4.000000, 4.000000
37.000000, 0.000000, 4289.743652, 4109.743652, 4692.820312, 4454.871582, 4056.410156, 4845.127930, 4340.512695, 4445.127930, 4435.384277, 4488.717773, 4297.948730, 4141.025391, 4345.127930, 4276.922852, 0.000000, 1685.000000, 1645.000000, 0.000000, 0.000000, 0.000000, 0.000000, 453.333321, 1537850122.573333, 2.000000, 4.000000, 4.000000, 4.000000, 0.000000, 4.000000, 4.000000, 4.000000, 4.000000, 0.000000, 1.000000, 4.000000, 4.000000, 4.000000, 4.000000, 4.000000
38.000000, 0.000000, 4281.538574, 4184.615234, 4666.666504, 4460.512695, 4059.487061, 4833.846191, 4323.589844, 4426.666504, 4426.666504, 4489.230469, 4303.076660, 4118.974121, 4343.589844, 4254.871582, 0.000000, 1685.000000, 1645.000000, 0.000000, 0.000000, 0.000000, 0.000000, 461.025642, 1537850122.581026, 2.000000, 4.000000, 4.000000, 4.000000, 0.000000, 4.000000, 4.000000, 4.000000, 4.000000, 0.000000, 1.000000, 4.000000, 4.000000, 4.000000, 4.000000, 4.000000
39.000000, 0.000000, 4294.358887, 4252.307617, 4684.615234, 4491.281738, 4056.923096, 4856.410156, 4344.102539, 4440.512695, 4434.358887, 4489.743652, 4308.717773, 4138.974121, 4399.487305, 4270.769043, 0.000000, 1685.000000, 1647.000000, 0.000000, 0.000000, 0.000000, 0.000000, 468.717934, 1537850122.588718, 2.000000, 4.000000, 4.000000, 4.000000, 0.000000, 4.000000, 4.000000, 4.000000, 4.000000, 0.000000, 1.000000, 4.000000, 4.000000, 4.000000, 4.000000, 4.000000
40.000000, 0.000000, 4304.102539, 4215.897461, 4706.666504, 4507.179199, 4056.410156, 4878.461426, 4362.051270, 4459.487305, 4452.307617, 4489.230469, 4308.717773, 4162.051270, 4407.179199, 4292.307617, 0.000000, 1685.000000, 1647.000000, 0.000000, 0.000000, 0.000000, 0.000000, 476.410255, 1537850122.596410, 2.000000, 4.000000, 4.000000, 4.000000, 0.000000, 4.000000, 4.000000, 4.000000, 4.000000, 0.000000, 1.000000, 4.000000, 4.000000, 4.000000, 4.000000, 4.000000
41.000000, 0.000000, 4302.051270, 4174.358887, 4700.000000, 4492.820312, 4057.948730, 4876.922852, 4360.000000, 4461.538574, 4459.487305, 4489.743652, 4307.179199, 4157.948730, 4361.025391, 4292.820312, 0.000000, 1685.000000, 1647.000000, 0.000000, 0.000000, 0.000000, 0.000000, 484.102547, 1537850122.604103, 2.000000, 4.000000, 4.000000, 4.000000, 0.000000, 4.000000, 4.000000, 4.000000, 4.000000, 0.000000, 1.000000, 4.000000, 4.000000, 4.000000, 4.000000, 4.000000
42.000000, 0.000000, 4295.384277, 4175.897461, 4682.563965, 4464.615234, 4055.897217, 4861.025391, 4348.717773, 4447.179199, 4440.512695, 4490.769043, 4301.025391, 4143.589844, 4356.410156, 4277.948730, 0.000000, 1685.000000, 1646.000000, 0.000000, 0.000000, 0.000000, 0.000000, 492.307686, 1537850122.612308, 2.000000, 4.000000, 4.000000, 4.000000, 0.000000, 4.000000, 4.000000, 4.000000, 4.000000, 0.000000, 1.000000, 4.000000, 4.000000, 4.000000, 4.000000, 4.000000
43.000000, 0.000000, 4291.281738, 4166.666504, 4671.794922, 4455.897461, 4056.410156, 4852.307617, 4342.051270, 4438.461426, 4423.589844, 4490.769043, 4297.948730, 4134.358887, 4368.717773, 4261.538574, 0.000000, 1684.000000, 1647.000000, 0.000000, 0.000000, 0.000000, 0.000000, 499.999977, 1537850122.620000, 2.000000, 4.000000, 4.000000, 4.000000, 0.000000, 4.000000, 4.000000, 4.000000, 4.000000, 0.000000, 1.000000, 4.000000, 4.000000, 4.000000, 4.000000, 4.000000
44.000000, 0.000000, 4292.307617, 4161.025391, 4677.435547, 4468.205078, 4056.923096, 4867.692383, 4354.871582, 4451.794922, 4437.435547, 4489.230469, 4306.666504, 4138.974121, 4354.871582, 4263.589844, 0.000000, 1686.000000, 1643.000000, 0.000000, 0.000000, 0.000000, 0.000000, 507.692299, 1537850122.627692, 2.000000, 4.000000, 4.000000, 4.000000, 0.000000, 4.000000, 4.000000, 4.000000, 4.000000, 0.000000, 1.000000, 4.000000, 4.000000, 4.000000, 4.000000, 4.000000
45.000000, 0.000000, 4301.025391, 4217.948730, 4694.358887, 4496.922852, 4056.410156, 4883.589844, 4369.230469, 4465.127930, 4454.871582, 4488.717773, 4311.281738, 4149.743652, 4364.615234, 4278.461426, 0.000000, 1684.000000, 1643.000000, 0.000000, 0.000000, 0.000000, 0.000000, 515.897438, 1537850122.635897, 2.000000, 4.000000, 4.000000, 4.000000, 0.000000, 4.000000, 4.000000, 4.000000, 4.000000, 0.000000, 1.000000, 4.000000, 4.000000, 4.000000, 4.000000, 4.000000
46.000000, 0.000000, 4303.076660, 4261.025391, 4694.358887, 4522.563965, 4055.897217, 4872.307617, 4358.974121, 4455.384277, 4445.641113, 4489.743652, 4303.589844, 4150.256348, 4383.589844, 4282.563965, 0.000000, 1685.000000, 1643.000000, 0.000000, 0.000000, 0.000000, 0.000000, 523.589760, 1537850122.643590, 2.000000, 4.000000, 4.000000, 4.000000, 0.000000, 4.000000, 4.000000, 4.000000, 4.000000, 0.000000, 1.000000, 4.000000, 4.000000, 4.000000, 4.000000, 4.000000
47.000000, 0.000000, 4302.563965, 4213.333008, 4689.743652, 4510.256348, 4055.384521, 4856.410156, 4347.692383, 4442.051270, 4427.179199, 4489.743652, 4303.076660, 4148.717773, 4374.358887, 4280.000000, 0.000000, 1684.000000, 1643.000000, 0.000000, 0.000000, 0.000000, 0.000000, 531.282021, 1537850122.651282, 2.000000, 4.000000, 4.000000, 4.000000, 0.000000, 4.000000, 4.000000, 4.000000, 4.000000, 0.000000, 1.000000, 4.000000, 4.000000, 4.000000, 4.000000, 4.000000
48.000000, 0.000000, 4305.127930, 4180.000000, 4695.384277, 4491.794922, 4054.871582, 4856.410156, 4346.666504, 4441.538574, 4422.563965, 4489.743652, 4306.666504, 4148.205078, 4366.153809, 4283.589844, 0.000000, 1684.000000, 1646.000000, 0.000000, 0.000000, 0.000000, 0.000000, 538.974342, 1537850122.658974, 2.000000, 4.000000, 4.000000, 4.000000, 0.000000, 4.000000, 4.000000, 4.000000, 4.000000, 0.000000, 1.000000, 4.000000, 4.000000, 4.000000, 4.000000, 4.000000
49.000000, 0.000000, 4304.615234, 4215.897461, 4689.230469, 4499.487305, 4055.897217, 4858.974121, 4343.589844, 4443.076660, 4426.153809, 4490.256348, 4301.025391, 4142.563965, 4357.948730, 4283.589844, 0.000000, 1684.000000, 1646.000000, 0.000000, 0.000000, 0.000000, 0.000000, 547.179482, 1537850122.667179, 2.000000, 4.000000, 4.000000, 4.000000, 0.000000, 4.000000, 4.000000, 4.000000, 4.000000, 0.000000, 1.000000, 4.000000, 4.000000, 4.000000, 4.000000, 4.000000
50.000000, 0.000000, 4302.563965, 4222.563965, 4684.102539, 4499.487305, 4054.871582, 4863.076660, 4350.769043, 4450.769043, 4435.384277, 4490.769043, 4297.436035, 4146.153809, 4363.589844, 4281.538574, 0.000000, 1682.000000, 1646.000000, 0.000000, 0.000000, 0.000000, 0.000000, 554.871803, 1537850122.674872, 2.000000, 4.000000, 4.000000, 4.000000, 0.000000, 4.000000, 4.000000, 4.000000, 4.000000, 0.000000, 1.000000, 4.000000, 4.000000, 4.000000, 4.000000, 4.000000
51.000000, 0.000000, 4303.076660, 4187.179199, 4690.256348, 4487.692383, 4054.871582, 4868.717773, 4355.897461, 4456.410156, 4442.563965, 4490.256348, 4305.127930, 4155.384277, 4387.179199, 4285.127930, 0.000000, 1682.000000, 1645.000000, 0.000000, 0.000000, 0.000000, 0.000000, 562.564064, 1537850122.682564, 2.000000, 4.000000, 4.000000, 4.000000, 0.000000, 4.000000, 4.000000, 4.000000, 4.000000, 0.000000, 1.000000, 4.000000, 4.000000, 4.000000, 4.000000, 4.000000
52.000000, 0.000000, 4295.897461, 4195.897461, 4681.538574, 4490.256348, 4057.435791, 4862.051270, 4344.615234, 4447.179199, 4441.025391, 4490.769043, 4308.205078, 4151.794922, 4373.333008, 4281.025391, 0.000000, 1679.000000, 1644.000000, 0.000000, 0.000000, 0.000000, 0.000000, 570.769203, 1537850122.690769, 2.000000, 4.000000, 4.000000, 4.000000, 0.000000, 4.000000, 4.000000, 4.000000, 4.000000, 0.000000, 1.000000, 4.000000, 4.000000, 4.000000, 4.000000, 4.000000
53.000000, 0.000000, 4292.820312, 4209.743652, 4672.820312, 4495.384277, 4056.923096, 4858.461426, 4347.692383, 4448.717773, 4440.512695, 4490.256348, 4307.692383, 4150.769043, 4356.922852, 4275.897461, 0.000000, 1680.000000, 1644.000000, 0.000000, 0.000000, 0.000000, 0.000000, 578.461525, 1537850122.698462, 2.000000, 4.000000, 4.000000, 4.000000, 0.000000, 4.000000, 4.000000, 4.000000, 4.000000, 0.000000, 1.000000, 4.000000, 4.000000, 4.000000, 4.000000, 4.000000
54.000000, 0.000000, 4302.051270, 4182.563965, 4683.589844, 4490.769043, 4053.845947, 4867.692383, 4362.563965, 4461.538574, 4448.205078, 4490.769043, 4311.281738, 4157.436035, 4385.641113, 4283.589844, 0.000000, 1678.000000, 1645.000000, 0.000000, 0.000000, 0.000000, 0.000000, 586.153847, 1537850122.706154, 2.000000, 4.000000, 4.000000, 4.000000, 0.000000, 4.000000, 4.000000, 4.000000, 4.000000, 0.000000, 1.000000, 4.000000, 4.000000, 4.000000, 4.000000, 4.000000
55.000000, 0.000000, 4296.922852, 4190.256348, 4675.384277, 4487.692383, 4056.410156, 4863.589844, 4351.281738, 4450.769043, 4446.666504, 4490.256348, 4309.743652, 4144.102539, 4380.000000, 4280.000000, 0.000000, 1679.000000, 1647.000000, 0.000000, 0.000000, 0.000000, 0.000000, 594.358986, 1537850122.714359, 2.000000, 4.000000, 4.000000, 4.000000, 0.000000, 4.000000, 4.000000, 4.000000, 4.000000, 0.000000, 1.000000, 4.000000, 4.000000, 4.000000, 4.000000, 4.000000
56.000000, 0.000000, 4288.717773, 4219.487305, 4657.435547, 4489.230469, 4057.948730, 4853.333008, 4338.461426, 4437.948730, 4438.461426, 4489.230469, 4307.179199, 4132.820312, 4355.897461, 4266.153809, 0.000000, 1678.000000, 1649.000000, 0.000000, 0.000000, 0.000000, 0.000000, 602.051247, 1537850122.722051, 2.000000, 4.000000, 4.000000, 4.000000, 0.000000, 4.000000, 4.000000, 4.000000, 4.000000, 0.000000, 1.000000, 4.000000, 4.000000, 4.000000, 4.000000, 4.000000
57.000000, 0.000000, 4304.102539, 4174.871582, 4680.000000, 4488.205078, 4056.410156, 4865.641113, 4355.897461, 4455.897461, 4447.179199, 4488.717773, 4305.641113, 4151.281738, 4378.461426, 4282.051270, 0.000000, 1679.000000, 1650.000000, 0.000000, 0.000000, 0.000000, 0.000000, 609.743568, 1537850122.729744, 2.000000, 4.000000, 4.000000, 4.000000, 0.000000, 4.000000, 4.000000, 4.000000, 4.000000, 0.000000, 1.000000, 4.000000, 4.000000, 4.000000, 4.000000, 4.000000
58.000000, 0.000000, 4312.820312, 4131.281738, 4701.538574, 4476.410156, 4056.923096, 4874.358887, 4365.641113, 4464.102539, 4452.820312, 4488.717773, 4295.384277, 4161.538574, 4369.230469, 4298.461426, 0.000000, 1678.000000, 1650.000000, 0.000000, 0.000000, 0.000000, 0.000000, 617.435890, 1537850122.737436, 2.000000, 4.000000, 4.000000, 4.000000, 0.000000, 4.000000, 4.000000, 4.000000, 4.000000, 0.000000, 1.000000, 4.000000, 4.000000, 4.000000, 4.000000, 4.000000
59.000000, 0.000000, 4300.512695, 4224.102539, 4685.127930, 4494.358887, 4056.923096, 4870.256348, 4361.025391, 4456.922852, 4446.153809, 4489.230469, 4298.974121, 4150.769043, 4354.871582, 4281.025391, 0.000000, 1677.000000, 1650.000000, 0.000000, 0.000000, 0.000000, 0.000000, 625.641029, 1537850122.745641, 2.000000, 4.000000, 4.000000, 4.000000, 0.000000, 4.000000, 4.000000, 4.000000, 4.000000, 0.000000, 1.000000, 4.000000, 4.000000, 4.000000, 4.000000, 4.000000
60.000000, 0.000000, 4304.615234, 4303.076660, 4686.666504, 4542.051270, 4056.923096, 4884.102539, 4376.922852, 4477.435547, 4463.076660, 4489.743652, 4320.000000, 4153.846191, 4403.589844, 4283.076660, 0.000000, 1678.000000, 1647.000000, 0.000000, 0.000000, 0.000000, 0.000000, 633.333290, 1537850122.753333, 2.000000, 4.000000, 4.000000, 4.000000, 0.000000, 4.000000, 4.000000, 4.000000, 4.000000, 0.000000, 1.000000, 4.000000, 4.000000, 4.000000, 4.000000, 4.000000
61.000000, 0.000000, 4308.717773, 4192.820312, 4695.897461, 4513.333008, 4056.410156, 4882.051270, 4376.922852, 4483.076660, 4464.615234, 4490.769043, 4313.846191, 4152.820312, 4402.051270, 4293.333008, 0.000000, 1678.000000, 1647.000000, 0.000000, 0.000000, 0.000000, 0.000000, 641.025612, 1537850122.761026, 2.000000, 4.000000, 4.000000, 4.000000, 0.000000, 4.000000, 4.000000, 4.000000, 4.000000, 0.000000, 1.000000, 4.000000, 4.000000, 4.000000, 4.000000, 4.000000
62.000000, 0.000000, 4293.846191, 4109.230469, 4665.641113, 4443.076660, 4055.897217, 4850.769043, 4348.205078, 4448.205078, 4425.641113, 4490.769043, 4292.307617, 4127.179199, 4343.589844, 4265.641113, 0.000000, 1679.000000, 1646.000000, 0.000000, 0.000000, 0.000000, 0.000000, 649.230751, 1537850122.769231, 2.000000, 4.000000, 4.000000, 4.000000, 0.000000, 4.000000, 4.000000, 4.000000, 4.000000, 0.000000, 1.000000, 4.000000, 4.000000, 4.000000, 4.000000, 4.000000
63.000000, 0.000000, 4291.794922, 4216.922852, 4654.358887, 4473.846191, 4055.897217, 4867.179199, 4364.102539, 4462.051270, 4443.589844, 4488.205078, 4302.051270, 4135.897461, 4356.410156, 4266.153809, 0.000000, 1679.000000, 1645.000000, 0.000000, 0.000000, 0.000000, 0.000000, 656.923073, 1537850122.776923, 2.000000, 4.000000, 4.000000, 4.000000, 0.000000, 4.000000, 4.000000, 4.000000, 4.000000, 0.000000, 1.000000, 4.000000, 4.000000, 4.000000, 4.000000, 4.000000
64.000000, 0.000000, 4303.589844, 4287.179199, 4675.384277, 4531.794922, 4056.410156, 4895.897461, 4392.820312, 4499.487305, 4491.281738, 4487.692383, 4315.384277, 4166.666504, 4400.000000, 4296.410156, 498.000000, 1679.000000, 1644.000000, 0.000000, 0.000000, 0.000000, 0.000000, 664.615395, 1537850122.784616, 2.000000, 4.000000, 4.000000, 4.000000, 0.000000, 4.000000, 4.000000, 4.000000, 4.000000, 0.000000, 1.000000, 4.000000, 4.000000, 4.000000, 4.000000, 4.000000
65.000000, 0.000000, 4289.230469, 4198.974121, 4650.769043, 4488.717773, 4055.384521, 4849.230469, 4345.127930, 4449.230469, 4436.922852, 4489.743652, 4299.487305, 4141.538574, 4367.179199, 4265.127930, 500.000000, 1680.000000, 1644.000000, 0.000000, 0.000000, 0.000000, 0.000000, 672.820473, 1537850122.792820, 2.000000, 4.000000, 4.000000, 4.000000, 0.000000, 4.000000, 4.000000, 4.000000, 4.000000, 0.000000, 1.000000, 4.000000, 4.000000, 4.000000, 4.000000, 4.000000
66.000000, 0.000000, 4285.641113, 4119.487305, 4621.538574, 4442.563965, 4054.358887, 4813.846191, 4306.666504, 4398.461426, 4377.948730, 4490.769043, 4295.384277, 4113.846191, 4335.897461, 4236.410156, 255.000000, 1681.000000, 1644.000000, 0.000000, 0.000000, 0.000000, 0.000000, 680.512794, 1537850122.800513, 2.000000, 4.000000, 4.000000, 4.000000, 0.000000, 4.000000, 4.000000, 4.000000, 4.000000, 0.000000, 1.000000, 4.000000, 4.000000, 4.000000, 4.000000, 4.000000
67.000000, 0.000000, 4307.179199, 4136.922852, 4651.794922, 4467.179199, 4055.897217, 4850.256348, 4343.589844, 4438.974121, 4422.051270, 4489.743652, 4314.358887, 4146.666504, 4364.615234, 4277.948730, 500.000000, 1681.000000, 1644.000000, 0.000000, 0.000000, 0.000000, 0.000000, 688.205116, 1537850122.808205, 2.000000, 4.000000, 4.000000, 4.000000, 0.000000, 4.000000, 4.000000, 4.000000, 4.000000, 0.000000, 1.000000, 4.000000, 4.000000, 4.000000, 4.000000, 4.000000
68.000000, 0.000000, 4305.127930, 4193.846191, 4669.743652, 4483.076660, 4056.410156, 4860.512695, 4357.435547, 4461.538574, 4447.179199, 4488.717773, 4313.846191, 4164.615234, 4372.307617, 4294.871582, 0.000000, 1682.000000, 1646.000000, 0.000000, 0.000000, 0.000000, 0.000000, 695.897438, 1537850122.815897, 2.000000, 4.000000, 4.000000, 4.000000, 0.000000, 4.000000, 4.000000, 4.000000, 4.000000, 0.000000, 1.000000, 4.000000, 4.000000, 4.000000, 4.000000, 4.000000
69.000000, 0.000000, 4290.769043, 4197.948730, 4655.897461, 4483.589844, 4055.384521, 4840.512695, 4335.384277, 4441.025391, 4423.076660, 4489.230469, 4301.538574, 4148.205078, 4349.743652, 4275.384277, 500.000000, 1681.000000, 1647.000000, 0.000000, 0.000000, 0.000000, 0.000000, 704.102577, 1537850122.824103, 2.000000, 4.000000, 4.000000, 4.000000, 0.000000, 4.000000, 4.000000, 4.000000, 4.000000, 0.000000, 1.000000, 4.000000, 4.000000, 4.000000, 4.000000, 4.000000
70.000000, 0.000000, 4295.897461, 4161.025391, 4656.922852, 4496.410156, 4056.923096, 4844.615234, 4337.436035, 4444.615234, 4428.205078, 4489.743652, 4304.615234, 4151.281738, 4356.922852, 4276.922852, 500.000000, 1681.000000, 1646.000000, 0.000000, 0.000000, 0.000000, 0.000000, 711.794838, 1537850122.831795, 2.000000, 4.000000, 4.000000, 4.000000, 0.000000, 4.000000, 4.000000, 4.000000, 4.000000, 0.000000, 1.000000, 4.000000, 4.000000, 4.000000, 4.000000, 4.000000
71.000000, 0.000000, 4305.127930, 4237.436035, 4668.717773, 4512.307617, 4056.410156, 4863.076660, 4358.461426, 4463.076660, 4447.179199, 4489.743652, 4313.846191, 4173.333008, 4396.410156, 4287.692383, 472.000000, 1680.000000, 1645.000000, 0.000000, 0.000000, 0.000000, 0.000000, 719.487160, 1537850122.839487, 2.000000, 4.000000, 4.000000, 4.000000, 0.000000, 4.000000, 4.000000, 4.000000, 4.000000, 0.000000, 1.000000, 4.000000, 4.000000, 4.000000, 4.000000, 4.000000
72.000000, 0.000000, 4307.179199, 4311.794922, 4681.025391, 4524.102539, 4055.384521, 4874.358887, 4370.769043, 4473.333008, 4453.846191, 4489.743652, 4313.333008, 4187.692383, 4408.717773, 4298.974121, 454.000000, 1679.000000, 1643.000000, 0.000000, 0.000000, 0.000000, 0.000000, 727.179482, 1537850122.847179, 2.000000, 4.000000, 4.000000, 4.000000, 0.000000, 4.000000, 4.000000, 4.000000, 4.000000, 0.000000, 1.000000, 4.000000, 4.000000, 4.000000, 4.000000, 4.000000
73.000000, 0.000000, 4304.615234, 4164.102539, 4682.563965, 4501.538574, 4055.897217, 4862.563965, 4362.563965, 4470.256348, 4447.179199, 4489.743652, 4308.205078, 4180.000000, 4369.743652, 4303.076660, 0.000000, 1678.000000, 1643.000000, 0.000000, 0.000000, 0.000000, 0.000000, 735.384621, 1537850122.855385, 2.000000, 4.000000, 4.000000, 4.000000, 0.000000, 4.000000, 4.000000, 4.000000, 4.000000, 0.000000, 1.000000, 4.000000, 4.000000, 4.000000, 4.000000, 4.000000
74.000000, 0.000000, 4296.922852, 4112.307617, 4670.256348, 4482.051270, 4057.948730, 4846.153809, 4350.769043, 4455.897461, 4431.794922, 4489.743652, 4308.717773, 4165.127930, 4355.897461, 4292.307617, 500.000000, 1677.000000, 1641.000000, 0.000000, 0.000000, 0.000000, 0.000000, 743.076881, 1537850122.863077, 2.000000, 4.000000, 4.000000, 4.000000, 0.000000, 4.000000, 4.000000, 4.000000, 4.000000, 0.000000, 1.000000, 4.000000, 4.000000, 4.000000, 4.000000, 4.000000
75.000000, 0.000000, 4296.410156, 4268.205078, 4670.769043, 4502.563965, 4057.948730, 4853.333008, 4357.435547, 4456.410156, 4434.358887, 4489.743652, 4311.794922, 4167.692383, 4397.435547, 4289.743652, 500.000000, 1676.000000, 1640.000000, 0.000000, 0.000000, 0.000000, 0.000000, 750.769203, 1537850122.870769, 2.000000, 4.000000, 4.000000, 4.000000, 0.000000, 4.000000, 4.000000, 4.000000, 4.000000, 0.000000, 1.000000, 4.000000, 4.000000, 4.000000, 4.000000, 4.000000
76.000000, 0.000000, 4307.179199, 4261.025391, 4700.512695, 4514.358887, 4057.435791, 4866.153809, 4372.307617, 4474.871582, 4450.256348, 4489.743652, 4311.794922, 4183.076660, 4418.974121, 4301.025391, 95.000000, 1675.000000, 1640.000000, 0.000000, 0.000000, 0.000000, 0.000000, 758.461525, 1537850122.878461, 2.000000, 4.000000, 4.000000, 4.000000, 0.000000, 4.000000, 4.000000, 4.000000, 4.000000, 0.000000, 1.000000, 4.000000, 4.000000, 4.000000, 4.000000, 4.000000
77.000000, 0.000000, 4309.743652, 4165.641113, 4714.871582, 4506.666504, 4057.435791, 4857.435547, 4368.205078, 4473.333008, 4446.153809, 4489.743652, 4309.743652, 4182.563965, 4401.538574, 4298.461426, 485.000000, 1675.000000, 1640.000000, 0.000000, 0.000000, 0.000000, 0.000000, 766.153847, 1537850122.886154, 2.000000, 4.000000, 4.000000, 4.000000, 0.000000, 4.000000, 4.000000, 4.000000, 4.000000, 0.000000, 1.000000, 4.000000, 4.000000, 4.000000, 4.000000, 4.000000
78.000000, 0.000000, 4302.563965, 4213.333008, 4695.897461, 4510.769043, 4056.410156, 4847.692383, 4353.846191, 4460.000000, 4431.794922, 4489.743652, 4307.692383, 4170.769043, 4379.487305, 4292.307617, 500.000000, 1675.000000, 1643.000000, 0.000000, 0.000000, 0.000000, 0.000000, 773.846107, 1537850122.893846, 2.000000, 4.000000, 4.000000, 4.000000, 0.000000, 4.000000, 4.000000, 4.000000, 4.000000, 0.000000, 1.000000, 4.000000, 4.000000, 4.000000, 4.000000, 4.000000
79.000000, 0.000000, 4301.538574, 4253.333008, 4684.615234, 4511.281738, 4056.923096, 4848.205078, 4346.666504, 4453.846191, 4428.717773, 4489.743652, 4305.641113, 4165.127930, 4355.384277, 4293.333008, 500.000000, 1675.000000, 1642.000000, 0.000000, 0.000000, 0.000000, 0.000000, 782.051247, 1537850122.902051, 2.000000, 4.000000, 4.000000, 4.000000, 0.000000, 4.000000, 4.000000, 4.000000, 4.000000, 0.000000, 1.000000, 4.000000, 4.000000, 4.000000, 4.000000, 4.000000
80.000000, 0.000000, 4297.948730, 4215.384277, 4682.563965, 4500.512695, 4056.410156, 4847.179199, 4344.615234, 4447.179199, 4428.717773, 4488.717773, 4307.692383, 4160.512695, 4367.692383, 4287.692383, 95.000000, 1674.000000, 1644.000000, 0.000000, 0.000000, 0.000000, 0.000000, 789.743568, 1537850122.909744, 2.000000, 4.000000, 4.000000, 4.000000, 0.000000, 4.000000, 4.000000, 4.000000, 4.000000, 0.000000, 1.000000, 4.000000, 4.000000, 4.000000, 4.000000, 4.000000
81.000000, 0.000000, 4292.820312, 4185.641113, 4665.127930, 4488.717773, 4054.871582, 4848.205078, 4340.512695, 4443.589844, 4430.256348, 4488.205078, 4309.743652, 4151.281738, 4406.666504, 4276.922852, 485.000000, 1676.000000, 1644.000000, 0.000000, 0.000000, 0.000000, 0.000000, 797.435890, 1537850122.917436, 2.000000, 4.000000, 4.000000, 4.000000, 0.000000, 4.000000, 4.000000, 4.000000, 4.000000, 0.000000, 1.000000, 4.000000, 4.000000, 4.000000, 4.000000, 4.000000
82.000000, 0.000000, 4292.820312, 4150.769043, 4657.435547, 4469.743652, 4055.384521, 4854.871582, 4344.102539, 4450.256348, 4437.948730, 4489.743652, 4306.153809, 4148.717773, 4384.102539, 4275.897461, 500.000000, 1675.000000, 1646.000000, 0.000000, 0.000000, 0.000000, 0.000000, 805.128212, 1537850122.925128, 2.000000, 4.000000, 4.000000, 4.000000, 0.000000, 4.000000, 4.000000, 4.000000, 4.000000, 0.000000, 1.000000, 4.000000, 4.000000, 4.000000, 4.000000, 4.000000
83.000000, 0.000000, 4303.589844, 4175.897461, 4692.820312, 4480.512695, 4056.410156, 4872.820312, 4367.179199, 4473.333008, 4458.461426, 4490.256348, 4305.641113, 4175.384277, 4359.487305, 4300.512695, 500.000000, 1677.000000, 1647.000000, 0.000000, 0.000000, 0.000000, 0.000000, 812.820473, 1537850122.932821, 2.000000, 4.000000, 4.000000, 4.000000, 0.000000, 4.000000, 4.000000, 4.000000, 4.000000, 0.000000, 1.000000, 4.000000, 4.000000, 4.000000, 4.000000, 4.000000
84.000000, 0.000000, 4304.615234, 4264.102539, 4714.358887, 4514.358887, 4056.923096, 4872.820312, 4374.871582, 4484.102539, 4469.743652, 4489.743652, 4309.743652, 4193.846191, 4408.717773, 4319.487305, 95.000000, 1678.000000, 1647.000000, 0.000000, 0.000000, 0.000000, 0.000000, 821.025612, 1537850122.941026, 2.000000, 4.000000, 4.000000, 4.000000, 0.000000, 4.000000, 4.000000, 4.000000, 4.000000, 0.000000, 1.000000, 4.000000, 4.000000, 4.000000, 4.000000, 4.000000
85.000000, 0.000000, 4298.461426, 4252.307617, 4698.461426, 4503.589844, 4057.435791, 4854.871582, 4355.384277, 4465.127930, 4451.794922, 4489.230469, 4311.281738, 4174.871582, 4428.205078, 4303.589844, 485.000000, 1680.000000, 1647.000000, 0.000000, 0.000000, 0.000000, 0.000000, 828.717934, 1537850122.948718, 2.000000, 4.000000, 4.000000, 4.000000, 0.000000, 4.000000, 4.000000, 4.000000, 4.000000, 0.000000, 1.000000, 4.000000, 4.000000, 4.000000, 4.000000, 4.000000
86.000000, 0.000000, 4306.153809, 4153.846191, 4709.743652, 4476.410156, 4057.948730, 4857.435547, 4357.948730, 4459.487305, 4443.589844, 4489.230469, 4312.820312, 4166.153809, 4382.051270, 4296.410156, 500.000000, 1681.000000, 1647.000000, 0.000000, 0.000000, 0.000000, 0.000000, 836.410255, 1537850122.956410, 2.000000, 4.000000, 4.000000, 4.000000, 0.000000, 4.000000, 4.000000, 4.000000, 4.000000, 0.000000, 1.000000, 4.000000, 4.000000, 4.000000, 4.000000, 4.000000
87.000000, 0.000000, 4312.820312, 4158.461426, 4731.281738, 4498.461426, 4060.512695, 4864.615234, 4373.333008, 4473.846191, 4452.820312, 4489.743652, 4312.820312, 4176.922852, 4365.641113, 4305.641113, 500.000000, 1683.000000, 1648.000000, 0.000000, 0.000000, 0.000000, 0.000000, 844.102516, 1537850122.964103, 2.000000, 4.000000, 4.000000, 4.000000, 0.000000, 4.000000, 4.000000, 4.000000, 4.000000, 0.000000, 1.000000, 4.000000, 4.000000, 4.000000, 4.000000, 4.000000
88.000000, 0.000000, 4296.922852, 4281.025391, 4705.641113, 4532.307617, 4057.435791, 4858.974121, 4360.000000, 4466.666504, 4445.127930, 4489.230469, 4309.230469, 4163.589844, 4388.205078, 4288.717773, 95.000000, 1684.000000, 1647.000000, 0.000000, 0.000000, 0.000000, 0.000000, 852.307655, 1537850122.972308, 2.000000, 4.000000, 4.000000, 4.000000, 0.000000, 4.000000, 4.000000, 4.000000, 4.000000, 0.000000, 1.000000, 4.000000, 4.000000, 4.000000, 4.000000, 4.000000
89.000000, 0.000000, 4290.769043, 4283.076660, 4686.666504, 4515.384277, 4054.871582, 4863.589844, 4350.256348, 4451.794922, 4433.333008, 4488.717773, 4310.256348, 4146.666504, 4400.512695, 4275.897461, 485.000000, 1685.000000, 1647.000000, 0.000000, 0.000000, 0.000000, 0.000000, 859.999977, 1537850122.980000, 2.000000, 4.000000, 4.000000, 4.000000, 0.000000, 4.000000, 4.000000, 4.000000, 4.000000, 0.000000, 1.000000, 4.000000, 4.000000, 4.000000, 4.000000, 4.000000
90.000000, 0.000000, 4307.692383, 4152.820312, 4714.358887, 4486.153809, 4056.923096, 4869.230469, 4365.127930, 4462.051270, 4437.948730, 4489.230469, 4308.717773, 4157.436035, 4385.127930, 4295.384277, 500.000000, 1686.000000, 1643.000000, 0.000000, 0.000000, 0.000000, 0.000000, 867.692299, 1537850122.987692, 2.000000, 4.000000, 4.000000, 4.000000, 0.000000, 4.000000, 4.000000, 4.000000, 4.000000, 0.000000, 1.000000, 4.000000, 4.000000, 4.000000, 4.000000, 4.000000
91.000000, 0.000000, 4304.615234, 4157.436035, 4715.384277, 4493.333008, 4060.000000, 4849.230469, 4361.538574, 4467.179199, 4449.230469, 4490.256348, 4301.538574, 4158.974121, 4346.666504, 4293.333008, 500.000000, 1685.000000, 1644.000000, 0.000000, 0.000000, 0.000000, 0.000000, 875.384621, 1537850122.995384, 2.000000, 4.000000, 4.000000, 4.000000, 0.000000, 4.000000, 4.000000, 4.000000, 4.000000, 0.000000, 1.000000, 4.000000, 4.000000, 4.000000, 4.000000, 4.000000
92.000000, 0.000000, 4292.307617, 4267.179199, 4683.589844, 4497.948730, 4058.461426, 4837.948730, 4346.153809, 4456.410156, 4453.846191, 4490.769043, 4306.666504, 4147.179199, 4335.384277, 4271.794922, 95.000000, 1687.000000, 1644.000000, 0.000000, 0.000000, 0.000000, 0.000000, 883.076881, 1537850123.003077, 2.000000, 4.000000, 4.000000, 4.000000, 0.000000, 4.000000, 4.000000, 4.000000, 4.000000, 0.000000, 1.000000, 4.000000, 4.000000, 4.000000, 4.000000, 4.000000
93.000000, 0.000000, 4300.512695, 4255.897461, 4688.205078, 4492.307617, 4056.923096, 4854.871582, 4357.435547, 4460.512695, 4449.230469, 4490.769043, 4317.948730, 4158.461426, 4383.589844, 4283.589844, 485.000000, 1686.000000, 1644.000000, 0.000000, 0.000000, 0.000000, 0.000000, 891.282021, 1537850123.011282, 2.000000, 4.000000, 4.000000, 4.000000, 0.000000, 4.000000, 4.000000, 4.000000, 4.000000, 0.000000, 1.000000, 4.000000, 4.000000, 4.000000, 4.000000, 4.000000
94.000000, 0.000000, 4311.281738, 4157.436035, 4712.307617, 4492.820312, 4056.923096, 4865.127930, 4374.358887, 4471.794922, 4438.461426, 4490.256348, 4316.922852, 4174.871582, 4432.307617, 4300.000000, 500.000000, 1686.000000, 1644.000000, 0.000000, 0.000000, 0.000000, 0.000000, 898.974342, 1537850123.018974, 2.000000, 4.000000, 4.000000, 4.000000, 0.000000, 4.000000, 4.000000, 4.000000, 4.000000, 0.000000, 1.000000, 4.000000, 4.000000, 4.000000, 4.000000, 4.000000
95.000000, 0.000000, 4305.641113, 4133.846191, 4714.358887, 4484.102539, 4056.410156, 4862.051270, 4377.435547, 4481.538574, 4448.717773, 4490.769043, 4311.281738, 4174.358887, 4412.820312, 4296.410156, 500.000000, 1685.000000, 1644.000000, 0.000000, 0.000000, 0.000000, 0.000000, 906.666664, 1537850123.026667, 2.000000, 4.000000, 4.000000, 4.000000, 0.000000, 4.000000, 4.000000, 4.000000, 4.000000, 0.000000, 1.000000, 4.000000, 4.000000, 4.000000, 4.000000, 4.000000
96.000000, 0.000000, 4300.512695, 4217.436035, 4699.487305, 4482.563965, 4058.974365, 4860.512695, 4374.358887, 4484.615234, 4467.179199, 4490.769043, 4310.769043, 4170.256348, 4352.820312, 4293.846191, 95.000000, 1683.000000, 1645.000000, 0.000000, 0.000000, 0.000000, 0.000000, 914.358925, 1537850123.034359, 2.000000, 4.000000, 4.000000, 4.000000, 0.000000, 4.000000, 4.000000, 4.000000, 4.000000, 0.000000, 1.000000, 4.000000, 4.000000, 4.000000, 4.000000, 4.000000
97.000000, 0.000000, 4297.948730, 4271.794922, 4686.153809, 4494.871582, 4057.948730, 4865.641113, 4371.281738, 4481.538574, 4460.512695, 4489.230469, 4309.230469, 4169.230469, 4357.435547, 4294.358887, 485.000000, 1681.000000, 1646.000000, 0.000000, 0.000000, 0.000000, 0.000000, 922.051247, 1537850123.042051, 2.000000, 4.000000, 4.000000, 4.000000, 0.000000, 4.000000, 4.000000, 4.000000, 4.000000, 0.000000, 1.000000, 4.000000, 4.000000, 4.000000, 4.000000, 4.000000
98.000000, 0.000000, 4301.538574, 4184.102539, 4692.307617, 4487.692383, 4056.410156, 4869.230469, 4375.384277, 4483.589844, 4456.410156, 4488.205078, 4307.179199, 4170.256348, 4409.230469, 4295.384277, 500.000000, 1680.000000, 1649.000000, 0.000000, 0.000000, 0.000000, 0.000000, 930.256386, 1537850123.050256, 2.000000, 4.000000, 4.000000, 4.000000, 0.000000, 4.000000, 4.000000, 4.000000, 4.000000, 0.000000, 1.000000, 4.000000, 4.000000, 4.000000, 4.000000, 4.000000
99.000000, 0.000000, 4303.076660, 4139.487305, 4700.000000, 4483.076660, 4056.923096, 4866.666504, 4380.512695, 4484.615234, 4469.230469, 4488.717773, 4309.230469, 4172.820312, 4408.717773, 4297.948730, 500.000000, 1678.000000, 1649.000000, 0.000000, 0.000000, 0.000000, 0.000000, 937.948708, 1537850123.057949, 2.000000, 4.000000, 4.000000, 4.000000, 0.000000, 4.000000, 4.000000, 4.000000, 4.000000, 0.000000, 1.000000, 4.000000, 4.000000, 4.000000, 4.000000, 4.000000
100.000000, 0.000000, 4297.436035, 4217.436035, 4685.127930, 4487.179199, 4057.435791, 4857.948730, 4370.256348, 4474.871582, 4464.102539, 4488.717773, 4311.281738, 4168.717773, 4378.461426, 4288.205078, 95.000000, 1676.000000, 1651.000000, 0.000000, 0.000000, 0.000000, 0.000000, 945.641029, 1537850123.065641, 2.000000, 4.000000, 4.000000, 4.000000, 0.000000, 4.000000, 4.000000, 4.000000, 4.000000, 0.000000, 1.000000, 4.000000, 4.000000, 4.000000, 4.000000, 4.000000
101.000000, 0.000000, 4294.871582, 4198.461426, 4674.358887, 4473.333008, 4054.871582, 4857.948730, 4362.563965, 4466.666504, 4438.461426, 4488.717773, 4311.281738, 4159.487305, 4373.846191, 4279.487305, 485.000000, 1675.000000, 1650.000000, 0.000000, 0.000000, 0.000000, 0.000000, 953.333290, 1537850123.073333, 2.000000, 4.000000, 4.000000, 4.000000, 0.000000, 4.000000, 4.000000, 4.000000, 4.000000, 0.000000, 1.000000, 4.000000, 4.000000, 4.000000, 4.000000, 4.000000
102.000000, 0.000000, 4306.153809, 4158.974121, 4690.769043, 4490.256348, 4054.871582, 4875.384277, 4384.102539, 4482.563965, 4444.615234, 4488.717773, 4308.717773, 4172.820312, 4378.461426, 4301.538574, 500.000000, 1672.000000, 1650.000000, 0.000000, 0.000000, 0.000000, 0.000000, 961.025612, 1537850123.081026, 2.000000, 4.000000, 4.000000, 4.000000, 0.000000, 4.000000, 4.000000, 4.000000, 4.000000, 0.000000, 1.000000, 4.000000, 4.000000, 4.000000, 4.000000, 4.000000
103.000000, 0.000000, 4307.692383, 4255.384277, 4689.743652, 4532.307617, 4055.897217, 4881.538574, 4394.358887, 4492.820312, 4468.205078, 4488.717773, 4306.666504, 4184.615234, 4383.076660, 4312.820312, 500.000000, 1672.000000, 1649.000000, 0.000000, 0.000000, 0.000000, 0.000000, 969.230751, 1537850123.089231, 2.000000, 4.000000, 4.000000, 4.000000, 0.000000, 4.000000, 4.000000, 4.000000, 4.000000, 0.000000, 1.000000, 4.000000, 4.000000, 4.000000, 4.000000, 4.000000
104.000000, 0.000000, 4294.871582, 4289.230469, 4660.512695, 4512.307617, 4056.923096, 4863.076660, 4365.641113, 4470.256348, 4451.281738, 4488.717773, 4307.692383, 4165.127930, 4386.666504, 4286.153809, 95.000000, 1670.000000, 1648.000000, 0.000000, 0.000000, 0.000000, 0.000000, 976.923073, 1537850123.096923, 2.000000, 4.000000, 4.000000, 4.000000, 0.000000, 4.000000, 4.000000, 4.000000, 4.000000, 0.000000, 1.000000, 4.000000, 4.000000, 4.000000, 4.000000, 4.000000
105.000000, 0.000000, 4293.333008, 4203.589844, 4650.769043, 4479.487305, 4057.948730, 4852.307617, 4351.281738, 4454.871582, 4434.358887, 4488.717773, 4308.717773, 4154.358887, 4392.820312, 4274.358887, 485.000000, 1671.000000, 1647.000000, 0.000000, 0.000000, 0.000000, 0.000000, 984.615334, 1537850123.104615, 2.000000, 4.000000, 4.000000, 4.000000, 0.000000, 4.000000, 4.000000, 4.000000, 4.000000, 0.000000, 1.000000, 4.000000, 4.000000, 4.000000, 4.000000, 4.000000
106.000000, 0.000000, 4302.051270, 4142.563965, 4663.589844, 4480.000000, 4055.384521, 4861.025391, 4364.102539, 4466.153809, 4450.769043, 4488.717773, 4305.641113, 4169.230469, 4377.435547, 4289.743652, 500.000000, 1672.000000, 1647.000000, 0.000000, 0.000000, 0.000000, 0.000000, 992.820513, 1537850123.112821, 2.000000, 4.000000, 4.000000, 4.000000, 0.000000, 4.000000, 4.000000, 4.000000, 4.000000, 0.000000, 1.000000, 4.000000, 4.000000, 4.000000, 4.000000, 4.000000
107.000000, 0.000000, 4306.666504, 4143.589844, 4678.461426, 4475.384277, 4054.871582, 4870.256348, 4373.333008, 4479.487305, 4462.563965, 4488.717773, 4307.179199, 4183.589844, 4329.743652, 4307.179199, 500.000000, 1672.000000, 1648.000000, 0.000000, 0.000000, 0.000000, 1.000000, 0.512821, 1537850123.120513, 2.000000, 4.000000, 4.000000, 4.000000, 0.000000, 4.000000, 4.000000, 4.000000, 4.000000, 0.000000, 1.000000, 4.000000, 4.000000, 4.000000, 4.000000, 4.000000
108.000000, 0.000000, 4306.666504, 4221.538574, 4682.563965, 4502.051270, 4058.974365, 4880.512695, 4382.051270, 4488.717773, 4472.820312, 4488.717773, 4321.025391, 4194.358887, 4360.000000, 4321.538574, 95.000000, 1673.000000, 1647.000000, 0.000000, 0.000000, 0.000000, 1.000000, 8.205128, 1537850123.128205, 2.000000, 4.000000, 4.000000, 4.000000, 0.000000, 4.000000, 4.000000, 4.000000, 4.000000, 0.000000, 1.000000, 4.000000, 4.000000, 4.000000, 4.000000, 4.000000
109.000000, 0.000000, 4310.256348, 4296.410156, 4681.025391, 4543.076660, 4059.487061, 4896.410156, 4395.384277, 4499.487305, 4487.179199, 4488.717773, 4327.692383, 4202.563965, 4465.641113, 4325.127930, 485.000000, 1674.000000, 1646.000000, 0.000000, 0.000000, 0.000000, 1.000000, 16.410255, 1537850123.136410, 2.000000, 4.000000, 4.000000, 4.000000, 0.000000, 4.000000, 4.000000, 4.000000, 4.000000, 0.000000, 1.000000, 4.000000, 4.000000, 4.000000, 4.000000, 4.000000
110.000000, 0.000000, 4306.153809, 4252.307617, 4675.897461, 4524.102539, 4054.871582, 4895.897461, 4389.230469, 4494.358887, 4476.922852, 4488.717773, 4315.897461, 4193.846191, 4460.000000, 4311.281738, 500.000000, 1675.000000, 1644.000000, 0.000000, 0.000000, 0.000000, 1.000000, 24.102562, 1537850123.144103, 2.000000, 4.000000, 4.000000, 4.000000, 0.000000, 4.000000, 4.000000, 4.000000, 4.000000, 0.000000, 1.000000, 4.000000, 4.000000, 4.000000, 4.000000, 4.000000
111.000000, 0.000000, 4297.948730, 4189.230469, 4663.589844, 4485.641113, 4054.871582, 4871.794922, 4370.256348, 4481.025391, 4457.948730, 4488.717773, 4309.230469, 4177.948730, 4378.974121, 4298.974121, 500.000000, 1675.000000, 1644.000000, 0.000000, 0.000000, 0.000000, 1.000000, 31.794872, 1537850123.151795, 2.000000, 4.000000, 4.000000, 4.000000, 0.000000, 4.000000, 4.000000, 4.000000, 4.000000, 0.000000, 1.000000, 4.000000, 4.000000, 4.000000, 4.000000, 4.000000
112.000000, 0.000000, 4297.436035, 4171.281738, 4654.871582, 4471.794922, 4056.410156, 4851.794922, 4358.461426, 4469.230469, 4450.769043, 4488.717773, 4307.179199, 4167.692383, 4369.230469, 4292.307617, 95.000000, 1676.000000, 1643.000000, 0.000000, 0.000000, 0.000000, 1.000000, 39.487179, 1537850123.159487, 2.000000, 4.000000, 4.000000, 4.000000, 0.000000, 4.000000, 4.000000, 4.000000, 4.000000, 0.000000, 1.000000, 4.000000, 4.000000, 4.000000, 4.000000, 4.000000
113.000000, 0.000000, 4308.717773, 4186.666504, 4664.102539, 4481.538574, 4055.897217, 4866.153809, 4368.717773, 4473.333008, 4460.000000, 4488.717773, 4306.153809, 4171.794922, 4373.846191, 4293.333008, 485.000000, 1675.000000, 1644.000000, 0.000000, 0.000000, 0.000000, 1.000000, 47.692307, 1537850123.167692, 2.000000, 4.000000, 4.000000, 4.000000, 0.000000, 4.000000, 4.000000, 4.000000, 4.000000, 0.000000, 1.000000, 4.000000, 4.000000, 4.000000, 4.000000, 4.000000
114.000000, 0.000000, 4311.281738, 4225.641113, 4668.717773, 4497.948730, 4055.897217, 4882.563965, 4386.666504, 4492.820312, 4478.461426, 4489.230469, 4314.871582, 4183.589844, 4362.051270, 4303.589844, 500.000000, 1677.000000, 1644.000000, 0.000000, 0.000000, 0.000000, 1.000000, 55.384613, 1537850123.175385, 2.000000, 4.000000, 4.000000, 4.000000, 0.000000, 4.000000, 4.000000, 4.000000, 4.000000, 0.000000, 1.000000, 4.000000, 4.000000, 4.000000, 4.000000, 4.000000
115.000000, 0.000000, 4302.563965, 4196.922852, 4651.281738, 4485.641113, 4056.923096, 4860.512695, 4370.256348, 4482.563965, 4466.666504, 4490.256348, 4322.051270, 4173.846191, 4386.666504, 4296.922852, 500.000000, 1676.000000, 1646.000000, 0.000000, 0.000000, 0.000000, 1.000000, 63.076920, 1537850123.183077, 2.000000, 4.000000, 4.000000, 4.000000, 0.000000, 4.000000, 4.000000, 4.000000, 4.000000, 0.000000, 1.000000, 4.000000, 4.000000, 4.000000, 4.000000, 4.000000
116.000000, 0.000000, 4302.051270, 4169.743652, 4645.641113, 4477.948730, 4056.410156, 4846.153809, 4352.307617, 4457.948730, 4448.205078, 4490.769043, 4317.948730, 4163.076660, 4411.281738, 4289.230469, 95.000000, 1676.000000, 1649.000000, 0.000000, 0.000000, 0.000000, 1.000000, 71.282051, 1537850123.191282, 2.000000, 4.000000, 4.000000, 4.000000, 0.000000, 4.000000, 4.000000, 4.000000, 4.000000, 0.000000, 1.000000, 4.000000, 4.000000, 4.000000, 4.000000, 4.000000
117.000000, 0.000000, 4308.205078, 4248.205078, 4651.794922, 4509.743652, 4057.435791, 4859.487305, 4359.487305, 4460.000000, 4453.333008, 4490.769043, 4314.358887, 4172.307617, 4410.256348, 4300.512695, 485.000000, 1677.000000, 1649.000000, 0.000000, 0.000000, 0.000000, 1.000000, 78.974358, 1537850123.198974, 2.000000, 4.000000, 4.000000, 4.000000, 0.000000, 4.000000, 4.000000, 4.000000, 4.000000, 0.000000, 1.000000, 4.000000, 4.000000, 4.000000, 4.000000, 4.000000
118.000000, 0.000000, 4307.179199, 4237.436035, 4648.205078, 4501.538574, 4055.897217, 4854.358887, 4353.333008, 4457.435547, 4439.487305, 4489.743652, 4309.743652, 4174.358887, 4390.769043, 4306.153809, 500.000000, 1677.000000, 1653.000000, 0.000000, 0.000000, 0.000000, 1.000000, 86.666664, 1537850123.206667, 2.000000, 4.000000, 4.000000, 4.000000, 0.000000, 4.000000, 4.000000, 4.000000, 4.000000, 0.000000, 1.000000, 4.000000, 4.000000, 4.000000, 4.000000, 4.000000
119.000000, 0.000000, 4309.743652, 4129.743652, 4660.000000, 4463.589844, 4053.845947, 4846.666504, 4347.179199, 4450.769043, 4427.179199, 4489.230469, 4307.179199, 4175.384277, 4382.563965, 4307.179199, 500.000000, 1678.000000, 1654.000000, 0.000000, 0.000000, 0.000000, 1.000000, 94.871796, 1537850123.214872, 2.000000, 4.000000, 4.000000, 4.000000, 0.000000, 4.000000, 4.000000, 4.000000, 4.000000, 0.000000, 1.000000, 4.000000, 4.000000, 4.000000, 4.000000, 4.000000
120.000000, 0.000000, 4311.281738, 4183.076660, 4674.871582, 4485.641113, 4057.948730, 4861.025391, 4366.666504, 4470.769043, 4457.948730, 4489.743652, 4313.333008, 4188.205078, 4396.922852, 4313.333008, 95.000000, 1678.000000, 1654.000000, 0.000000, 0.000000, 0.000000, 1.000000, 102.564102, 1537850123.222564, 2.000000, 4.000000, 4.000000, 4.000000, 0.000000, 4.000000, 4.000000, 4.000000, 4.000000, 0.000000, 1.000000, 4.000000, 4.000000, 4.000000, 4.000000, 4.000000
121.000000, 0.000000, 4302.563965, 4302.563965, 4659.487305, 4523.589844, 4060.000000, 4863.076660, 4372.307617, 4480.000000, 4467.179199, 4489.743652, 4315.897461, 4187.692383, 4394.358887, 4310.256348, 485.000000, 1678.000000, 1652.000000, 0.000000, 0.000000, 0.000000, 1.000000, 110.256409, 1537850123.230256, 2.000000, 4.000000, 4.000000, 4.000000, 0.000000, 4.000000, 4.000000, 4.000000, 4.000000, 0.000000, 1.000000, 4.000000, 4.000000, 4.000000, 4.000000, 4.000000
122.000000, 0.000000, 4298.461426, 4234.358887, 4642.563965, 4503.076660, 4056.410156, 4847.692383, 4354.871582, 4463.076660, 4443.589844, 4489.230469, 4313.846191, 4173.333008, 4374.871582, 4296.922852, 500.000000, 1678.000000, 1650.000000, 0.000000, 0.000000, 0.000000, 1.000000, 117.948723, 1537850123.237949, 2.000000, 4.000000, 4.000000, 4.000000, 0.000000, 4.000000, 4.000000, 4.000000, 4.000000, 0.000000, 1.000000, 4.000000, 4.000000, 4.000000, 4.000000, 4.000000
123.000000, 0.000000, 4299.487305, 4090.256348, 4640.512695, 4444.615234, 4055.384521, 4838.461426, 4343.076660, 4449.230469, 4442.563965, 4489.230469, 4312.820312, 4158.461426, 4374.358887, 4282.051270, 500.000000, 1679.000000, 1644.000000, 0.000000, 0.000000, 0.000000, 1.000000, 125.641029, 1537850123.245641, 2.000000, 4.000000, 4.000000, 4.000000, 0.000000, 4.000000, 4.000000, 4.000000, 4.000000, 0.000000, 1.000000, 4.000000, 4.000000, 4.000000, 4.000000, 4.000000
124.000000, 0.000000, 4298.974121, 4113.333008, 4635.897461, 4436.410156, 4058.974365, 4840.000000, 4337.948730, 4441.025391, 4441.025391, 4489.743652, 4306.666504, 4145.127930, 4365.127930, 4270.256348, 95.000000, 1680.000000, 1644.000000, 0.000000, 0.000000, 0.000000, 1.000000, 133.846153, 1537850123.253846, 2.000000, 4.000000, 4.000000, 4.000000, 0.000000, 4.000000, 4.000000, 4.000000, 4.000000, 0.000000, 1.000000, 4.000000, 4.000000, 4.000000, 4.000000, 4.000000
125.000000, 0.000000, 4305.127930, 4256.922852, 4641.025391, 4504.615234, 4058.974365, 4856.410156, 4343.076660, 4438.461426, 4420.000000, 4488.717773, 4304.615234, 4152.820312, 4348.717773, 4285.641113, 485.000000, 1679.000000, 1643.000000, 0.000000, 0.000000, 0.000000, 1.000000, 141.538460, 1537850123.261539, 2.000000, 4.000000, 4.000000, 4.000000, 0.000000, 4.000000, 4.000000, 4.000000, 4.000000, 0.000000, 1.000000, 4.000000, 4.000000, 4.000000, 4.000000, 4.000000
126.000000, 0.000000, 4312.307617, 4275.384277, 4652.307617, 4525.641113, 4054.358887, 4856.922852, 4348.717773, 4443.589844, 4418.461426, 4488.205078, 4311.794922, 4165.641113, 4360.512695, 4302.563965, 500.000000, 1679.000000, 1644.000000, 0.000000, 0.000000, 0.000000, 1.000000, 149.230766, 1537850123.269231, 2.000000, 4.000000, 4.000000, 4.000000, 0.000000, 4.000000, 4.000000, 4.000000, 4.000000, 0.000000, 1.000000, 4.000000, 4.000000, 4.000000, 4.000000, 4.000000
127.000000, 0.000000, 4303.589844, 4173.846191, 4641.538574, 4472.820312, 4054.358887, 4830.769043, 4343.589844, 4452.307617, 4444.102539, 4488.717773, 4312.307617, 4155.384277, 4368.205078, 4285.127930, 500.000000, 1679.000000, 1644.000000, 0.000000, 0.000000, 0.000000, 1.000000, 156.923073, 1537850123.276923, 2.000000, 4.000000, 4.000000, 4.000000, 0.000000, 4.000000, 4.000000, 4.000000, 4.000000, 0.000000, 1.000000, 4.000000, 4.000000, 4.000000, 4.000000, 4.000000
128.000000, 0.000000, 4297.948730, 4157.436035, 4627.179199, 4460.512695, 4058.974365, 4827.179199, 4341.538574, 4451.281738, 4449.230469, 4488.717773, 4307.179199, 4146.666504, 4362.051270, 4274.358887, 95.000000, 1678.000000, 1644.000000, 0.000000, 0.000000, 0.000000, 1.000000, 165.128197, 1537850123.285128, 2.000000, 4.000000, 4.000000, 4.000000, 0.000000, 4.000000, 4.000000, 4.000000, 4.000000, 0.000000, 1.000000, 4.000000, 4.000000, 4.000000, 4.000000, 4.000000
0.000000, 0.000000, 4304.615234, 4191.794922, 4635.897461, 4480.000000, 4055.897217, 4846.666504, 4345.641113, 4445.127930, 4427.692383, 4488.717773, 4309.743652, 4154.358887, 4379.487305, 4290.769043, 498.000000, 1675.000000, 1641.000000, 0.000000, 0.000000, 0.000000, 1.000000, 172.820503, 1537850123.292820, 2.000000, 4.000000, 4.000000, 4.000000, 0.000000, 4.000000, 4.000000, 4.000000, 4.000000, 0.000000, 1.000000, 4.000000, 4.000000, 4.000000, 4.000000, 4.000000
1.000000, 0.000000, 4310.769043, 4170.769043, 4645.641113, 4477.948730, 4052.820312, 4848.205078, 4349.743652, 4452.820312, 4425.641113, 4488.717773, 4312.307617, 4157.436035, 4385.641113, 4300.512695, 500.000000, 1673.000000, 1640.000000, 0.000000, 0.000000, 0.000000, 1.000000, 180.512810, 1537850123.300513, 2.000000, 4.000000, 4.000000, 4.000000, 0.000000, 4.000000, 4.000000, 4.000000, 4.000000, 0.000000, 1.000000, 4.000000, 4.000000, 4.000000, 4.000000, 4.000000
2.000000, 0.000000, 4303.076660, 4208.205078, 4631.794922, 4491.281738, 4056.923096, 4841.538574, 4349.743652, 4460.512695, 4438.461426, 4489.230469, 4307.692383, 4150.256348, 4353.333008, 4294.358887, 255.000000, 1671.000000, 1637.000000, 0.000000, 0.000000, 0.000000, 1.000000, 188.717949, 1537850123.308718, 2.000000, 4.000000, 4.000000, 4.000000, 0.000000, 4.000000, 4.000000, 4.000000, 4.000000, 0.000000, 1.000000, 4.000000, 4.000000, 4.000000, 4.000000, 4.000000
3.000000, 0.000000, 4299.487305, 4228.717773, 4617.435547, 4494.358887, 4060.000000, 4843.076660, 4346.666504, 4452.307617, 4447.179199, 4489.743652, 4304.102539, 4146.666504, 4340.000000, 4289.743652, 500.000000, 1668.000000, 1638.000000, 0.000000, 0.000000, 0.000000, 1.000000, 196.410255, 1537850123.316410, 2.000000, 4.000000, 4.000000, 4.000000, 0.000000, 4.000000, 4.000000, 4.000000, 4.000000, 0.000000, 1.000000, 4.000000, 4.000000, 4.000000, 4.000000, 4.000000
4.000000, 0.000000, 4309.230469, 4125.641113, 4626.666504, 4463.589844, 4055.384521, 4842.051270, 4347.692383, 4450.256348, 4455.897461, 4488.717773, 4306.153809, 4147.692383, 4363.589844, 4291.281738, 0.000000, 1668.000000, 1638.000000, 0.000000, 0.000000, 0.000000, 1.000000, 204.102562, 1537850123.324103, 2.000000, 4.000000, 4.000000, 4.000000, 0.000000, 4.000000, 4.000000, 4.000000, 4.000000, 0.000000, 1.000000, 4.000000, 4.000000, 4.000000, 4.000000, 4.000000
5.000000, 0.000000, 4315.897461, 4146.153809, 4643.589844, 4481.025391, 4055.384521, 4846.153809, 4359.487305, 4465.127930, 4451.794922, 4488.717773, 4312.820312, 4157.436035, 4377.948730, 4302.563965, 500.000000, 1665.000000, 1639.000000, 0.000000, 0.000000, 0.000000, 1.000000, 212.307686, 1537850123.332308, 2.000000, 4.000000, 4.000000, 4.000000, 0.000000, 4.000000, 4.000000, 4.000000, 4.000000, 0.000000, 1.000000, 4.000000, 4.000000, 4.000000, 4.000000, 4.000000
6.000000, 0.000000, 4304.615234, 4308.717773, 4635.384277, 4525.127930, 4058.461426, 4853.846191, 4360.000000, 4466.153809, 4432.307617, 4489.743652, 4312.307617, 4158.461426, 4371.281738, 4304.615234, 500.000000, 1665.000000, 1639.000000, 0.000000, 0.000000, 0.000000, 1.000000, 219.999992, 1537850123.340000, 2.000000, 4.000000, 4.000000, 4.000000, 0.000000, 4.000000, 4.000000, 4.000000, 4.000000, 0.000000, 1.000000, 4.000000, 4.000000, 4.000000, 4.000000, 4.000000
7.000000, 0.000000, 4289.230469, 4248.205078, 4602.563965, 4487.179199, 4058.461426, 4838.461426, 4331.794922, 4433.333008, 4413.333008, 4490.769043, 4303.589844, 4130.256348, 4336.410156, 4277.948730, 472.000000, 1666.000000, 1639.000000, 0.000000, 0.000000, 0.000000, 1.000000, 227.692299, 1537850123.347692, 2.000000, 4.000000, 4.000000, 4.000000, 0.000000, 4.000000, 4.000000, 4.000000, 4.000000, 0.000000, 1.000000, 4.000000, 4.000000, 4.000000, 4.000000, 4.000000
8.000000, 0.000000, 4297.948730, 4045.640869, 4598.974121, 4422.563965, 4056.923096, 4821.025391, 4313.846191, 4409.230469, 4408.205078, 4490.256348, 4300.512695, 4120.512695, 4318.461426, 4272.307617, 454.000000, 1666.000000, 1641.000000, 0.000000, 0.000000, 0.000000, 1.000000, 235.384605, 1537850123.355385, 2.000000, 4.000000, 4.000000, 4.000000, 0.000000, 4.000000, 4.000000, 4.000000, 4.000000, 0.000000, 1.000000, 4.000000, 4.000000, 4.000000, 4.000000, 4.000000
9.000000, 0.000000, 4312.820312, 4118.974121, 4631.794922, 4459.487305, 4054.358887, 4836.410156, 4334.358887, 4431.281738, 4425.641113, 4490.256348, 4309.230469, 4154.871582, 4363.589844, 4307.179199, 0.000000, 1668.000000, 1640.000000, 0.000000, 0.000000, 0.000000, 1.000000, 243.589729, 1537850123.363590, 2.000000, 4.000000, 4.000000, 4.000000, 0.000000, 4.000000, 4.000000, 4.000000, 4.000000, 0.000000, 1.000000, 4.000000, 4.000000, 4.000000, 4.000000, 4.000000
10.000000, 0.000000, 4303.076660, 4318.974121, 4627.179199, 4521.025391, 4054.358887, 4848.205078, 4344.102539, 4447.179199, 4433.333008, 4490.256348, 4313.333008, 4161.025391, 4390.769043, 4309.743652, 500.000000, 1668.000000, 1638.000000, 0.000000, 0.000000, 0.000000, 1.000000, 251.282051, 1537850123.371282, 2.000000, 4.000000, 4.000000, 4.000000, 0.000000, 4.000000, 4.000000, 4.000000, 4.000000, 0.000000, 1.000000, 4.000000, 4.000000, 4.000000, 4.000000, 4.000000
11.000000, 0.000000, 4284.615234, 4257.948730, 4584.102539, 4477.948730, 4058.461426, 4827.692383, 4324.102539, 4424.615234, 4423.076660, 4490.256348, 4304.615234, 4125.127930, 4343.589844, 4270.256348, 500.000000, 1670.000000, 1637.000000, 0.000000, 0.000000, 0.000000, 1.000000, 258.974342, 1537850123.378974, 2.000000, 4.000000, 4.000000, 4.000000, 0.000000, 4.000000, 4.000000, 4.000000, 4.000000, 0.000000, 1.000000, 4.000000, 4.000000, 4.000000, 4.000000, 4.000000
12.000000, 0.000000, 4296.922852, 4065.640869, 4582.563965, 4413.846191, 4060.512695, 4818.461426, 4326.153809, 4430.769043, 4447.692383, 4490.769043, 4303.076660, 4119.487305, 4320.000000, 4267.179199, 95.000000, 1670.000000, 1636.000000, 0.000000, 0.000000, 0.000000, 1.000000, 266.666664, 1537850123.386667, 2.000000, 4.000000, 4.000000, 4.000000, 0.000000, 4.000000, 4.000000, 4.000000, 4.000000, 0.000000, 1.000000, 4.000000, 4.000000, 4.000000, 4.000000, 4.000000
13.000000, 0.000000, 4314.358887, 4113.333008, 4616.410156, 4447.692383, 4055.384521, 4840.512695, 4350.256348, 4461.025391, 4473.333008, 4490.769043, 4313.846191, 4150.256348, 4357.435547, 4304.615234, 485.000000, 1673.000000, 1634.000000, 0.000000, 0.000000, 0.000000, 1.000000, 274.871803, 1537850123.394872, 2.000000, 4.000000, 4.000000, 4.000000, 0.000000, 4.000000, 4.000000, 4.000000, 4.000000, 0.000000, 1.000000, 4.000000, 4.000000, 4.000000, 4.000000, 4.000000
14.000000, 0.000000, 4310.769043, 4268.205078, 4624.102539, 4502.051270, 4052.307617, 4851.794922, 4350.769043, 4454.358887, 4442.051270, 4490.769043, 4317.436035, 4165.127930, 4366.666504, 4317.948730, 500.000000, 1672.000000, 1635.000000, 0.000000, 0.000000, 0.000000, 1.000000, 282.564095, 1537850123.402564, 2.000000, 4.000000, 4.000000, 4.000000, 0.000000, 4.000000, 4.000000, 4.000000, 4.000000, 0.000000, 1.000000, 4.000000, 4.000000, 4.000000, 4.000000, 4.000000
15.000000, 0.000000, 4300.512695, 4207.179199, 4607.692383, 4476.922852, 4056.410156, 4836.922852, 4329.743652, 4430.769043, 4428.717773, 4490.256348, 4307.179199, 4153.846191, 4350.256348, 4300.000000, 500.000000, 1674.000000, 1636.000000, 0.000000, 0.000000, 0.000000, 1.000000, 290.256416, 1537850123.410256, 2.000000, 4.000000, 4.000000, 4.000000, 0.000000, 4.000000, 4.000000, 4.000000, 4.000000, 0.000000, 1.000000, 4.000000, 4.000000, 4.000000, 4.000000, 4.000000
16.000000, 0.000000, 4301.538574, 4122.563965, 4598.461426, 4448.717773, 4060.512695, 4825.127930, 4318.461426, 4426.153809, 4452.820312, 4490.256348, 4305.127930, 4142.051270, 4356.410156, 4289.743652, 0.000000, 1674.000000, 1635.000000, 0.000000, 0.000000, 0.000000, 1.000000, 298.461525, 1537850123.418461, 2.000000, 4.000000, 4.000000, 4.000000, 0.000000, 4.000000, 4.000000, 4.000000, 4.000000, 0.000000, 1.000000, 4.000000, 4.000000, 4.000000, 4.000000, 4.000000
17.000000, 0.000000, 4306.153809, 4184.615234, 4601.538574, 4471.281738, 4058.461426, 4827.179199, 4316.922852, 4424.615234, 4432.820312, 4490.256348, 4310.256348, 4141.025391, 4364.615234, 4295.384277, 0.000000, 1675.000000, 1636.000000, 0.000000, 0.000000, 0.000000, 1.000000, 306.153847, 1537850123.426154, 2.000000, 4.000000, 4.000000, 4.000000, 0.000000, 4.000000, 4.000000, 4.000000, 4.000000, 0.000000, 1.000000, 4.000000, 4.000000, 4.000000, 4.000000, 4.000000
18.000000, 0.000000, 4308.717773, 4225.127930, 4604.102539, 4482.563965, 4055.384521, 4828.205078, 4315.384277, 4417.435547, 4400.000000, 4489.743652, 4307.692383, 4146.666504, 4357.948730, 4297.436035, 0.000000, 1676.000000, 1632.000000, 0.000000, 0.000000, 0.000000, 1.000000, 313.846138, 1537850123.433846, 2.000000, 4.000000, 4.000000, 4.000000, 0.000000, 4.000000, 4.000000, 4.000000, 4.000000, 0.000000, 1.000000, 4.000000, 4.000000, 4.000000, 4.000000, 4.000000
19.000000, 0.000000, 4311.794922, 4191.281738, 4612.307617, 4471.281738, 4054.358887, 4830.769043, 4323.589844, 4426.153809, 4423.076660, 4488.717773, 4307.692383, 4152.307617, 4361.025391, 4298.974121, 0.000000, 1674.000000, 1630.000000, 0.000000, 0.000000, 0.000000, 1.000000, 322.051277, 1537850123.442051, 2.000000, 4.000000, 4.000000, 4.000000, 0.000000, 4.000000, 4.000000, 4.000000, 4.000000, 0.000000, 1.000000, 4.000000, 4.000000, 4.000000, 4.000000, 4.000000
20.000000, 0.000000, 4315.384277, 4196.922852, 4623.076660, 4479.487305, 4055.897217, 4843.076660, 4340.000000, 4444.102539, 4446.666504, 4488.717773, 4313.333008, 4157.436035, 4364.102539, 4307.179199, 0.000000, 1675.000000, 1625.000000, 0.000000, 0.000000, 0.000000, 1.000000, 329.743568, 1537850123.449744, 2.000000, 4.000000, 4.000000, 4.000000, 0.000000, 4.000000, 4.000000, 4.000000, 4.000000, 0.000000, 1.000000, 4.000000, 4.000000, 4.000000, 4.000000, 4.000000
21.000000, 0.000000, 4313.333008, 4175.897461, 4615.897461, 4475.384277, 4056.410156, 4842.563965, 4343.076660, 4446.666504, 4438.974121, 4488.717773, 4307.692383, 4153.333008, 4333.333008, 4302.563965, 0.000000, 1673.000000, 1620.000000, 0.000000, 0.000000, 0.000000, 1.000000, 337.435890, 1537850123.457436, 2.000000, 4.000000, 4.000000, 4.000000, 0.000000, 4.000000, 4.000000, 4.000000, 4.000000, 0.000000, 1.000000, 4.000000, 4.000000, 4.000000, 4.000000, 4.000000
22.000000, 0.000000, 4311.794922, 4106.666504, 4608.205078, 4450.256348, 4057.435791, 4838.461426, 4339.487305, 4443.076660, 4437.948730, 4488.717773, 4299.487305, 4144.102539, 4316.410156, 4292.307617, 0.000000, 1672.000000, 1615.000000, 0.000000, 0.000000, 0.000000, 1.000000, 345.128212, 1537850123.465128, 2.000000, 4.000000, 4.000000, 4.000000, 0.000000, 4.000000, 4.000000, 4.000000, 4.000000, 0.000000, 1.000000, 4.000000, 4.000000, 4.000000, 4.000000, 4.000000
23.000000, 0.000000, 4306.666504, 4154.871582, 4606.153809, 4471.794922, 4058.461426, 4843.589844, 4338.974121, 4443.076660, 4437.948730, 4488.717773, 4307.179199, 4141.025391, 4354.871582, 4287.692383, 0.000000, 1671.000000, 1611.000000, 0.000000, 0.000000, 0.000000, 1.000000, 352.820503, 1537850123.472821, 2.000000, 4.000000, 4.000000, 4.000000, 0.000000, 4.000000, 4.000000, 4.000000, 4.000000, 0.000000, 1.000000, 4.000000, 4.000000, 4.000000, 4.000000, 4.000000
24.000000, 0.000000, 4297.436035, 4229.743652, 4594.358887, 4508.205078, 4058.461426, 4834.871582, 4329.230469, 4433.333008, 4424.102539, 4488.205078, 4313.846191, 4135.897461, 4380.512695, 4280.512695, 0.000000, 1670.000000, 1606.000000, 0.000000, 0.000000, 0.000000, 1.000000, 361.025642, 1537850123.481026, 2.000000, 4.000000, 4.000000, 4.000000, 0.000000, 4.000000, 4.000000, 4.000000, 4.000000, 0.000000, 1.000000, 4.000000, 4.000000, 4.000000, 4.000000, 4.000000
25.000000, 0.000000, 4305.641113, 4209.230469, 4598.974121, 4517.435547, 4057.948730, 4830.256348, 4334.358887, 4434.871582, 4429.230469, 4489.230469, 4311.281738, 4145.641113, 4354.871582, 4292.307617, 0.000000, 1668.000000, 1605.000000, 0.000000, 0.000000, 0.000000, 1.000000, 368.717934, 1537850123.488718, 2.000000, 4.000000, 4.000000, 4.000000, 0.000000, 4.000000, 4.000000, 4.000000, 4.000000, 0.000000, 1.000000, 4.000000, 4.000000, 4.000000, 4.000000, 4.000000
26.000000, 0.000000, 4320.000000, 4184.102539, 4622.051270, 4518.974121, 4058.461426, 4845.127930, 4356.922852, 4455.897461, 4445.641113, 4490.256348, 4315.384277, 4174.871582, 4362.051270, 4327.179199, 0.000000, 1669.000000, 1606.000000, 0.000000, 0.000000, 0.000000, 1.000000, 376.410255, 1537850123.496410, 2.000000, 4.000000, 4.000000, 4.000000, 0.000000, 4.000000, 4.000000, 4.000000, 4.000000, 0.000000, 1.000000, 4.000000, 4.000000, 4.000000, 4.000000, 4.000000
27.000000, 0.000000, 4320.000000, 4215.384277, 4624.102539, 4508.205078, 4059.487061, 4857.435547, 4363.076660, 4464.615234, 4445.127930, 4490.769043, 4325.641113, 4186.153809, 4415.897461, 4339.487305, 0.000000, 1668.000000, 1607.000000, 0.000000, 0.000000, 0.000000, 1.000000, 384.615364, 1537850123.504616, 2.000000, 4.000000, 4.000000, 4.000000, 0.000000, 4.000000, 4.000000, 4.000000, 4.000000, 0.000000, 1.000000, 4.000000, 4.000000, 4.000000, 4.000000, 4.000000
28.000000, 0.000000, 4314.871582, 4205.641113, 4616.922852, 4486.153809, 4057.948730, 4859.487305, 4355.897461, 4461.538574, 4453.846191, 4490.769043, 4320.000000, 4174.358887, 4403.589844, 4326.666504, 0.000000, 1668.000000, 1610.000000, 0.000000, 0.000000, 0.000000, 1.000000, 392.307686, 1537850123.512308, 2.000000, 4.000000, 4.000000, 4.000000, 0.000000, 4.000000, 4.000000, 4.000000, 4.000000, 0.000000, 1.000000, 4.000000, 4.000000, 4.000000, 4.000000, 4.000000
29.000000, 0.000000, 4316.922852, 4178.974121, 4617.948730, 4489.743652, 4059.487061, 4860.512695, 4354.358887, 4461.538574, 4463.589844, 4490.256348, 4305.641113, 4168.205078, 4346.153809, 4320.000000, 0.000000, 1668.000000, 1613.000000, 0.000000, 0.000000, 0.000000, 1.000000, 399.999977, 1537850123.520000, 2.000000, 4.000000, 4.000000, 4.000000, 0.000000, 4.000000, 4.000000, 4.000000, 4.000000, 0.000000, 1.000000, 4.000000, 4.000000, 4.000000, 4.000000, 4.000000
30.000000, 0.000000, 4320.000000, 4210.256348, 4623.076660, 4495.384277, 4059.487061, 4861.025391, 4360.000000, 4465.641113, 4460.512695, 4489.743652, 4311.794922, 4175.897461, 4381.025391, 4320.512695, 0.000000, 1669.000000, 1618.000000, 0.000000, 0.000000, 0.000000, 1.000000, 408.205116, 1537850123.528205, 2.000000, 4.000000, 4.000000, 4.000000, 0.000000, 4.000000, 4.000000, 4.000000, 4.000000, 0.000000, 1.000000, 4.000000, 4.000000, 4.000000, 4.000000, 4.000000
31.000000, 0.000000, 4318.974121, 4211.281738, 4627.692383, 4473.846191, 4055.897217, 4862.051270, 4360.000000, 4468.205078, 4457.948730, 4489.743652, 4323.076660, 4170.769043, 4431.281738, 4308.717773, 0.000000, 1671.000000, 1617.000000, 0.000000, 0.000000, 0.000000, 1.000000, 415.897438, 1537850123.535897, 2.000000, 4.000000, 4.000000, 4.000000, 0.000000, 4.000000, 4.000000, 4.000000, 4.000000, 0.000000, 1.000000, 4.000000, 4.000000, 4.000000, 4.000000, 4.000000
32.000000, 0.000000, 4310.256348, 4166.666504, 4620.512695, 4474.871582, 4055.897217, 4860.512695, 4351.794922, 4460.000000, 4449.743652, 4489.230469, 4309.743652, 4156.922852, 4360.512695, 4296.410156, 0.000000, 1672.000000, 1618.000000, 0.000000, 0.000000, 0.000000, 1.000000, 423.589729, 1537850123.543590, 2.000000, 4.000000, 4.000000, 4.000000, 0.000000, 4.000000, 4.000000, 4.000000, 4.000000, 0.000000, 1.000000, 4.000000, 4.000000, 4.000000, 4.000000, 4.000000
33.000000, 0.000000, 4306.666504, 4176.410156, 4611.794922, 4496.410156, 4059.487061, 4854.358887, 4349.230469, 4452.820312, 4436.922852, 4489.230469, 4301.025391, 4158.974121, 4320.512695, 4303.589844, 0.000000, 1675.000000, 1617.000000, 0.000000, 0.000000, 0.000000, 1.000000, 431.282051, 1537850123.551282, 2.000000, 4.000000, 4.000000, 4.000000, 0.000000, 4.000000, 4.000000, 4.000000, 4.000000, 0.000000, 1.000000, 4.000000, 4.000000, 4.000000, 4.000000, 4.000000
34.000000, 0.000000, 4315.897461, 4222.563965, 4622.051270, 4495.897461, 4057.948730, 4861.025391, 4364.615234, 4469.230469, 4449.230469, 4489.743652, 4319.487305, 4173.333008, 4399.487305, 4322.563965, 0.000000, 1676.000000, 1616.000000, 0.000000, 0.000000, 0.000000, 1.000000, 439.487160, 1537850123.559487, 2.000000, 4.000000, 4.000000, 4.000000, 0.000000, 4.000000, 4.000000, 4.000000, 4.000000, 0.000000, 1.000000, 4.000000, 4.000000, 4.000000, 4.000000, 4.000000
35.000000, 0.000000, 4323.589844, 4192.307617, 4634.871582, 4483.589844, 4055.897217, 4871.794922, 4374.871582, 4481.025391, 4469.743652, 4489.743652, 4325.127930, 4178.974121, 4432.820312, 4330.256348, 0.000000, 1678.000000, 1615.000000, 0.000000, 0.000000, 0.000000, 1.000000, 447.179482, 1537850123.567179, 2.000000, 4.000000, 4.000000, 4.000000, 0.000000, 4.000000, 4.000000, 4.000000, 4.000000, 0.000000, 1.000000, 4.000000, 4.000000, 4.000000, 4.000000, 4.000000
36.000000, 0.000000, 4313.846191, 4171.794922, 4616.922852, 4483.589844, 4055.897217, 4860.512695, 4354.358887, 4461.538574, 4452.307617, 4488.717773, 4309.743652, 4164.102539, 4392.307617, 4317.436035, 0.000000, 1678.000000, 1616.000000, 0.000000, 0.000000, 0.000000, 1.000000, 454.871773, 1537850123.574872, 2.000000, 4.000000, 4.000000, 4.000000, 0.000000, 4.000000, 4.000000, 4.000000, 4.000000, 0.000000, 1.000000, 4.000000, 4.000000, 4.000000, 4.000000, 4.000000
37.000000, 0.000000, 4301.538574, 4227.692383, 4594.871582, 4488.717773, 4055.897217, 4842.563965, 4338.974121, 4451.281738, 4447.692383, 4488.205078, 4307.692383, 4153.333008, 4373.333008, 4307.692383, 0.000000, 1679.000000, 1617.000000, 0.000000, 0.000000, 0.000000, 1.000000, 462.564095, 1537850123.582564, 2.000000, 4.000000, 4.000000, 4.000000, 0.000000, 4.000000, 4.000000, 4.000000, 4.000000, 0.000000, 1.000000, 4.000000, 4.000000, 4.000000, 4.000000, 4.000000
38.000000, 0.000000, 4302.563965, 4218.461426, 4597.435547, 4469.743652, 4058.461426, 4842.563965, 4349.230469, 4462.563965, 4472.307617, 4489.743652, 4309.743652, 4163.076660, 4361.538574, 4309.230469, 0.000000, 1678.000000, 1619.000000, 0.000000, 0.000000, 0.000000, 1.000000, 470.769234, 1537850123.590769, 2.000000, 4.000000, 4.000000, 4.000000, 0.000000, 4.000000, 4.000000, 4.000000, 4.000000, 0.000000, 1.000000, 4.000000, 4.000000, 4.000000, 4.000000, 4.000000
39.000000, 0.000000, 4310.769043, 4153.846191, 4603.589844, 4455.384277, 4061.025635, 4851.794922, 4355.384277, 4460.512695, 4461.538574, 4490.769043, 4303.589844, 4171.794922, 4357.948730, 4311.794922, 0.000000, 1677.000000, 1625.000000, 0.000000, 0.000000, 0.000000, 1.000000, 478.461525, 1537850123.598461, 2.000000, 4.000000, 4.000000, 4.000000, 0.000000, 4.000000, 4.000000, 4.000000, 4.000000, 0.000000, 1.000000, 4.000000, 4.000000, 4.000000, 4.000000, 4.000000
40.000000, 0.000000, 4316.922852, 4171.281738, 4608.205078, 4475.384277, 4059.487061, 4864.615234, 4363.589844, 4460.512695, 4448.205078, 4490.256348, 4306.153809, 4174.358887, 4395.897461, 4319.487305, 0.000000, 1678.000000, 1627.000000, 0.000000, 0.000000, 0.000000, 1.000000, 486.153847, 1537850123.606154, 2.000000, 4.000000, 4.000000, 4.000000, 0.000000, 4.000000, 4.000000, 4.000000, 4.000000, 0.000000, 1.000000, 4.000000, 4.000000, 4.000000, 4.000000, 4.000000
41.000000, 0.000000, 4317.948730, 4230.256348, 4618.974121, 4497.948730, 4057.435791, 4878.461426, 4381.025391, 4477.948730, 4470.256348, 4490.256348, 4315.384277, 4177.436035, 4416.922852, 4329.743652, 0.000000, 1676.000000, 1628.000000, 0.000000, 0.000000, 0.000000, 1.000000, 493.846138, 1537850123.613846, 2.000000, 4.000000, 4.000000, 4.000000, 0.000000, 4.000000, 4.000000, 4.000000, 4.000000, 0.000000, 1.000000, 4.000000, 4.000000, 4.000000, 4.000000, 4.000000
42.000000, 0.000000, 4311.794922, 4238.461426, 4611.281738, 4492.307617, 4056.923096, 4878.461426, 4378.974121, 4475.897461, 4467.692383, 4490.769043, 4312.307617, 4169.230469, 4400.000000, 4320.000000, 0.000000, 1677.000000, 1629.000000, 0.000000, 0.000000, 0.000000, 1.000000, 501.538429, 1537850123.621538, 2.000000, 4.000000, 4.000000, 4.000000, 0.000000, 4.000000, 4.000000, 4.000000, 4.000000, 0.000000, 1.000000, 4.000000, 4.000000, 4.000000, 4.000000, 4.000000
43.000000, 0.000000, 4309.743652, 4205.127930, 4598.461426, 4480.000000, 4056.923096, 4875.897461, 4374.358887, 4475.384277, 4467.692383, 4489.230469, 4304.615234, 4166.153809, 4383.589844, 4315.384277, 0.000000, 1675.000000, 1628.000000, 0.000000, 0.000000, 0.000000, 1.000000, 509.230751, 1537850123.629231, 2.000000, 4.000000, 4.000000, 4.000000, 0.000000, 4.000000, 4.000000, 4.000000, 4.000000, 0.000000, 1.000000, 4.000000, 4.000000, 4.000000, 4.000000, 4.000000
44.000000, 0.000000, 4320.000000, 4143.076660, 4609.743652, 4467.692383, 4058.461426, 4880.000000, 4388.205078, 4497.948730, 4507.179199, 4487.179199, 4306.666504, 4184.102539, 4381.538574, 4331.794922, 0.000000, 1675.000000, 1626.000000, 0.000000, 0.000000, 0.000000, 1.000000, 517.435890, 1537850123.637436, 2.000000, 4.000000, 4.000000, 4.000000, 0.000000, 4.000000, 4.000000, 4.000000, 4.000000, 0.000000, 1.000000, 4.000000, 4.000000, 4.000000, 4.000000, 4.000000
45.000000, 0.000000, 4313.333008, 4145.641113, 4597.948730, 4450.769043, 4058.974365, 4865.127930, 4369.230469, 4477.948730, 4481.025391, 4487.692383, 4307.179199, 4170.769043, 4386.153809, 4318.974121, 0.000000, 1673.000000, 1623.000000, 0.000000, 0.000000, 0.000000, 1.000000, 525.128212, 1537850123.645128, 2.000000, 4.000000, 4.000000, 4.000000, 0.000000, 4.000000, 4.000000, 4.000000, 4.000000, 0.000000, 1.000000, 4.000000, 4.000000, 4.000000, 4.000000, 4.000000
46.000000, 0.000000, 4296.922852, 4230.769043, 4563.589844, 4463.589844, 4059.487061, 4850.256348, 4333.333008, 4432.820312, 4412.820312, 4489.743652, 4302.563965, 4137.948730, 4372.820312, 4286.153809, 0.000000, 1672.000000, 1622.000000, 0.000000, 0.000000, 0.000000, 1.000000, 532.820473, 1537850123.652821, 2.000000, 4.000000, 4.000000, 4.000000, 0.000000, 4.000000, 4.000000, 4.000000, 4.000000, 0.000000, 1.000000, 4.000000, 4.000000, 4.000000, 4.000000, 4.000000
47.000000, 0.000000, 4303.076660, 4213.333008, 4574.358887, 4492.307617, 4059.487061, 4863.076660, 4347.179199, 4444.102539, 4428.205078, 4489.230469, 4306.666504, 4150.256348, 4357.435547, 4293.333008, 0.000000, 1669.000000, 1620.000000, 0.000000, 0.000000, 0.000000, 1.000000, 541.025612, 1537850123.661026, 2.000000, 4.000000, 4.000000, 4.000000, 0.000000, 4.000000, 4.000000, 4.000000, 4.000000, 0.000000, 1.000000, 4.000000, 4.000000, 4.000000, 4.000000, 4.000000
48.000000, 0.000000, 4321.025391, 4136.410156, 4607.179199, 4489.230469, 4058.461426, 4880.000000, 4380.512695, 4482.051270, 4469.230469, 4489.230469, 4316.410156, 4175.897461, 4374.358887, 4318.974121, 0.000000, 1668.000000, 1618.000000, 0.000000, 0.000000, 0.000000, 1.000000, 548.717934, 1537850123.668718, 2.000000, 4.000000, 4.000000, 4.000000, 0.000000, 4.000000, 4.000000, 4.000000, 4.000000, 0.000000, 1.000000, 4.000000, 4.000000, 4.000000, 4.000000, 4.000000
49.000000, 0.000000, 4316.410156, 4180.512695, 4608.205078, 4481.025391, 4056.923096, 4891.281738, 4391.794922, 4492.820312, 4465.127930, 4490.256348, 4313.846191, 4174.358887, 4394.358887, 4315.384277, 0.000000, 1667.000000, 1617.000000, 0.000000, 0.000000, 0.000000, 1.000000, 556.410255, 1537850123.676410, 2.000000, 4.000000, 4.000000, 4.000000, 0.000000, 4.000000, 4.000000, 4.000000, 4.000000, 0.000000, 1.000000, 4.000000, 4.000000, 4.000000, 4.000000, 4.000000
50.000000, 0.000000, 4305.127930, 4242.563965, 4590.769043, 4483.589844, 4057.435791, 4889.230469, 4382.563965, 4482.051270, 4454.871582, 4489.743652, 4304.615234, 4163.076660, 4365.641113, 4293.846191, 0.000000, 1668.000000, 1622.000000, 0.000000, 0.000000, 0.000000, 1.000000, 564.615395, 1537850123.684615, 2.000000, 4.000000, 4.000000, 4.000000, 0.000000, 4.000000, 4.000000, 4.000000, 4.000000, 0.000000, 1.000000, 4.000000, 4.000000, 4.000000, 4.000000, 4.000000
51.000000, 0.000000, 4308.205078, 4208.717773, 4588.205078, 4486.666504, 4057.948730, 4876.410156, 4371.794922, 4473.846191, 4458.461426, 4488.717773, 4306.153809, 4158.974121, 4350.256348, 4295.897461, 0.000000, 1668.000000, 1625.000000, 0.000000, 0.000000, 0.000000, 1.000000, 572.307655, 1537850123.692308, 2.000000, 4.000000, 4.000000, 4.000000, 0.000000, 4.000000, 4.000000, 4.000000, 4.000000, 0.000000, 1.000000, 4.000000, 4.000000, 4.000000, 4.000000, 4.000000
52.000000, 0.000000, 4314.871582, 4156.922852, 4597.948730, 4476.410156, 4058.461426, 4872.307617, 4374.358887, 4475.897461, 4468.205078, 4489.743652, 4309.743652, 4160.000000, 4384.615234, 4310.769043, 0.000000, 1669.000000, 1626.000000, 0.000000, 0.000000, 0.000000, 1.000000, 579.999977, 1537850123.700000, 2.000000, 4.000000, 4.000000, 4.000000, 0.000000, 4.000000, 4.000000, 4.000000, 4.000000, 0.000000, 1.000000, 4.000000, 4.000000, 4.000000, 4.000000, 4.000000
53.000000, 0.000000, 4307.692383, 4153.846191, 4593.846191, 4460.000000, 4057.948730, 4875.897461, 4376.922852, 4481.025391, 4481.538574, 4489.743652, 4304.102539, 4158.974121, 4384.102539, 4303.589844, 0.000000, 1669.000000, 1625.000000, 0.000000, 0.000000, 0.000000, 1.000000, 587.692299, 1537850123.707692, 2.000000, 4.000000, 4.000000, 4.000000, 0.000000, 4.000000, 4.000000, 4.000000, 4.000000, 0.000000, 1.000000, 4.000000, 4.000000, 4.000000, 4.000000, 4.000000
54.000000, 0.000000, 4303.589844, 4203.589844, 4580.000000, 4464.102539, 4058.461426, 4877.435547, 4371.281738, 4478.974121, 4471.281738, 4489.743652, 4305.127930, 4157.948730, 4348.205078, 4291.281738, 0.000000, 1671.000000, 1625.000000, 0.000000, 0.000000, 0.000000, 1.000000, 595.897438, 1537850123.715898, 2.000000, 4.000000, 4.000000, 4.000000, 0.000000, 4.000000, 4.000000, 4.000000, 4.000000, 0.000000, 1.000000, 4.000000, 4.000000, 4.000000, 4.000000, 4.000000
55.000000, 0.000000, 4313.333008, 4238.974121, 4584.102539, 4475.897461, 4060.512695, 4883.589844, 4378.974121, 4484.615234, 4460.512695, 4489.743652, 4316.410156, 4163.589844, 4354.871582, 4303.076660, 0.000000, 1671.000000, 1624.000000, 0.000000, 0.000000, 0.000000, 1.000000, 603.589699, 1537850123.723590, 2.000000, 4.000000, 4.000000, 4.000000, 0.000000, 4.000000, 4.000000, 4.000000, 4.000000, 0.000000, 1.000000, 4.000000, 4.000000, 4.000000, 4.000000, 4.000000
56.000000, 0.000000, 4324.615234, 4190.256348, 4609.230469, 4482.563965, 4058.461426, 4903.076660, 4402.051270, 4504.615234, 4483.076660, 4489.743652, 4322.051270, 4180.000000, 4397.435547, 4320.512695, 0.000000, 1672.000000, 1622.000000, 0.000000, 0.000000, 0.000000, 1.000000, 611.282021, 1537850123.731282, 2.000000, 4.000000, 4.000000, 4.000000, 0.000000, 4.000000, 4.000000, 4.000000, 4.000000, 0.000000, 1.000000, 4.000000, 4.000000, 4.000000, 4.000000, 4.000000
57.000000, 0.000000, 4324.615234, 4142.563965, 4616.410156, 4484.615234, 4054.871582, 4911.281738, 4408.205078, 4511.794922, 4491.794922, 4489.230469, 4315.897461, 4188.205078, 4411.281738, 4321.025391, 0.000000, 1673.000000, 1621.000000, 0.000000, 0.000000, 0.000000, 1.000000, 619.487160, 1537850123.739487, 2.000000, 4.000000, 4.000000, 4.000000, 0.000000, 4.000000, 4.000000, 4.000000, 4.000000, 0.000000, 1.000000, 4.000000, 4.000000, 4.000000, 4.000000, 4.000000
58.000000, 0.000000, 4309.230469, 4187.692383, 4585.127930, 4477.948730, 4056.923096, 4892.820312, 4386.666504, 4492.307617, 4461.538574, 4488.717773, 4308.205078, 4167.179199, 4384.615234, 4303.589844, 0.000000, 1675.000000, 1622.000000, 0.000000, 0.000000, 0.000000, 1.000000, 627.179482, 1537850123.747180, 2.000000, 4.000000, 4.000000, 4.000000, 0.000000, 4.000000, 4.000000, 4.000000, 4.000000, 0.000000, 1.000000, 4.000000, 4.000000, 4.000000, 4.000000, 4.000000
59.000000, 0.000000, 4300.512695, 4248.717773, 4557.948730, 4473.846191, 4058.974365, 4875.897461, 4368.717773, 4470.256348, 4443.076660, 4488.205078, 4308.717773, 4142.051270, 4355.384277, 4281.538574, 0.000000, 1679.000000, 1620.000000, 0.000000, 0.000000, 0.000000, 1.000000, 634.871803, 1537850123.754872, 2.000000, 4.000000, 4.000000, 4.000000, 0.000000, 4.000000, 4.000000, 4.000000, 4.000000, 0.000000, 1.000000, 4.000000, 4.000000, 4.000000, 4.000000, 4.000000
60.000000, 0.000000, 4307.692383, 4232.820312, 4567.692383, 4490.256348, 4055.897217, 4886.666504, 4377.435547, 4475.897461, 4460.000000, 4488.717773, 4312.820312, 4148.205078, 4359.487305, 4284.615234, 0.000000, 1679.000000, 1622.000000, 0.000000, 0.000000, 0.000000, 1.000000, 642.564064, 1537850123.762564, 2.000000, 4.000000, 4.000000, 4.000000, 0.000000, 4.000000, 4.000000, 4.000000, 4.000000, 0.000000, 1.000000, 4.000000, 4.000000, 4.000000, 4.000000, 4.000000
61.000000, 0.000000, 4317.436035, 4165.127930, 4589.230469, 4492.307617, 4056.923096, 4896.410156, 4393.846191, 4492.307617, 4477.435547, 4488.717773, 4309.743652, 4172.307617, 4370.769043, 4307.692383, 0.000000, 1682.000000, 1619.000000, 0.000000, 0.000000, 0.000000, 1.000000, 650.769203, 1537850123.770769, 2.000000, 4.000000, 4.000000, 4.000000, 0.000000, 4.000000, 4.000000, 4.000000, 4.000000, 0.000000, 1.000000, 4.000000, 4.000000, 4.000000, 4.000000, 4.000000
62.000000, 0.000000, 4317.948730, 4153.846191, 4597.435547, 4474.871582, 4059.487061, 4896.410156, 4397.435547, 4491.281738, 4479.487305, 4488.205078, 4310.256348, 4185.127930, 4368.205078, 4324.102539, 0.000000, 1683.000000, 1617.000000, 0.000000, 0.000000, 0.000000, 1.000000, 658.461525, 1537850123.778461, 2.000000, 4.000000, 4.000000, 4.000000, 0.000000, 4.000000, 4.000000, 4.000000, 4.000000, 0.000000, 1.000000, 4.000000, 4.000000, 4.000000, 4.000000, 4.000000
63.000000, 0.000000, 4319.487305, 4244.615234, 4601.025391, 4498.974121, 4057.435791, 4909.230469, 4398.974121, 4494.871582, 4480.512695, 4488.717773, 4324.615234, 4190.769043, 4396.410156, 4332.307617, 0.000000, 1684.000000, 1616.000000, 0.000000, 0.000000, 0.000000, 1.000000, 666.153847, 1537850123.786154, 2.000000, 4.000000, 4.000000, 4.000000, 0.000000, 4.000000, 4.000000, 4.000000, 4.000000, 0.000000, 1.000000, 4.000000, 4.000000, 4.000000, 4.000000, 4.000000
64.000000, 0.000000, 4315.897461, 4303.076660, 4591.794922, 4529.230469, 4057.435791, 4908.717773, 4392.307617, 4495.897461, 4480.000000, 4488.717773, 4325.641113, 4185.127930, 4431.281738, 4326.153809, 498.000000, 1685.000000, 1615.000000, 0.000000, 0.000000, 0.000000, 1.000000, 674.358986, 1537850123.794359, 2.000000, 4.000000, 4.000000, 4.000000, 0.000000, 4.000000, 4.000000, 4.000000, 4.000000, 0.000000, 1.000000, 4.000000, 4.000000, 4.000000, 4.000000, 4.000000
65.000000, 0.000000, 4307.179199, 4211.281738, 4563.589844, 4497.435547, 4059.487061, 4878.461426, 4368.717773, 4472.307617, 4465.127930, 4488.205078, 4308.717773, 4164.102539, 4396.922852, 4302.563965, 500.000000, 1685.000000, 1616.000000, 0.000000, 0.000000, 0.000000, 1.000000, 682.051247, 1537850123.802051, 2.000000, 4.000000, 4.000000, 4.000000, 0.000000, 4.000000, 4.000000, 4.000000, 4.000000, 0.000000, 1.000000, 4.000000, 4.000000, 4.000000, 4.000000, 4.000000
66.000000, 0.000000, 4302.563965, 4101.025391, 4545.127930, 4450.256348, 4057.435791, 4862.051270, 4352.820312, 4452.820312, 4450.769043, 4488.717773, 4305.641113, 4151.794922, 4345.641113, 4288.717773, 253.000000, 1686.000000, 1618.000000, 0.000000, 0.000000, 0.000000, 1.000000, 689.743568, 1537850123.809744, 2.000000, 4.000000, 4.000000, 4.000000, 0.000000, 4.000000, 4.000000, 4.000000, 4.000000, 0.000000, 1.000000, 4.000000, 4.000000, 4.000000, 4.000000, 4.000000
67.000000, 0.000000, 4303.076660, 4143.076660, 4546.666504, 4450.769043, 4054.871582, 4873.846191, 4359.487305, 4458.461426, 4453.846191, 4489.743652, 4314.871582, 4153.846191, 4363.076660, 4294.871582, 500.000000, 1688.000000, 1622.000000, 0.000000, 0.000000, 0.000000, 1.000000, 697.435890, 1537850123.817436, 2.000000, 4.000000, 4.000000, 4.000000, 0.000000, 4.000000, 4.000000, 4.000000, 4.000000, 0.000000, 1.000000, 4.000000, 4.000000, 4.000000, 4.000000, 4.000000
68.000000, 0.000000, 4301.538574, 4241.538574, 4545.127930, 4474.871582, 4056.410156, 4881.538574, 4368.717773, 4463.589844, 4459.487305, 4489.743652, 4310.256348, 4154.358887, 4380.000000, 4296.922852, 0.000000, 1690.000000, 1626.000000, 0.000000, 0.000000, 0.000000, 1.000000, 705.641029, 1537850123.825641, 2.000000, 4.000000, 4.000000, 4.000000, 0.000000, 4.000000, 4.000000, 4.000000, 4.000000, 0.000000, 1.000000, 4.000000, 4.000000, 4.000000, 4.000000, 4.000000
69.000000, 0.000000, 4301.538574, 4232.307617, 4535.897461, 4477.948730, 4056.923096, 4873.846191, 4366.153809, 4460.512695, 4462.051270, 4489.743652, 4305.127930, 4149.743652, 4358.974121, 4290.769043, 500.000000, 1691.000000, 1630.000000, 0.000000, 0.000000, 0.000000, 1.000000, 713.333290, 1537850123.833333, 2.000000, 4.000000, 4.000000, 4.000000, 0.000000, 4.000000, 4.000000, 4.000000, 4.000000, 0.000000, 1.000000, 4.000000, 4.000000, 4.000000, 4.000000, 4.000000
70.000000, 0.000000, 4306.153809, 4176.922852, 4544.615234, 4473.846191, 4055.384521, 4881.025391, 4374.358887, 4472.820312, 4478.974121, 4489.743652, 4313.846191, 4161.025391, 4381.538574, 4302.563965, 500.000000, 1694.000000, 1631.000000, 0.000000, 0.000000, 0.000000, 1.000000, 721.025612, 1537850123.841026, 2.000000, 4.000000, 4.000000, 4.000000, 0.000000, 4.000000, 4.000000, 4.000000, 4.000000, 0.000000, 1.000000, 4.000000, 4.000000, 4.000000, 4.000000, 4.000000
71.000000, 0.000000, 4310.256348, 4181.025391, 4561.025391, 4478.974121, 4055.384521, 4893.846191, 4383.589844, 4482.563965, 4484.615234, 4489.230469, 4319.487305, 4174.871582, 4420.512695, 4315.384277, 472.000000, 1693.000000, 1633.000000, 0.000000, 0.000000, 0.000000, 1.000000, 728.717934, 1537850123.848718, 2.000000, 4.000000, 4.000000, 4.000000, 0.000000, 4.000000, 4.000000, 4.000000, 4.000000, 0.000000, 1.000000, 4.000000, 4.000000, 4.000000, 4.000000, 4.000000
72.000000, 0.000000, 4302.563965, 4179.487305, 4546.666504, 4461.025391, 4053.845947, 4876.410156, 4364.615234, 4466.666504, 4463.076660, 4488.205078, 4313.846191, 4158.461426, 4392.307617, 4294.871582, 454.000000, 1695.000000, 1634.000000, 0.000000, 0.000000, 0.000000, 1.000000, 736.923073, 1537850123.856923, 2.000000, 4.000000, 4.000000, 4.000000, 0.000000, 4.000000, 4.000000, 4.000000, 4.000000, 0.000000, 1.000000, 4.000000, 4.000000, 4.000000, 4.000000, 4.000000
73.000000, 0.000000, 4293.333008, 4155.384277, 4520.512695, 4431.794922, 4053.845947, 4853.846191, 4344.102539, 4450.769043, 4444.102539, 4489.230469, 4309.743652, 4135.384277, 4347.692383, 4269.230469, 0.000000, 1693.000000, 1635.000000, 0.000000, 0.000000, 0.000000, 1.000000, 744.615395, 1537850123.864615, 2.000000, 4.000000, 4.000000, 4.000000, 0.000000, 4.000000, 4.000000, 4.000000, 4.000000, 0.000000, 1.000000, 4.000000, 4.000000, 4.000000, 4.000000, 4.000000
74.000000, 0.000000, 4295.384277, 4185.641113, 4523.076660, 4448.717773, 4056.410156, 4863.076660, 4355.384277, 4456.922852, 4447.692383, 4489.743652, 4315.897461, 4141.025391, 4356.922852, 4271.794922, 500.000000, 1694.000000, 1637.000000, 0.000000, 0.000000, 0.000000, 1.000000, 752.307655, 1537850123.872308, 2.000000, 4.000000, 4.000000, 4.000000, 0.000000, 4.000000, 4.000000, 4.000000, 4.000000, 0.000000, 1.000000, 4.000000, 4.000000, 4.000000, 4.000000, 4.000000
75.000000, 0.000000, 4304.102539, 4216.410156, 4548.717773, 4485.127930, 4058.461426, 4881.025391, 4377.948730, 4474.358887, 4464.102539, 4489.230469, 4320.512695, 4161.538574, 4370.769043, 4291.794922, 500.000000, 1695.000000, 1639.000000, 0.000000, 0.000000, 0.000000, 1.000000, 759.999977, 1537850123.880000, 2.000000, 4.000000, 4.000000, 4.000000, 0.000000, 4.000000, 4.000000, 4.000000, 4.000000, 0.000000, 1.000000, 4.000000, 4.000000, 4.000000, 4.000000, 4.000000
76.000000, 0.000000, 4306.153809, 4154.358887, 4556.410156, 4470.256348, 4057.435791, 4875.384277, 4377.435547, 4473.846191, 4464.615234, 4489.743652, 4315.897461, 4163.076660, 4358.974121, 4295.384277, 95.000000, 1694.000000, 1642.000000, 0.000000, 0.000000, 0.000000, 1.000000, 768.205116, 1537850123.888205, 2.000000, 4.000000, 4.000000, 4.000000, 0.000000, 4.000000, 4.000000, 4.000000, 4.000000, 0.000000, 1.000000, 4.000000, 4.000000, 4.000000, 4.000000, 4.000000
77.000000, 0.000000, 4300.512695, 4128.717773, 4549.230469, 4450.256348, 4055.897217, 4876.922852, 4383.076660, 4480.000000, 4475.384277, 4489.743652, 4317.948730, 4160.512695, 4371.281738, 4286.666504, 485.000000, 1695.000000, 1643.000000, 0.000000, 0.000000, 0.000000, 1.000000, 775.897438, 1537850123.895897, 2.000000, 4.000000, 4.000000, 4.000000, 0.000000, 4.000000, 4.000000, 4.000000, 4.000000, 0.000000, 1.000000, 4.000000, 4.000000, 4.000000, 4.000000, 4.000000
78.000000, 0.000000, 4305.127930, 4220.000000, 4562.563965, 4483.076660, 4055.897217, 4897.435547, 4403.589844, 4507.692383, 4510.769043, 4489.230469, 4321.538574, 4175.384277, 4397.948730, 4298.461426, 500.000000, 1695.000000, 1643.000000, 0.000000, 0.000000, 0.000000, 1.000000, 783.589699, 1537850123.903589, 2.000000, 4.000000, 4.000000, 4.000000, 0.000000, 4.000000, 4.000000, 4.000000, 4.000000, 0.000000, 1.000000, 4.000000, 4.000000, 4.000000, 4.000000, 4.000000
79.000000, 0.000000, 4310.256348, 4244.102539, 4572.820312, 4494.871582, 4055.384521, 4890.256348, 4390.769043, 4496.410156, 4495.897461, 4488.205078, 4317.436035, 4181.025391, 4393.846191, 4311.794922, 500.000000, 1694.000000, 1640.000000, 0.000000, 0.000000, 0.000000, 1.000000, 791.794838, 1537850123.911795, 2.000000, 4.000000, 4.000000, 4.000000, 0.000000, 4.000000, 4.000000, 4.000000, 4.000000, 0.000000, 1.000000, 4.000000, 4.000000, 4.000000, 4.000000, 4.000000
80.000000, 0.000000, 4304.615234, 4153.846191, 4553.846191, 4454.358887, 4055.384521, 4868.205078, 4363.076660, 4462.051270, 4450.256348, 4488.717773, 4316.922852, 4164.102539, 4371.794922, 4287.692383, 95.000000, 1692.000000, 1640.000000, 0.000000, 0.000000, 0.000000, 1.000000, 799.487160, 1537850123.919487, 2.000000, 4.000000, 4.000000, 4.000000, 0.000000, 4.000000, 4.000000, 4.000000, 4.000000, 0.000000, 1.000000, 4.000000, 4.000000, 4.000000, 4.000000, 4.000000
81.000000, 0.000000, 4301.538574, 4148.717773, 4549.230469, 4449.230469, 4053.333252, 4880.512695, 4371.794922, 4470.256348, 4455.897461, 4488.717773, 4323.076660, 4157.948730, 4383.076660, 4273.333008, 485.000000, 1691.000000, 1639.000000, 0.000000, 0.000000, 0.000000, 1.000000, 807.179482, 1537850123.927179, 2.000000, 4.000000, 4.000000, 4.000000, 0.000000, 4.000000, 4.000000, 4.000000, 4.000000, 0.000000, 1.000000, 4.000000, 4.000000, 4.000000, 4.000000, 4.000000
82.000000, 0.000000, 4314.871582, 4215.384277, 4574.871582, 4486.153809, 4054.358887, 4893.846191, 4383.589844, 4482.051270, 4465.641113, 4488.717773, 4322.051270, 4180.512695, 4396.410156, 4301.538574, 500.000000, 1688.000000, 1639.000000, 0.000000, 0.000000, 0.000000, 1.000000, 814.871803, 1537850123.934872, 2.000000, 4.000000, 4.000000, 4.000000, 0.000000, 4.000000, 4.000000, 4.000000, 4.000000, 0.000000, 1.000000, 4.000000, 4.000000, 4.000000, 4.000000, 4.000000
83.000000, 0.000000, 4309.743652, 4203.589844, 4565.641113, 4485.127930, 4056.923096, 4866.153809, 4351.281738, 4443.589844, 4422.563965, 4489.230469, 4315.897461, 4176.922852, 4361.025391, 4300.512695, 500.000000, 1689.000000, 1640.000000, 0.000000, 0.000000, 0.000000, 1.000000, 823.076881, 1537850123.943077, 2.000000, 4.000000, 4.000000, 4.000000, 0.000000, 4.000000, 4.000000, 4.000000, 4.000000, 0.000000, 1.000000, 4.000000, 4.000000, 4.000000, 4.000000, 4.000000
84.000000, 0.000000, 4295.384277, 4173.846191, 4532.820312, 4456.922852, 4055.897217, 4847.692383, 4330.256348, 4427.179199, 4411.794922, 4490.256348, 4312.820312, 4151.281738, 4332.307617, 4269.743652, 95.000000, 1686.000000, 1640.000000, 0.000000, 0.000000, 0.000000, 1.000000, 830.769203, 1537850123.950769, 2.000000, 4.000000, 4.000000, 4.000000, 0.000000, 4.000000, 4.000000, 4.000000, 4.000000, 0.000000, 1.000000, 4.000000, 4.000000, 4.000000, 4.000000, 4.000000
85.000000, 0.000000, 4302.563965, 4180.000000, 4543.076660, 4450.769043, 4055.384521, 4867.692383, 4353.846191, 4460.512695, 4450.256348, 4490.256348, 4315.897461, 4157.948730, 4363.589844, 4276.922852, 485.000000, 1686.000000, 1641.000000, 0.000000, 0.000000, 0.000000, 1.000000, 838.461525, 1537850123.958462, 2.000000, 4.000000, 4.000000, 4.000000, 0.000000, 4.000000, 4.000000, 4.000000, 4.000000, 0.000000, 1.000000, 4.000000, 4.000000, 4.000000, 4.000000, 4.000000
86.000000, 0.000000, 4313.846191, 4184.102539, 4566.153809, 4462.051270, 4056.923096, 4878.461426, 4372.307617, 4476.922852, 4464.102539, 4488.717773, 4326.153809, 4175.897461, 4406.666504, 4300.000000, 500.000000, 1685.000000, 1638.000000, 0.000000, 0.000000, 0.000000, 1.000000, 846.153847, 1537850123.966154, 2.000000, 4.000000, 4.000000, 4.000000, 0.000000, 4.000000, 4.000000, 4.000000, 4.000000, 0.000000, 1.000000, 4.000000, 4.000000, 4.000000, 4.000000, 4.000000
87.000000, 0.000000, 4308.205078, 4190.769043, 4562.563965, 4478.974121, 4056.410156, 4881.538574, 4373.333008, 4473.333008, 4461.538574, 4488.717773, 4325.641113, 4174.358887, 4408.205078, 4300.000000, 500.000000, 1685.000000, 1639.000000, 0.000000, 0.000000, 0.000000, 1.000000, 854.358925, 1537850123.974359, 2.000000, 4.000000, 4.000000, 4.000000, 0.000000, 4.000000, 4.000000, 4.000000, 4.000000, 0.000000, 1.000000, 4.000000, 4.000000, 4.000000, 4.000000, 4.000000
88.000000, 0.000000, 4304.615234, 4208.205078, 4553.333008, 4488.717773, 4057.948730, 4892.307617, 4378.461426, 4475.897461, 4464.615234, 4489.230469, 4315.897461, 4169.743652, 4382.051270, 4296.410156, 95.000000, 1685.000000, 1638.000000, 0.000000, 0.000000, 0.000000, 1.000000, 862.051247, 1537850123.982051, 2.000000, 4.000000, 4.000000, 4.000000, 0.000000, 4.000000, 4.000000, 4.000000, 4.000000, 0.000000, 1.000000, 4.000000, 4.000000, 4.000000, 4.000000, 4.000000
89.000000, 0.000000, 4307.692383, 4196.922852, 4552.820312, 4481.025391, 4060.512695, 4885.127930, 4381.025391, 4477.948730, 4461.538574, 4488.717773, 4316.922852, 4168.717773, 4358.974121, 4296.922852, 485.000000, 1684.000000, 1640.000000, 0.000000, 0.000000, 0.000000, 1.000000, 869.743568, 1537850123.989744, 2.000000, 4.000000, 4.000000, 4.000000, 0.000000, 4.000000, 4.000000, 4.000000, 4.000000, 0.000000, 1.000000, 4.000000, 4.000000, 4.000000, 4.000000, 4.000000
90.000000, 0.000000, 4304.615234, 4194.358887, 4552.820312, 4471.794922, 4058.461426, 4872.820312, 4375.384277, 4473.333008, 4461.538574, 4488.717773, 4318.974121, 4163.076660, 4364.615234, 4297.436035, 500.000000, 1684.000000, 1641.000000, 0.000000, 0.000000, 0.000000, 1.000000, 877.435890, 1537850123.997436, 2.000000, 4.000000, 4.000000, 4.000000, 0.000000, 4.000000, 4.000000, 4.000000, 4.000000, 0.000000, 1.000000, 4.000000, 4.000000, 4.000000, 4.000000, 4.000000
91.000000, 0.000000, 4303.076660, 4204.102539, 4549.743652, 4468.205078, 4056.410156, 4878.461426, 4377.948730, 4475.897461, 4474.871582, 4488.717773, 4316.922852, 4165.127930, 4387.692383, 4299.487305, 500.000000, 1684.000000, 1644.000000, 0.000000, 0.000000, 0.000000, 1.000000, 885.128212, 1537850124.005128, 2.000000, 4.000000, 4.000000, 4.000000, 0.000000, 4.000000, 4.000000, 4.000000, 4.000000, 0.000000, 1.000000, 4.000000, 4.000000, 4.000000, 4.000000, 4.000000
92.000000, 0.000000, 4301.538574, 4136.410156, 4534.871582, 4447.179199, 4056.923096, 4874.871582, 4375.897461, 4474.871582, 4473.333008, 4489.230469, 4317.436035, 4160.000000, 4366.666504, 4285.641113, 95.000000, 1684.000000, 1643.000000, 0.000000, 0.000000, 0.000000, 1.000000, 893.333290, 1537850124.013333, 2.000000, 4.000000, 4.000000, 4.000000, 0.000000, 4.000000, 4.000000, 4.000000, 4.000000, 0.000000, 1.000000, 4.000000, 4.000000, 4.000000, 4.000000, 4.000000
93.000000, 0.000000, 4299.487305, 4134.871582, 4522.563965, 4452.820312, 4056.410156, 4862.563965, 4364.615234, 4466.153809, 4455.384277, 4488.205078, 4322.051270, 4149.743652, 4347.692383, 4275.384277, 485.000000, 1682.000000, 1644.000000, 0.000000, 0.000000, 0.000000, 1.000000, 901.025612, 1537850124.021026, 2.000000, 4.000000, 4.000000, 4.000000, 0.000000, 4.000000, 4.000000, 4.000000, 4.000000, 0.000000, 1.000000, 4.000000, 4.000000, 4.000000, 4.000000, 4.000000
94.000000, 0.000000, 4306.666504, 4249.230469, 4541.025391, 4502.563965, 4057.948730, 4872.820312, 4374.358887, 4474.871582, 4457.435547, 4487.179199, 4328.205078, 4168.717773, 4387.179199, 4298.974121, 500.000000, 1683.000000, 1641.000000, 0.000000, 0.000000, 0.000000, 1.000000, 908.717934, 1537850124.028718, 2.000000, 4.000000, 4.000000, 4.000000, 0.000000, 4.000000, 4.000000, 4.000000, 4.000000, 0.000000, 1.000000, 4.000000, 4.000000, 4.000000, 4.000000, 4.000000
95.000000, 0.000000, 4316.922852, 4230.769043, 4563.589844, 4500.000000, 4060.512695, 4882.563965, 4386.666504, 4485.641113, 4467.692383, 4488.205078, 4323.076660, 4189.743652, 4398.461426, 4322.563965, 500.000000, 1682.000000, 1638.000000, 0.000000, 0.000000, 0.000000, 1.000000, 916.410255, 1537850124.036410, 2.000000, 4.000000, 4.000000, 4.000000, 0.000000, 4.000000, 4.000000, 4.000000, 4.000000, 0.000000, 1.000000, 4.000000, 4.000000, 4.000000, 4.000000, 4.000000
96.000000, 0.000000, 4312.820312, 4130.256348, 4563.589844, 4457.435547, 4058.461426, 4877.435547, 4378.461426, 4483.076660, 4468.717773, 4488.717773, 4313.333008, 4181.538574, 4366.153809, 4316.410156, 95.000000, 1683.000000, 1639.000000, 0.000000, 0.000000, 0.000000, 1.000000, 924.102516, 1537850124.044102, 2.000000, 4.000000, 4.000000, 4.000000, 0.000000, 4.000000, 4.000000, 4.000000, 4.000000, 0.000000, 1.000000, 4.000000, 4.000000, 4.000000, 4.000000, 4.000000
97.000000, 0.000000, 4307.692383, 4188.205078, 4549.743652, 4469.230469, 4057.435791, 4875.384277, 4374.358887, 4476.410156, 4462.563965, 4488.717773, 4320.000000, 4165.127930, 4369.743652, 4301.538574, 485.000000, 1683.000000, 1640.000000, 0.000000, 0.000000, 0.000000, 1.000000, 932.307655, 1537850124.052308, 2.000000, 4.000000, 4.000000, 4.000000, 0.000000, 4.000000, 4.000000, 4.000000, 4.000000, 0.000000, 1.000000, 4.000000, 4.000000, 4.000000, 4.000000, 4.000000
98.000000, 0.000000, 4307.179199, 4250.769043, 4538.974121, 4500.000000, 4057.948730, 4877.435547, 4378.461426, 4471.281738, 4455.897461, 4488.717773, 4330.256348, 4160.512695, 4397.435547, 4292.307617, 500.000000, 1683.000000, 1645.000000, 0.000000, 0.000000, 0.000000, 1.000000, 939.999977, 1537850124.060000, 2.000000, 4.000000, 4.000000, 4.000000, 0.000000, 4.000000, 4.000000, 4.000000, 4.000000, 0.000000, 1.000000, 4.000000, 4.000000, 4.000000, 4.000000, 4.000000
99.000000, 0.000000, 4312.307617, 4174.871582, 4547.179199, 4493.333008, 4057.435791, 4884.615234, 4388.717773, 4484.102539, 4477.435547, 4488.717773, 4322.563965, 4171.794922, 4394.871582, 4300.512695, 500.000000, 1684.000000, 1648.000000, 0.000000, 0.000000, 0.000000, 1.000000, 947.692299, 1537850124.067692, 2.000000, 4.000000, 4.000000, 4.000000, 0.000000, 4.000000, 4.000000, 4.000000, 4.000000, 0.000000, 1.000000, 4.000000, 4.000000, 4.000000, 4.000000, 4.000000
100.000000, 0.000000, 4313.846191, 4142.563965, 4563.076660, 4477.948730, 4055.384521, 4891.794922, 4396.410156, 4502.051270, 4500.512695, 4488.717773, 4315.384277, 4182.051270, 4385.127930, 4314.871582, 95.000000, 1684.000000, 1651.000000, 0.000000, 0.000000, 0.000000, 1.000000, 955.384621, 1537850124.075385, 2.000000, 4.000000, 4.000000, 4.000000, 0.000000, 4.000000, 4.000000, 4.000000, 4.000000, 0.000000, 1.000000, 4.000000, 4.000000, 4.000000, 4.000000, 4.000000
101.000000, 0.000000, 4309.230469, 4195.384277, 4560.512695, 4475.384277, 4055.897217, 4884.102539, 4386.153809, 4487.179199, 4478.461426, 4488.717773, 4321.538574, 4173.333008, 4388.205078, 4307.179199, 485.000000, 1685.000000, 1651.000000, 0.000000, 0.000000, 0.000000, 1.000000, 963.076881, 1537850124.083077, 2.000000, 4.000000, 4.000000, 4.000000, 0.000000, 4.000000, 4.000000, 4.000000, 4.000000, 0.000000, 1.000000, 4.000000, 4.000000, 4.000000, 4.000000, 4.000000
102.000000, 0.000000, 4302.051270, 4225.641113, 4535.384277, 4480.000000, 4056.923096, 4872.307617, 4367.692383, 4459.487305, 4448.205078, 4488.717773, 4321.025391, 4160.512695, 4377.435547, 4295.384277, 500.000000, 1684.000000, 1652.000000, 0.000000, 0.000000, 0.000000, 1.000000, 970.769203, 1537850124.090769, 2.000000, 4.000000, 4.000000, 4.000000, 0.000000, 4.000000, 4.000000, 4.000000, 4.000000, 0.000000, 1.000000, 4.000000, 4.000000, 4.000000, 4.000000, 4.000000
103.000000, 0.000000, 4306.666504, 4210.256348, 4523.589844, 4493.333008, 4057.948730, 4876.410156, 4366.666504, 4460.512695, 4452.820312, 4488.717773, 4317.948730, 4166.666504, 4375.384277, 4310.769043, 500.000000, 1685.000000, 1648.000000, 0.000000, 0.000000, 0.000000, 1.000000, 978.974342, 1537850124.098974, 2.000000, 4.000000, 4.000000, 4.000000, 0.000000, 4.000000, 4.000000, 4.000000, 4.000000, 0.000000, 1.000000, 4.000000, 4.000000, 4.000000, 4.000000, 4.000000
