,COUNTER, INTERPOLATED, RAW_CQ, AF3, F7, F3, FC5, T7, P7, O1, O2, P8, T8, FC6, F4, F8, AF4, MARKER_HARDWARE, MARKER
0,124,0,3010,4241.282,3899.8720000000003,4249.872,4156.538,4269.359,4223.59,4237.692,4238.333,4254.744000000001,4233.077,4223.462,4255.769,4234.103,4243.59,0,0
1,125,0,3213,4237.9490000000005,3868.462,4239.231,4155.385,4182.821,4204.103,4210.641,4214.359,4224.103,4204.231,4215.385,4243.59,4219.359,4234.487,0,0
2,126,0,3448,4224.103,3798.8459999999995,4217.692,4133.846,4225.255999999999,4190.769,4175.385,4177.564,4189.615,4178.59,4197.821,4225.128,4196.667,4215.513,0,0
3,127,0,55,4224.359,3786.41,4218.205,4130.128,4306.923,4204.359,4188.974,4188.974,4208.59,4200.897,4198.846,4228.333,4200.641,4215.0,0,0
4,0,0,3205,4220.255999999999,3802.692,4221.667,4141.154,4235.0,4205.385,4201.026,4204.359,4215.769,4191.538,4204.231,4226.154,4203.974,4211.538,0,0
5,1,0,3373,4212.821,3788.8459999999995,4217.0509999999995,4147.821,4185.513,4196.923,4189.359,4198.205,4197.692,4172.436,4200.385,4217.821,4199.103,4200.513,0,0
6,2,0,2815,4206.538,3772.179,4212.0509999999995,4142.436,4247.692,4200.0,4190.385,4194.872,4199.487,4185.897,4194.103,4216.41,4197.436,4196.538,0,0
7,3,0,3557,4197.9490000000005,3767.5640000000003,4209.231,4132.821,4262.308,4193.846,4193.077,4194.359,4212.564,4175.769,4188.462,4214.231,4200.769,4194.872,0,0
8,4,0,3604,4195.769,3759.103,4208.205,4133.077,4231.795,4180.897,4180.385,4191.41,4213.333,4174.103,4184.103,4211.282,4197.564,4193.077,0,0
9,5,0,3389,4195.769,3759.487,4206.41,4138.846,4239.231,4189.872,4182.308,4195.897,4210.0,4210.769,4181.026,4213.077,4187.308,4190.897,0,0
10,6,0,3372,4196.538,3770.7690000000002,4215.255999999999,4150.769,4239.487,4204.487,4206.795,4212.179,4216.795,4217.821,4189.615,4222.821,4198.205,4197.9490000000005,0,0
11,7,0,3426,4198.59,3772.5640000000003,4225.769,4161.41,4242.0509999999995,4203.205,4214.615,4219.103,4222.308,4203.718,4203.333,4230.897,4220.641,4208.333,0,0
12,8,0,3446,4192.308,3768.8459999999995,4215.385,4156.41,4243.462,4200.0,4199.744000000001,4198.718,4211.538,4208.077,4195.897,4222.9490000000005,4212.692,4200.769,0,0
13,9,0,3598,4171.795,3768.718,4196.923,4147.821,4207.821,4201.538,4196.795,4175.385,4198.205,4191.795,4177.0509999999995,4205.0,4193.462,4182.564,0,0
14,10,0,3469,4167.179,3773.205,4199.487,4149.103,4211.41,4202.179,4204.103,4178.333,4200.897,4170.641,4184.359,4204.359,4199.744000000001,4186.795,0,0
15,11,0,3309,4174.359,3781.282,4203.59,4146.154,4242.308,4199.231,4195.641,4187.821,4204.744000000001,4183.462,4193.59,4211.154,4205.385,4194.103,0,0
16,12,0,3031,4170.897,3786.026,4196.667,4144.231,4216.026,4192.0509999999995,4189.615,4182.9490000000005,4200.641,4192.692,4173.974,4201.795,4197.308,4179.359,0,0
17,13,0,3245,4163.077,3782.821,4194.615,4150.897,4179.615,4186.538,4193.718,4181.667,4200.897,4185.641,4161.667,4188.333,4198.718,4170.128,0,0
18,14,0,3469,4161.923,3776.923,4197.564,4147.179,4200.255999999999,4186.667,4190.0,4184.872,4200.641,4179.231,4173.333,4190.0,4200.769,4178.462,0,0
19,15,0,3309,4158.59,3767.692,4192.436,4138.59,4230.769,4188.846,4183.462,4180.0,4195.641,4175.513,4172.308,4190.385,4193.333,4180.897,0,0
20,16,0,0,4157.436,3765.0,4187.564,4138.333,4208.462,4193.846,4182.821,4171.282,4191.923,4171.923,4158.718,4182.308,4187.179,4173.462,0,0
21,17,0,0,4165.255999999999,3781.667,4189.487,4140.897,4192.436,4198.974,4183.846,4170.385,4193.077,4168.718,4162.821,4182.9490000000005,4188.333,4173.205,0,0
22,18,0,0,4171.154,3798.974,4194.615,4147.436,4203.077,4201.538,4185.769,4179.359,4199.487,4170.128,4173.333,4188.333,4195.128,4175.255999999999,0,0
23,19,0,0,4171.923,3799.2309999999998,4202.308,4153.846,4207.436,4202.436,4187.308,4182.564,4200.513,4168.718,4169.359,4190.897,4195.897,4174.615,0,0
24,20,0,0,4175.0,3798.077,4209.103,4156.41,4210.897,4195.641,4187.308,4188.974,4197.692,4170.897,4170.0,4195.128,4188.974,4178.077,0,0
25,21,0,0,4182.0509999999995,3804.615,4215.513,4166.795,4205.897,4193.333,4193.077,4197.436,4203.333,4183.718,4181.795,4203.718,4193.59,4189.744000000001,0,0
26,22,0,0,4181.795,3794.487,4211.41,4165.255999999999,4197.179,4199.615,4193.077,4185.385,4204.103,4191.282,4184.231,4199.359,4200.385,4193.846,0,0
27,23,0,0,4180.385,3775.256,4209.231,4148.59,4206.923,4197.692,4195.897,4197.308,4200.385,4188.846,4179.744000000001,4196.026,4191.667,4191.923,0,0
28,24,0,0,4178.333,3770.7690000000002,4209.872,4147.692,4213.077,4198.59,4206.41,4220.128,4205.513,4188.462,4178.462,4201.154,4188.077,4194.744000000001,0,0
29,25,0,0,4173.59,3772.692,4200.769,4153.718,4191.538,4203.077,4198.462,4186.026,4203.205,4186.026,4172.179,4195.513,4197.0509999999995,4193.846,0,0
30,26,0,0,4172.308,3775.7690000000002,4191.41,4151.795,4178.974,4190.897,4176.538,4146.026,4195.255999999999,4181.026,4167.821,4189.487,4198.205,4190.769,0,0
31,27,0,0,4178.59,3790.897,4193.846,4152.821,4189.231,4175.897,4169.231,4165.128,4198.333,4183.077,4176.795,4197.436,4192.692,4194.231,0,0
32,28,0,0,4177.692,3816.538,4196.795,4148.077,4186.923,4183.462,4182.436,4190.385,4202.821,4185.385,4185.255999999999,4200.513,4192.0509999999995,4195.0,0,0
33,29,0,0,4181.41,3829.3590000000004,4203.59,4150.128,4184.872,4198.59,4198.718,4188.718,4202.0509999999995,4186.667,4184.615,4196.282,4194.231,4194.487,0,0
34,30,0,0,4185.0,3833.333,4202.821,4166.282,4200.128,4196.026,4194.487,4180.513,4197.308,4184.103,4179.487,4190.641,4190.641,4191.41,0,0
35,31,0,0,4182.821,3850.1279999999997,4194.359,4166.282,4202.564,4188.718,4176.41,4172.564,4195.513,4180.897,4175.897,4186.538,4185.255999999999,4185.513,0,0
36,32,0,0,4191.795,3885.0,4205.769,4162.821,4187.0509999999995,4197.9490000000005,4178.205,4181.667,4210.0,4191.026,4187.308,4197.179,4191.154,4193.333,0,0
37,33,0,0,4196.154,3912.051,4212.564,4173.333,4194.231,4204.359,4191.795,4192.9490000000005,4218.333,4197.9490000000005,4200.897,4207.308,4199.487,4201.795,0,0
38,34,0,0,4191.282,3919.3590000000004,4210.641,4165.0,4205.385,4191.795,4193.974,4191.667,4207.0509999999995,4195.0,4201.923,4204.744000000001,4200.641,4196.026,0,0
39,35,0,0,4194.487,3940.1279999999997,4220.769,4157.0509999999995,4190.255999999999,4184.744000000001,4190.513,4195.897,4206.41,4195.513,4202.692,4207.436,4202.564,4195.0,0,0
40,36,0,0,4191.795,3983.205,4216.026,4174.231,4179.744000000001,4188.59,4182.308,4195.897,4216.923,4198.59,4203.59,4206.923,4201.026,4196.923,0,0
41,37,0,0,4178.846,4016.538,4202.436,4177.564,4190.385,4188.462,4183.59,4191.026,4215.128,4204.103,4202.436,4199.744000000001,4197.564,4193.333,0,0
42,38,0,0,4179.872,4024.2309999999998,4216.154,4157.308,4172.179,4190.128,4198.205,4198.974,4212.9490000000005,4213.59,4204.231,4203.974,4204.359,4194.872,0,0
43,39,0,0,4173.846,4022.692,4218.077,4138.846,4148.974,4188.205,4194.615,4207.564,4215.255999999999,4209.615,4194.615,4198.333,4201.667,4190.513,0,0
44,40,0,0,4157.308,4035.256,4195.0,4131.538,4182.179,4186.667,4184.103,4197.0509999999995,4211.667,4196.923,4178.462,4182.821,4188.846,4181.154,0,0
45,41,0,0,4157.0509999999995,4077.821,4193.718,4137.0509999999995,4214.359,4185.128,4202.821,4188.205,4214.872,4206.41,4177.9490000000005,4189.872,4195.128,4188.333,0,0
46,42,0,0,4159.359,4133.205,4196.795,4127.179,4197.821,4169.103,4205.769,4187.179,4211.923,4211.026,4183.59,4198.205,4202.564,4195.255999999999,0,0
47,43,0,0,4158.333,4174.487,4195.0,4103.718,4134.231,4171.667,4174.359,4187.564,4204.231,4199.744000000001,4191.538,4191.667,4195.513,4193.077,0,0
48,44,0,0,4167.0509999999995,4214.359,4207.308,4103.718,4099.231,4204.872,4171.538,4192.308,4218.974,4203.077,4201.282,4198.846,4198.59,4202.692,0,0
49,45,0,0,4160.255999999999,4265.769,4198.333,4101.154,4165.128,4209.744000000001,4187.9490000000005,4189.487,4229.487,4209.231,4195.897,4201.667,4204.487,4204.231,0,0
50,46,0,0,4143.718,4310.385,4173.846,4081.41,4232.0509999999995,4177.821,4175.255999999999,4175.385,4201.154,4197.179,4177.9490000000005,4181.923,4183.846,4189.103,0,0
51,47,0,0,4149.615,4346.923,4179.359,4090.0,4205.128,4171.154,4162.692,4178.333,4192.0509999999995,4194.231,4179.487,4181.667,4175.0,4193.718,0,0
52,48,0,0,4174.615,4378.974,4210.513,4117.564,4168.077,4198.59,4188.974,4206.154,4230.0,4217.0509999999995,4204.615,4215.128,4206.667,4223.462,0,0
53,49,0,0,4182.564,4381.923,4219.744000000001,4120.641,4191.923,4204.615,4204.359,4212.0509999999995,4228.718,4222.436,4214.872,4228.718,4215.769,4230.255999999999,0,0
54,50,0,0,4170.641,4371.667,4202.692,4108.462,4187.179,4180.641,4174.487,4188.974,4190.897,4203.077,4200.769,4209.103,4191.282,4212.179,0,0
55,51,0,0,4170.897,4380.769,4195.0,4104.872,4166.282,4171.282,4164.103,4185.0,4201.923,4197.436,4197.821,4202.179,4190.0,4214.615,0,0
56,52,0,0,4180.128,4386.795,4200.0,4108.462,4179.103,4187.821,4200.897,4198.974,4229.103,4204.231,4210.513,4210.128,4202.692,4222.692,0,0
57,53,0,0,4186.154,4371.923,4213.846,4106.667,4178.333,4201.41,4211.41,4202.308,4212.692,4212.436,4216.667,4217.564,4204.103,4222.692,0,0
58,54,0,0,4184.487,4356.795,4217.308,4093.077,4174.872,4196.154,4174.103,4197.9490000000005,4201.41,4215.897,4212.308,4215.897,4201.538,4222.9490000000005,0,0
59,55,0,0,4175.385,4347.0509999999995,4202.436,4094.744,4195.0,4182.308,4162.692,4200.385,4218.462,4205.0,4202.564,4205.897,4192.821,4215.641,0,0
60,56,0,0,4168.846,4343.974,4192.564,4110.641,4207.692,4181.41,4180.641,4193.974,4215.128,4199.487,4198.333,4201.41,4184.872,4207.0509999999995,0,0
61,57,0,0,4171.795,4341.282,4197.436,4099.359,4190.255999999999,4182.308,4171.154,4168.846,4186.154,4201.923,4201.795,4203.462,4180.255999999999,4206.026,0,0
62,58,0,0,4166.923,4324.103,4191.154,4077.821,4181.41,4167.179,4159.487,4158.077,4175.641,4186.538,4197.692,4196.667,4171.538,4197.564,0,0
63,59,0,0,4166.923,4326.026,4187.179,4088.333,4200.897,4171.538,4182.436,4178.077,4197.564,4181.41,4202.9490000000005,4200.513,4183.205,4198.59,0,0
64,60,0,0,4186.154,4350.0,4217.821,4105.513,4185.897,4208.59,4207.9490000000005,4203.205,4224.231,4212.692,4224.359,4223.718,4217.9490000000005,4224.615,0,0
65,61,0,0,4192.692,4345.0,4233.974,4103.974,4161.538,4216.538,4206.795,4205.513,4217.821,4220.385,4223.846,4225.385,4225.513,4226.667,0,0
66,62,0,0,4169.103,4320.128,4198.333,4100.128,4212.308,4189.487,4191.923,4193.974,4190.0,4194.231,4201.795,4200.513,4203.205,4196.41,0,0
67,63,0,0,4156.667,4315.897,4180.641,4102.564,4251.538,4180.513,4184.872,4197.9490000000005,4189.103,4193.718,4200.769,4195.385,4188.59,4189.231,0,0
68,64,0,3214,4159.744000000001,4309.615,4195.769,4097.821,4184.615,4189.103,4188.333,4205.128,4209.103,4199.744000000001,4205.385,4203.718,4188.205,4197.179,0,0
69,65,0,3360,4158.077,4295.641,4187.692,4083.077,4147.436,4181.923,4180.128,4190.641,4194.872,4185.128,4192.308,4194.103,4186.026,4186.538,0,0
70,66,0,2826,4153.077,4290.513,4167.308,4076.923,4210.0,4159.872,4161.923,4178.333,4155.769,4178.333,4183.59,4180.769,4167.308,4173.718,0,0
71,67,0,3545,4156.923,4286.026,4181.154,4093.462,4234.744000000001,4170.385,4175.513,4187.0509999999995,4165.769,4186.795,4195.897,4188.205,4162.564,4184.231,0,0
72,68,0,3621,4166.282,4284.615,4197.564,4101.923,4205.128,4200.0,4194.231,4193.718,4206.282,4190.128,4208.205,4201.026,4187.0509999999995,4197.0509999999995,0,0
73,69,0,3400,4175.255999999999,4294.359,4199.615,4096.41,4215.513,4198.077,4195.897,4210.769,4225.769,4203.59,4220.513,4211.923,4212.692,4204.359,0,0
74,70,0,3399,4192.179,4303.205,4222.436,4114.359,4222.179,4187.9490000000005,4210.513,4242.564,4231.795,4237.436,4237.179,4234.359,4223.718,4229.231,0,0
75,71,0,3429,4189.872,4280.385,4222.436,4124.615,4186.795,4183.974,4205.128,4229.487,4219.615,4245.769,4230.641,4233.846,4227.692,4236.154,0,0
76,72,0,3447,4169.487,4250.255999999999,4193.846,4091.282,4172.564,4175.769,4173.718,4185.0,4201.795,4207.436,4215.897,4205.128,4218.846,4208.974,0,0
77,73,0,3602,4158.974,4240.385,4186.538,4072.308,4187.179,4173.846,4171.923,4176.154,4180.255999999999,4176.538,4214.359,4190.769,4196.026,4192.692,0,0
78,74,0,3473,4160.128,4214.231,4191.923,4096.154,4193.974,4174.744000000001,4181.667,4192.0509999999995,4162.564,4190.255999999999,4209.615,4193.077,4182.179,4195.385,0,0
79,75,0,3319,4145.0,4185.769,4173.59,4096.923,4205.0,4164.103,4163.333,4180.255999999999,4171.154,4200.641,4195.0,4180.513,4181.667,4180.513,0,0
80,76,0,3041,4134.231,4191.026,4166.795,4067.051,4201.923,4171.923,4167.821,4180.769,4195.0,4190.385,4188.846,4174.359,4186.41,4170.0,0,0
81,77,0,3256,4141.923,4199.487,4181.41,4064.487,4168.846,4188.59,4187.9490000000005,4218.205,4202.564,4174.487,4186.154,4180.385,4186.154,4181.923,0,0
82,78,0,3473,4140.769,4180.641,4175.641,4077.692,4176.026,4178.205,4177.436,4204.487,4187.692,4166.026,4175.255999999999,4168.333,4186.282,4178.205,0,0
83,79,0,3319,4127.436,4156.026,4157.564,4060.0,4220.897,4169.744000000001,4160.641,4137.308,4165.255999999999,4179.487,4170.385,4154.359,4187.821,4163.59,0,0
84,80,0,3041,4120.769,4129.872,4152.436,4043.59,4166.41,4160.255999999999,4148.462,4117.692,4148.846,4180.769,4171.667,4155.255999999999,4177.308,4161.154,0,0
85,81,0,3256,4116.282,4110.641,4157.0509999999995,4063.333,4102.9490000000005,4140.0,4140.513,4143.846,4151.026,4154.615,4171.282,4155.255999999999,4167.436,4161.41,0,0
86,82,0,3473,4117.821,4102.308,4162.564,4081.667,4178.333,4140.513,4149.615,4153.205,4153.718,4166.154,4172.436,4157.9490000000005,4175.128,4163.462,0,0
87,83,0,3319,4135.641,4091.795,4166.795,4072.5640000000003,4233.333,4167.308,4172.9490000000005,4167.436,4160.641,4225.513,4173.718,4170.769,4197.179,4177.692,0,0
88,84,0,3041,4141.154,4077.051,4167.564,4063.8459999999995,4195.128,4194.231,4182.308,4182.564,4186.026,4226.026,4167.436,4168.846,4194.615,4180.641,0,0
89,85,0,3256,4131.154,4038.59,4164.744000000001,4075.385,4177.9490000000005,4187.0509999999995,4166.154,4163.59,4187.0509999999995,4166.154,4157.564,4155.769,4163.462,4165.769,0,0
90,86,0,3473,4123.718,4008.8459999999995,4155.769,4084.615,4155.0,4149.103,4139.744000000001,4143.974,4149.615,4149.103,4148.974,4146.41,4148.974,4154.487,0,0
91,87,0,3319,4126.538,4017.308,4156.538,4087.5640000000003,4131.667,4145.255999999999,4143.077,4152.436,4129.231,4192.436,4144.615,4150.769,4174.615,4159.231,0,0
92,88,0,3041,4135.769,3982.308,4163.59,4105.897,4182.308,4156.923,4152.564,4159.872,4154.103,4199.615,4155.769,4158.333,4187.0509999999995,4169.103,0,0
93,89,0,3256,4136.667,3914.8720000000003,4160.128,4115.769,4209.103,4132.0509999999995,4129.103,4146.41,4150.385,4166.667,4157.9490000000005,4153.333,4161.667,4163.077,0,0
94,90,0,3473,4122.179,3896.026,4151.667,4095.1279999999997,4195.641,4137.9490000000005,4123.077,4136.026,4114.872,4187.564,4133.462,4146.667,4157.436,4147.9490000000005,0,0
95,91,0,3319,4118.333,3886.026,4146.41,4099.615,4167.821,4155.128,4139.231,4128.077,4117.9490000000005,4205.255999999999,4112.308,4140.513,4161.41,4139.359,0,0
96,92,0,3041,4129.103,3884.3590000000004,4144.872,4155.385,4051.538,4120.255999999999,4141.667,4127.308,4153.077,4182.179,4123.333,4135.128,4167.821,4140.769,0,0
97,93,0,3256,4125.128,3907.949,4141.923,4165.769,4034.744,4119.487,4137.0509999999995,4144.231,4162.692,4184.615,4138.333,4137.564,4194.359,4144.359,0,0
98,94,0,3473,4113.205,3893.59,4136.154,4114.487,4221.282,4167.821,4138.59,4153.718,4155.128,4206.795,4135.641,4143.077,4190.769,4147.692,0,0
99,95,0,3319,4120.897,3864.744,4135.385,4111.923,4307.179,4147.308,4131.154,4141.41,4143.718,4195.897,4127.308,4143.462,4151.923,4151.282,0,0
100,96,0,3041,4127.9490000000005,3885.6409999999996,4140.769,4165.641,4163.077,4104.487,4123.974,4135.641,4128.333,4164.872,4122.0509999999995,4143.077,4145.897,4152.308,0,0
101,97,0,3256,4116.154,3891.282,4140.0,4168.974,4048.974,4123.974,4128.205,4143.974,4136.41,4146.154,4115.255999999999,4137.564,4160.128,4145.513,0,0
102,98,0,3473,4096.41,3849.2309999999998,4122.0509999999995,4132.436,4098.205,4116.282,4109.487,4128.333,4125.128,4136.667,4083.718,4114.359,4134.103,4121.795,0,0
103,99,0,3319,4078.333,3826.923,4092.051,4115.255999999999,4187.9490000000005,4083.205,4073.205,4087.949,4070.6409999999996,4129.872,4058.8459999999995,4088.205,4101.795,4098.718,0,0
104,100,0,3041,4061.538,3800.256,4072.051,4112.564,4095.1279999999997,4061.282,4049.2309999999998,4058.718,4044.615,4104.487,4062.051,4070.385,4090.256,4087.308,0,0
105,101,0,3256,4051.795,3778.59,4074.103,4132.179,3916.538,4025.0,4052.692,4063.59,4072.4359999999997,4094.487,4051.282,4062.308,4092.692,4079.744,0,0
106,102,0,3473,4062.179,3811.538,4082.821,4141.923,3998.59,4040.7690000000002,4072.051,4084.3590000000004,4093.974,4116.41,4034.2309999999998,4070.256,4111.923,4082.051,0,0
107,103,0,3319,4067.821,3843.205,4071.795,4103.205,4189.872,4092.179,4069.8720000000003,4077.692,4070.1279999999997,4120.897,4032.821,4070.513,4113.333,4084.3590000000004,0,0
108,104,0,3041,4056.41,3816.795,4052.4359999999997,4080.256,4162.0509999999995,4052.949,4043.333,4049.103,4037.051,4088.59,4023.205,4052.949,4080.1279999999997,4069.2309999999998,0,0
109,105,0,3256,4039.2309999999998,3779.8720000000003,4040.0,4094.103,4021.41,3992.5640000000003,4023.205,4045.6409999999996,4035.1279999999997,4046.538,4002.5640000000003,4032.949,4051.923,4046.923,0,0
110,106,0,3473,4017.051,3760.385,4019.615,4072.821,3976.026,4014.3590000000004,4003.718,4023.077,4029.487,4010.6409999999996,3986.282,4012.308,4034.2309999999998,4022.692,0,0
111,107,0,3319,3991.923,3737.5640000000003,3988.974,4035.0,3979.8720000000003,4010.6409999999996,3978.077,3975.0,3994.103,3986.667,3960.385,3986.795,4005.1279999999997,3993.974,0,0
112,108,0,3041,4003.462,3743.077,4003.333,4038.077,3966.282,3998.8459999999995,4017.821,4048.462,3998.8459999999995,4008.205,3964.3590000000004,4001.1540000000005,4004.2309999999998,4003.8459999999995,0,0
113,109,0,3256,4018.462,3746.795,4024.615,4042.821,3963.718,4025.897,4048.077,4118.333,4019.8720000000003,4026.667,3980.256,4020.513,4015.1279999999997,4020.897,0,0
114,110,0,3473,3968.974,3698.462,3958.333,4003.974,3949.615,3973.974,3951.026,3966.667,3952.179,3960.513,3923.077,3957.051,3962.051,3961.538,0,0
115,111,0,3319,3911.282,3658.718,3884.3590000000004,3948.333,3923.077,3898.8459999999995,3898.8459999999995,3821.538,3873.59,3894.744,3866.667,3891.923,3904.2309999999998,3896.41,0,0
116,112,0,3041,3912.179,3660.6409999999996,3889.3590000000004,3936.1540000000005,3880.1279999999997,3901.1540000000005,3940.1279999999997,3876.1540000000005,3881.282,3901.282,3873.718,3903.205,3907.5640000000003,3900.6409999999996,0,0
117,113,0,3256,3914.615,3652.821,3889.103,3945.513,3826.1540000000005,3885.256,3874.8720000000003,3905.1279999999997,3887.179,3892.692,3868.718,3902.5640000000003,3897.5640000000003,3898.205,0,0
118,114,0,3473,3887.5640000000003,3626.923,3846.026,3913.8459999999995,3780.7690000000002,3828.8459999999995,3773.077,3836.538,3840.6409999999996,3844.103,3835.1279999999997,3859.3590000000004,3850.513,3859.2309999999998,0,0
119,115,0,3319,3867.692,3610.6409999999996,3823.205,3878.462,3761.026,3807.051,3786.026,3816.282,3801.923,3815.6409999999996,3815.385,3837.821,3819.487,3836.026,0,0
120,116,0,3041,3853.59,3603.974,3814.744,3868.59,3764.8720000000003,3799.2309999999998,3801.538,3818.59,3794.2309999999998,3792.5640000000003,3800.385,3829.3590000000004,3805.1279999999997,3824.3590000000004,0,0
121,117,0,3256,3830.513,3596.667,3788.333,3836.923,3748.333,3783.718,3768.718,3802.308,3797.5640000000003,3758.205,3777.692,3805.897,3783.59,3802.4359999999997,0,0
122,118,0,3473,3818.205,3591.026,3770.385,3812.4359999999997,3710.7690000000002,3778.718,3769.2309999999998,3795.897,3789.487,3749.3590000000004,3768.718,3792.051,3762.949,3786.667,0,0
123,119,0,3319,3827.692,3610.513,3775.513,3845.6409999999996,3708.205,3781.41,3787.4359999999997,3800.513,3782.179,3767.692,3785.0,3798.59,3767.051,3794.744,0,0
124,120,0,3041,3831.026,3641.026,3773.205,3856.795,3743.462,3781.026,3778.333,3798.718,3787.4359999999997,3770.897,3803.077,3800.1279999999997,3779.744,3801.026,0,0
125,121,0,3256,3826.795,3660.1279999999997,3773.333,3802.308,3743.333,3773.974,3766.41,3789.3590000000004,3787.308,3759.2309999999998,3804.3590000000004,3796.795,3775.6409999999996,3797.051,0,0
126,122,0,3473,3841.538,3703.077,3798.718,3788.59,3740.6409999999996,3788.333,3794.744,3808.718,3799.103,3782.4359999999997,3823.077,3817.949,3792.821,3816.923,0,0
127,123,0,3319,3866.538,3764.615,3815.256,3838.59,3804.8720000000003,3818.333,3835.1279999999997,3841.923,3825.6409999999996,3820.513,3853.462,3844.615,3828.462,3844.3590000000004,0,0
128,124,0,3041,3861.795,3790.385,3807.051,3849.2309999999998,3824.744,3827.949,3833.59,3852.4359999999997,3832.5640000000003,3820.6409999999996,3853.333,3841.282,3834.3590000000004,3841.282,0,0
129,125,0,3256,3851.41,3797.692,3818.8459999999995,3813.974,3768.077,3842.821,3825.385,3846.667,3835.256,3815.256,3852.949,3841.282,3836.795,3837.5640000000003,0,0
130,126,0,3473,3846.667,3822.051,3822.179,3783.718,3769.615,3850.7690000000002,3825.385,3830.1279999999997,3842.821,3817.692,3858.718,3843.718,3847.179,3837.949,0,0
131,127,0,55,3846.538,3857.692,3808.718,3769.487,3833.205,3828.974,3820.513,3829.8720000000003,3852.692,3822.4359999999997,3857.051,3842.308,3853.205,3841.282,0,0
132,0,0,3229,3870.1279999999997,3919.487,3828.077,3790.385,3874.744,3847.308,3851.41,3872.051,3881.026,3853.333,3884.487,3871.538,3874.103,3875.513,0,0
133,1,0,3318,3902.4359999999997,3984.615,3867.179,3844.103,3868.718,3904.3590000000004,3905.385,3915.0,3916.41,3890.513,3928.59,3910.0,3902.692,3912.692,0,0
134,2,0,2835,3915.1279999999997,4008.462,3888.974,3858.8459999999995,3856.667,3902.308,3917.051,3923.077,3920.385,3904.103,3942.5640000000003,3920.256,3917.4359999999997,3918.8459999999995,0,0
135,3,0,3562,3912.949,4028.462,3884.744,3826.923,3893.59,3875.256,3903.205,3922.5640000000003,3907.051,3905.513,3944.487,3920.897,3925.6409999999996,3921.667,0,0
136,4,0,3564,3916.923,4068.462,3882.4359999999997,3825.7690000000002,3932.692,3903.333,3916.795,3931.538,3921.923,3904.103,3958.205,3932.4359999999997,3928.974,3933.974,0,0
137,5,0,3436,3922.821,4087.5640000000003,3897.949,3854.8720000000003,3894.8720000000003,3934.487,3942.821,3942.5640000000003,3943.462,3899.3590000000004,3957.4359999999997,3936.41,3928.205,3935.513,0,0
138,6,0,3408,3932.051,4101.282,3913.59,3882.5640000000003,3894.2309999999998,3936.538,3948.59,3951.282,3945.0,3908.8459999999995,3950.256,3940.6409999999996,3941.1540000000005,3938.718,0,0
139,7,0,3455,3939.8720000000003,4134.744000000001,3910.0,3897.4359999999997,3968.333,3940.513,3937.308,3955.7690000000002,3949.3590000000004,3920.385,3961.795,3949.103,3952.051,3950.1279999999997,0,0
140,8,0,3445,3946.795,4148.077,3918.974,3894.3590000000004,3971.923,3944.2309999999998,3940.897,3964.487,3966.026,3922.308,3976.41,3956.41,3955.256,3960.6409999999996,0,0
141,9,0,3623,3955.256,4139.872,3942.949,3898.333,3953.333,3950.385,3958.974,3972.308,3968.333,3928.59,3979.103,3963.59,3966.282,3966.538,0,0
142,10,0,3495,3970.256,4151.795,3956.923,3915.897,3992.308,3975.0,3970.0,3978.077,3966.923,3940.6409999999996,3992.5640000000003,3978.077,3982.821,3978.8459999999995,0,0
143,11,0,3328,3989.103,4170.385,3974.487,3931.1540000000005,4001.923,3983.8459999999995,3979.8720000000003,3995.1279999999997,3989.487,3963.077,4021.795,4000.385,4002.051,4002.5640000000003,0,0
144,12,0,3064,3997.5640000000003,4168.718,3989.3590000000004,3951.41,3988.8459999999995,3973.718,3993.974,4010.385,4003.974,3979.615,4029.487,4008.8459999999995,4008.462,4013.077,0,0
145,13,0,3266,3997.821,4177.564,3991.282,3967.692,4036.795,3999.744,4009.744,4024.8720000000003,4012.692,3985.897,4030.1279999999997,4010.256,4018.974,4012.692,0,0
146,14,0,3495,4011.282,4199.103,4006.282,3962.051,4077.308,4033.077,4027.308,4049.8720000000003,4041.026,4001.026,4053.462,4030.6409999999996,4043.718,4029.103,0,0
147,15,0,3328,4021.026,4196.026,4024.615,3968.718,4059.487,4024.8720000000003,4035.1279999999997,4061.282,4055.7690000000002,4009.744,4064.8720000000003,4046.41,4045.256,4045.385,0,0
148,16,0,0,4015.385,4181.795,4018.8459999999995,3978.974,4056.667,4015.513,4031.667,4047.051,4041.795,4005.513,4055.513,4040.256,4035.7690000000002,4041.41,0,0
149,17,0,0,4019.744,4190.255999999999,4021.026,3965.7690000000002,4068.718,4037.4359999999997,4042.821,4048.8459999999995,4042.821,4017.949,4069.2309999999998,4046.538,4052.4359999999997,4046.282,0,0
150,18,0,0,4044.2309999999998,4205.513,4051.923,3984.487,4079.3590000000004,4066.026,4064.744,4071.795,4063.462,4044.3590000000004,4107.179,4077.821,4072.179,4074.744,0,0
151,19,0,0,4057.4359999999997,4206.538,4067.5640000000003,4017.692,4102.179,4068.8459999999995,4063.718,4069.103,4063.462,4046.1540000000005,4114.487,4091.538,4065.0,4090.1279999999997,0,0
152,20,0,0,4047.692,4200.897,4055.385,4004.2309999999998,4113.718,4046.1540000000005,4054.103,4056.41,4060.0,4033.205,4094.2309999999998,4079.2309999999998,4059.3590000000004,4080.513,0,0
153,21,0,0,4043.333,4195.897,4052.4359999999997,3991.538,4110.769,4039.487,4058.333,4067.4359999999997,4066.923,4038.718,4092.5640000000003,4075.6409999999996,4068.333,4073.8459999999995,0,0
154,22,0,0,4045.1279999999997,4187.821,4053.333,3999.487,4101.538,4055.6409999999996,4048.333,4061.1540000000005,4055.0,4038.077,4107.179,4074.3590000000004,4063.205,4069.3590000000004,0,0
155,23,0,0,4051.795,4183.718,4053.718,3996.026,4093.077,4057.051,4035.385,4038.8459999999995,4039.615,4037.179,4100.385,4068.462,4056.41,4067.179,0,0
156,24,0,0,4070.6409999999996,4195.897,4072.051,4006.026,4115.0,4056.923,4065.1279999999997,4065.385,4061.282,4049.744,4092.4359999999997,4086.282,4078.333,4085.6409999999996,0,0
157,25,0,0,4082.179,4195.513,4085.0,4023.333,4144.487,4068.59,4088.59,4097.821,4081.667,4039.744,4116.41,4109.231,4097.564,4100.128,0,0
158,26,0,0,4072.179,4171.667,4073.462,4016.538,4143.333,4079.615,4075.6409999999996,4077.4359999999997,4069.615,4045.1279999999997,4122.179,4096.154,4090.6409999999996,4086.667,0,0
159,27,0,0,4069.615,4151.282,4069.103,4013.8459999999995,4132.564,4081.41,4073.974,4058.974,4065.385,4086.026,4097.564,4080.6409999999996,4088.59,4076.026,0,0
160,28,0,0,4076.795,4143.974,4073.462,4018.205,4136.667,4079.615,4079.8720000000003,4075.897,4075.513,4094.3590000000004,4091.538,4088.333,4094.744,4080.6409999999996,0,0
161,29,0,0,4091.1540000000005,4145.513,4085.897,4027.821,4147.692,4092.4359999999997,4085.6409999999996,4098.462,4091.923,4085.6409999999996,4111.41,4103.462,4099.744000000001,4095.385,0,0
162,30,0,0,4103.846,4141.538,4103.59,4044.744,4155.255999999999,4105.641,4104.872,4111.026,4108.846,4119.231,4123.718,4114.231,4112.179,4110.255999999999,0,0
163,31,0,0,4095.7690000000002,4113.846,4096.41,4036.282,4145.128,4097.308,4108.333,4104.615,4101.154,4132.564,4112.9490000000005,4110.128,4112.9490000000005,4103.462,0,0
164,32,0,0,4074.8720000000003,4072.179,4070.513,4010.385,4131.026,4082.308,4082.5640000000003,4087.308,4078.077,4100.128,4093.462,4089.615,4094.103,4078.333,0,0
165,33,0,0,4074.744,4053.59,4074.2309999999998,4016.41,4143.077,4085.513,4080.897,4095.7690000000002,4084.103,4111.282,4091.026,4088.333,4096.795,4078.205,0,0
166,34,0,0,4068.462,4026.667,4078.462,4025.897,4145.513,4089.2309999999998,4086.923,4093.8459999999995,4084.487,4128.205,4092.5640000000003,4090.385,4096.667,4080.0,0,0
167,35,0,0,4042.821,3982.179,4052.308,4010.0,4130.385,4085.513,4067.308,4065.0,4049.615,4106.026,4079.487,4068.462,4070.897,4058.974,0,0
168,36,0,0,4056.41,3982.5640000000003,4061.026,4029.487,4148.718,4095.385,4080.897,4093.077,4068.8459999999995,4123.077,4099.231,4081.538,4091.667,4075.7690000000002,0,0
169,37,0,0,4082.5640000000003,3997.308,4085.1279999999997,4063.462,4172.436,4098.077,4111.154,4140.385,4123.077,4170.255999999999,4133.59,4111.41,4139.103,4107.821,0,0
170,38,0,0,4075.0,3979.744,4075.897,4065.513,4156.026,4089.487,4106.41,4122.692,4118.077,4165.255999999999,4125.0,4102.9490000000005,4135.128,4099.744000000001,0,0
171,39,0,0,4070.1279999999997,3960.385,4072.5640000000003,4076.795,4150.128,4092.821,4094.8720000000003,4101.667,4095.385,4150.128,4118.462,4097.179,4122.9490000000005,4094.487,0,0
172,40,0,0,4092.308,3961.923,4095.513,4099.615,4172.821,4106.41,4114.487,4127.436,4106.795,4175.897,4146.282,4123.718,4139.872,4122.308,0,0
173,41,0,0,4095.7690000000002,3956.923,4097.179,4097.821,4165.385,4109.231,4125.0,4131.923,4110.255999999999,4177.0509999999995,4152.9490000000005,4125.128,4137.564,4123.974,0,0
174,42,0,0,4088.462,3942.308,4083.077,4094.8720000000003,4145.128,4110.255999999999,4106.154,4111.154,4100.641,4148.205,4132.436,4107.0509999999995,4118.462,4102.308,0,0
175,43,0,0,4099.359,3946.667,4088.59,4108.205,4146.795,4120.641,4105.769,4116.667,4109.487,4150.897,4131.41,4115.0,4121.154,4108.846,0,0
176,44,0,0,4117.436,3965.1279999999997,4104.487,4120.128,4160.769,4125.769,4127.308,4127.308,4115.385,4168.462,4153.462,4132.436,4127.436,4130.641,0,0
177,45,0,0,4125.385,3978.333,4120.255999999999,4134.487,4176.923,4133.333,4137.564,4128.59,4112.308,4167.179,4163.59,4140.0,4125.385,4140.128,0,0
178,46,0,0,4122.179,3982.692,4132.308,4146.41,4163.333,4145.255999999999,4133.59,4135.641,4113.974,4161.154,4156.282,4144.359,4130.769,4139.103,0,0
179,47,0,0,4124.103,3986.923,4134.872,4145.641,4150.897,4141.667,4134.103,4148.205,4120.255999999999,4167.436,4161.538,4149.231,4142.0509999999995,4140.255999999999,0,0
180,48,0,0,4132.0509999999995,3988.8459999999995,4129.872,4146.923,4171.41,4125.513,4132.821,4146.026,4123.59,4167.564,4166.667,4144.231,4139.615,4136.923,0,0
181,49,0,0,4130.128,3991.41,4131.154,4152.436,4172.564,4123.974,4130.0,4136.667,4112.308,4165.255999999999,4153.077,4136.154,4137.564,4130.513,0,0
182,50,0,0,4128.205,4000.513,4141.154,4152.821,4158.718,4145.641,4140.897,4146.41,4103.077,4183.462,4155.385,4145.641,4159.615,4139.615,0,0
183,51,0,0,4143.974,4009.2309999999998,4157.821,4150.128,4157.308,4159.231,4156.923,4159.103,4113.718,4199.103,4177.436,4164.744000000001,4171.026,4159.872,0,0
184,52,0,0,4153.333,4025.897,4167.0509999999995,4155.513,4145.0,4144.359,4156.538,4151.026,4120.769,4183.333,4176.923,4163.462,4148.59,4162.692,0,0
185,53,0,0,4151.923,4048.59,4164.487,4174.487,4136.026,4137.0509999999995,4146.667,4142.436,4115.128,4166.154,4165.897,4155.0,4135.0,4156.026,0,0
186,54,0,0,4150.255999999999,4055.7690000000002,4155.641,4169.103,4147.564,4152.308,4142.436,4142.9490000000005,4105.513,4165.255999999999,4164.359,4154.615,4133.077,4154.103,0,0
187,55,0,0,4132.821,4044.487,4134.744000000001,4133.59,4135.385,4144.231,4125.769,4117.308,4073.333,4143.974,4141.282,4133.59,4108.59,4131.41,0,0
188,56,0,0,4119.744000000001,4051.667,4119.103,4125.385,4145.0,4131.41,4111.667,4094.744,4053.974,4123.462,4125.513,4113.974,4099.744000000001,4112.0509999999995,0,0
189,57,0,0,4152.0509999999995,4107.9490000000005,4154.744000000001,4164.103,4185.897,4158.718,4140.513,4129.231,4094.3590000000004,4153.974,4161.282,4149.744000000001,4137.436,4146.282,0,0
190,58,0,0,4191.538,4174.231,4204.744000000001,4194.615,4176.795,4178.205,4182.9490000000005,4183.718,4142.564,4205.769,4203.974,4198.974,4179.744000000001,4194.615,0,0
191,59,0,0,4194.231,4192.821,4203.718,4184.744000000001,4165.513,4156.923,4191.923,4195.769,4144.872,4216.538,4207.692,4202.308,4193.462,4199.744000000001,0,0
192,60,0,0,4173.333,4192.436,4178.846,4166.026,4185.128,4152.9490000000005,4182.179,4173.846,4128.333,4190.897,4190.641,4182.821,4182.9490000000005,4177.308,0,0
193,61,0,0,4164.359,4211.154,4179.744000000001,4142.821,4173.718,4176.282,4178.333,4164.103,4115.385,4173.974,4180.641,4174.359,4166.154,4163.974,0,0
194,62,0,0,4162.308,4231.795,4179.744000000001,4124.231,4146.41,4175.385,4171.795,4165.897,4103.205,4170.641,4177.0509999999995,4168.205,4156.923,4157.179,0,0
195,63,0,0,4159.872,4246.923,4166.923,4141.154,4159.615,4166.667,4162.821,4163.59,4104.744000000001,4167.0509999999995,4177.9490000000005,4167.564,4157.692,4153.974,0,0
196,64,0,3223,4151.667,4251.667,4154.487,4149.744000000001,4190.641,4168.974,4152.564,4153.333,4106.154,4155.0,4174.103,4163.333,4153.077,4147.692,0,0
197,65,0,3337,4145.513,4251.026,4153.462,4122.179,4176.282,4171.026,4151.538,4147.0509999999995,4095.6409999999996,4145.897,4167.436,4154.615,4148.846,4141.538,0,0
198,66,0,2824,4149.359,4258.59,4165.255999999999,4117.436,4151.41,4171.026,4158.077,4153.462,4094.3590000000004,4152.308,4171.538,4159.872,4154.487,4148.59,0,0
199,67,0,3540,4158.077,4266.923,4174.872,4146.282,4166.667,4169.231,4161.282,4163.846,4106.923,4164.103,4186.667,4172.692,4165.897,4160.769,0,0
200,68,0,3566,4173.846,4272.564,4188.077,4155.897,4192.179,4177.692,4177.564,4181.795,4124.872,4180.128,4201.282,4188.462,4183.077,4175.769,0,0
201,69,0,3410,4176.282,4275.769,4191.282,4146.154,4190.128,4186.41,4187.179,4187.179,4123.077,4184.231,4194.359,4189.872,4183.205,4179.487,0,0
202,70,0,3385,4163.974,4268.205,4180.0,4144.744000000001,4185.641,4186.026,4177.436,4176.026,4107.436,4171.026,4184.872,4182.0509999999995,4170.769,4172.9490000000005,0,0
203,71,0,3438,4156.026,4252.0509999999995,4174.872,4148.846,4184.359,4181.026,4175.385,4171.667,4100.0,4158.333,4197.821,4181.795,4169.487,4166.667,0,0
204,72,0,3451,4153.59,4240.897,4170.385,4142.564,4185.385,4168.333,4169.744000000001,4170.897,4092.821,4149.231,4195.385,4177.179,4161.154,4157.692,0,0
205,73,0,3602,4148.974,4230.641,4160.897,4127.564,4188.333,4171.026,4162.436,4169.231,4096.923,4152.9490000000005,4172.821,4165.128,4153.077,4152.0509999999995,0,0
206,74,0,3488,4151.154,4217.821,4168.077,4126.795,4169.487,4200.513,4176.923,4170.769,4109.744000000001,4166.41,4175.385,4170.897,4164.359,4159.744000000001,0,0
207,75,0,3314,4154.615,4208.974,4177.179,4135.641,4167.564,4215.255999999999,4186.667,4172.9490000000005,4110.513,4167.821,4198.333,4183.846,4170.255999999999,4168.59,0,0
208,76,0,3030,4167.308,4212.308,4180.0,4142.308,4215.385,4198.077,4181.795,4180.513,4112.692,4167.0509999999995,4217.564,4193.333,4174.615,4181.795,0,0
209,77,0,3252,4179.615,4215.769,4186.41,4147.9490000000005,4228.974,4192.692,4186.026,4189.359,4125.641,4179.744000000001,4212.179,4202.564,4190.0,4194.359,0,0
210,78,0,3488,4177.692,4199.872,4191.667,4147.179,4196.41,4203.333,4193.974,4189.231,4127.821,4184.103,4190.769,4199.872,4184.744000000001,4188.718,0,0
211,79,0,3314,4177.821,4187.436,4196.41,4150.769,4201.667,4201.538,4202.0509999999995,4192.0509999999995,4119.487,4187.436,4200.0,4199.744000000001,4176.538,4185.385,0,0
212,80,0,3030,4187.9490000000005,4186.154,4204.103,4158.333,4221.538,4201.538,4209.103,4195.769,4119.103,4201.538,4215.897,4208.333,4186.538,4193.59,0,0
213,81,0,3252,4183.974,4173.846,4198.718,4152.179,4212.179,4207.9490000000005,4199.103,4187.692,4120.769,4196.923,4191.154,4198.846,4180.769,4189.359,0,0
214,82,0,3488,4176.282,4158.974,4192.0509999999995,4145.897,4201.282,4208.846,4194.872,4188.974,4124.615,4183.333,4181.795,4190.641,4167.9490000000005,4186.282,0,0
215,83,0,3314,4182.0509999999995,4143.462,4199.615,4150.128,4188.462,4204.615,4201.667,4191.282,4123.077,4184.231,4210.385,4200.641,4170.0,4193.974,0,0
216,84,0,3030,4166.538,4112.179,4184.103,4142.0509999999995,4175.769,4187.436,4180.513,4166.538,4102.692,4184.359,4188.974,4182.692,4161.026,4169.615,0,0
217,85,0,3252,4152.564,4102.9490000000005,4172.308,4140.255999999999,4193.718,4181.41,4173.462,4166.667,4101.41,4204.744000000001,4158.59,4166.026,4167.308,4152.436,0,0
218,86,0,3488,4172.9490000000005,4125.513,4197.692,4157.692,4213.59,4209.231,4208.974,4200.769,4133.974,4239.744000000001,4196.667,4192.564,4204.359,4188.846,0,0
219,87,0,3314,4174.615,4118.59,4194.872,4155.255999999999,4202.564,4225.0,4203.974,4184.487,4135.513,4222.564,4210.513,4193.846,4199.487,4198.077,0,0
220,88,0,3030,4150.0,4097.308,4167.564,4151.026,4198.205,4211.667,4177.564,4154.615,4111.026,4191.282,4180.255999999999,4168.718,4169.103,4167.436,0,0
221,89,0,3252,4165.513,4115.897,4190.769,4178.077,4220.641,4216.923,4210.128,4190.385,4127.821,4218.333,4195.513,4189.615,4186.923,4181.154,0,0
222,90,0,3488,4190.385,4140.769,4218.333,4198.59,4243.462,4237.0509999999995,4243.974,4232.0509999999995,4162.821,4252.0509999999995,4233.974,4216.795,4217.821,4213.846,0,0
223,91,0,3314,4182.9490000000005,4137.308,4203.462,4197.692,4245.255999999999,4241.667,4227.9490000000005,4221.026,4157.9490000000005,4242.9490000000005,4225.641,4209.615,4210.128,4208.59,0,0
224,92,0,3030,4170.641,4127.821,4194.359,4184.231,4225.385,4241.923,4211.282,4202.436,4137.308,4230.128,4206.282,4201.026,4188.205,4196.795,0,0
225,93,0,3252,4175.0,4128.718,4208.59,4177.436,4205.513,4236.026,4215.513,4207.436,4143.077,4232.692,4218.205,4204.359,4185.769,4201.41,0,0
226,94,0,3488,4178.462,4143.077,4213.205,4203.59,4221.538,4228.077,4226.41,4217.436,4164.872,4241.795,4227.564,4209.615,4203.333,4204.487,0,0
227,95,0,3314,4181.41,4160.513,4210.128,4231.282,4248.333,4239.231,4237.692,4223.077,4172.564,4246.154,4225.255999999999,4220.385,4219.359,4208.077,0,0
228,96,0,3030,4178.59,4161.282,4206.154,4214.231,4253.077,4250.769,4229.744000000001,4216.41,4161.538,4237.436,4217.308,4215.255999999999,4210.641,4202.821,0,0
229,97,0,3252,4178.718,4160.769,4208.718,4199.872,4250.897,4254.359,4215.769,4205.641,4156.154,4235.513,4209.487,4204.103,4198.462,4197.9490000000005,0,0
230,98,0,3488,4191.667,4167.179,4222.308,4213.718,4242.436,4249.744000000001,4213.846,4200.0,4156.282,4236.795,4213.59,4217.308,4201.154,4208.205,0,0
231,99,0,3314,4194.744000000001,4168.974,4223.59,4208.205,4230.513,4228.333,4205.0,4194.744000000001,4143.59,4226.667,4216.154,4223.974,4200.0,4212.692,0,0
232,100,0,3030,4196.923,4170.255999999999,4222.0509999999995,4198.205,4234.872,4224.744000000001,4203.077,4203.462,4144.615,4222.9490000000005,4217.0509999999995,4220.385,4201.667,4213.718,0,0
233,101,0,3252,4197.9490000000005,4167.692,4215.769,4203.205,4240.255999999999,4241.667,4210.513,4206.667,4158.333,4232.308,4210.128,4212.564,4205.0,4208.974,0,0
234,102,0,3488,4193.59,4165.128,4212.308,4204.231,4231.667,4236.538,4216.282,4202.821,4158.59,4237.821,4205.897,4207.692,4204.615,4200.769,0,0
235,103,0,3314,4188.333,4163.974,4214.744000000001,4202.821,4231.795,4224.744000000001,4217.179,4210.255999999999,4152.692,4232.0509999999995,4209.615,4210.385,4212.179,4198.974,0,0
236,104,0,3030,4188.718,4157.308,4214.103,4204.103,4240.385,4238.718,4214.872,4210.513,4155.513,4227.692,4206.795,4213.462,4215.0,4200.513,0,0
237,105,0,3252,4181.026,4153.462,4205.385,4200.128,4236.923,4250.769,4213.462,4203.462,4163.333,4232.564,4204.487,4204.487,4206.923,4192.9490000000005,0,0
238,106,0,3488,4174.615,4146.538,4197.308,4189.231,4222.308,4233.462,4210.513,4200.769,4156.41,4235.128,4202.9490000000005,4190.769,4198.974,4181.795,0,0
239,107,0,3314,4162.692,4124.231,4182.308,4178.974,4197.308,4208.59,4193.718,4189.615,4136.795,4217.692,4186.538,4181.795,4193.077,4170.513,0,0
240,108,0,3030,4162.692,4118.59,4179.103,4179.359,4190.128,4206.923,4184.744000000001,4181.026,4131.923,4200.513,4173.59,4184.744000000001,4191.026,4171.923,0,0
241,109,0,3252,4178.59,4139.872,4195.385,4188.718,4230.128,4224.103,4199.744000000001,4200.385,4147.436,4228.333,4198.205,4199.744000000001,4206.795,4193.718,0,0
242,110,0,3488,4194.359,4144.103,4210.385,4200.0,4265.641,4236.41,4210.513,4223.333,4165.641,4272.821,4223.333,4216.026,4227.179,4212.9490000000005,0,0
243,111,0,3314,4191.667,4132.308,4216.282,4204.487,4248.846,4235.897,4210.385,4223.718,4174.487,4279.487,4217.692,4223.077,4226.026,4213.846,0,0
244,112,0,3030,4185.513,4117.9490000000005,4216.026,4202.436,4227.564,4227.821,4212.308,4212.9490000000005,4164.231,4256.667,4211.026,4220.897,4208.718,4207.0509999999995,0,0
245,113,0,3252,4188.718,4098.205,4216.923,4209.872,4237.9490000000005,4239.103,4221.538,4210.769,4154.744000000001,4255.769,4216.795,4219.231,4203.846,4211.41,0,0
246,114,0,3488,4188.59,4077.949,4218.205,4212.9490000000005,4233.333,4261.026,4222.564,4210.513,4161.026,4266.026,4220.641,4217.308,4207.564,4215.641,0,0
247,115,0,3314,4180.385,4068.462,4210.513,4199.103,4211.667,4252.0509999999995,4211.538,4207.0509999999995,4161.923,4262.692,4213.205,4210.385,4206.41,4204.744000000001,0,0
248,116,0,3030,4179.231,4076.41,4203.077,4205.897,4232.692,4226.923,4209.872,4216.154,4163.59,4269.103,4217.308,4215.385,4215.385,4204.615,0,0
249,117,0,3252,4200.128,4089.3590000000004,4225.385,4236.154,4263.462,4234.231,4224.487,4236.667,4185.385,4287.692,4240.897,4240.769,4236.282,4230.769,0,0
250,118,0,3488,4208.974,4093.205,4244.744000000001,4243.718,4233.077,4249.103,4234.103,4237.9490000000005,4191.795,4297.179,4246.026,4243.846,4241.282,4238.59,0,0
251,119,0,3314,4194.615,4088.333,4227.308,4231.538,4210.897,4235.385,4215.513,4214.744000000001,4160.0,4277.436,4218.462,4219.231,4221.282,4217.436,0,0
252,120,0,3030,4178.846,4088.974,4200.641,4220.385,4258.462,4222.564,4193.59,4197.9490000000005,4138.462,4253.846,4202.564,4204.872,4203.59,4205.0,0,0
253,121,0,3252,4188.077,4094.3590000000004,4208.718,4210.128,4237.308,4230.255999999999,4199.744000000001,4198.718,4141.154,4252.436,4212.692,4211.41,4200.255999999999,4207.564,0,0
254,122,0,3488,4190.255999999999,4101.538,4212.436,4215.128,4166.795,4233.333,4214.359,4197.436,4132.436,4252.564,4207.0509999999995,4206.41,4196.923,4199.231,0,0
255,123,0,3314,4191.538,4127.692,4207.0509999999995,4235.255999999999,4212.9490000000005,4239.359,4225.385,4203.974,4136.795,4255.769,4206.923,4205.0,4209.103,4203.205,0,0
256,124,0,3030,4206.282,4160.385,4219.103,4248.974,4297.821,4259.872,4241.026,4234.231,4173.333,4276.923,4235.897,4227.9490000000005,4243.077,4227.821,0,0
257,125,0,3252,4215.641,4170.0,4230.769,4247.0509999999995,4277.564,4265.641,4248.205,4248.333,4180.255999999999,4283.59,4244.103,4241.667,4248.718,4231.538,0,0
258,126,0,3488,4195.0,4150.128,4215.513,4229.615,4196.538,4250.128,4231.667,4215.897,4138.846,4250.385,4213.718,4218.59,4206.795,4201.667,0,0
259,127,0,55,4173.077,4144.487,4194.359,4216.667,4175.128,4246.667,4213.974,4191.026,4124.359,4223.333,4199.103,4193.462,4189.872,4182.179,0,0
260,0,0,3233,4177.179,4178.077,4194.487,4226.538,4225.0,4243.205,4211.154,4205.897,4150.897,4231.41,4211.41,4198.59,4212.564,4190.513,0,0
261,1,0,3374,4188.462,4213.462,4207.179,4237.0509999999995,4260.513,4216.154,4213.462,4223.462,4160.385,4248.333,4222.0509999999995,4216.41,4222.821,4203.077,0,0
262,2,0,2828,4196.026,4223.205,4219.487,4231.923,4236.538,4207.179,4215.641,4221.923,4151.795,4243.846,4231.282,4225.769,4216.282,4211.923,0,0
263,3,0,3560,4194.231,4223.59,4218.974,4228.718,4220.897,4233.462,4216.154,4213.718,4157.179,4227.0509999999995,4232.821,4222.436,4213.333,4212.308,0,0
264,4,0,3590,4196.923,4238.974,4222.436,4241.667,4229.231,4244.487,4219.359,4215.385,4168.718,4228.974,4230.385,4228.462,4220.641,4212.692,0,0
265,5,0,3416,4201.923,4258.205,4228.846,4248.846,4221.41,4233.205,4221.795,4219.744000000001,4171.538,4234.615,4232.821,4232.9490000000005,4230.769,4213.718,0,0
266,6,0,3383,4208.077,4275.385,4228.718,4231.923,4243.59,4233.333,4221.923,4216.538,4168.462,4221.282,4235.255999999999,4228.077,4230.897,4216.538,0,0
267,7,0,3439,4208.462,4299.231,4230.0,4222.0509999999995,4270.769,4240.0,4228.846,4221.795,4168.462,4222.436,4241.282,4230.128,4233.59,4226.026,0,0
268,8,0,3460,4215.513,4313.718,4236.538,4229.615,4249.487,4240.513,4241.538,4242.821,4177.9490000000005,4238.59,4251.923,4243.718,4241.923,4235.513,0,0
269,9,0,3611,4213.462,4304.103,4235.641,4225.255999999999,4230.641,4240.0,4246.026,4251.538,4188.718,4225.255999999999,4254.359,4247.179,4236.667,4233.205,0,0
270,10,0,3499,4192.436,4284.872,4218.462,4214.359,4229.359,4233.077,4230.128,4224.359,4176.795,4196.41,4234.231,4227.179,4220.641,4215.513,0,0
271,11,0,3328,4189.744000000001,4287.564,4206.282,4211.41,4230.385,4230.128,4212.692,4203.974,4160.128,4194.487,4222.0509999999995,4211.026,4216.41,4206.154,0,0
272,12,0,3052,4194.231,4298.718,4201.41,4203.718,4234.615,4229.103,4205.128,4208.205,4161.154,4194.744000000001,4238.462,4206.026,4214.487,4201.538,0,0
273,13,0,3262,4191.795,4293.974,4204.487,4198.462,4223.462,4218.333,4198.974,4216.538,4159.872,4182.179,4239.872,4203.205,4209.744000000001,4193.718,0,0
274,14,0,3499,4181.795,4286.154,4204.744000000001,4202.692,4213.59,4217.564,4205.513,4226.282,4162.436,4192.821,4220.385,4200.513,4215.769,4189.359,0,0
275,15,0,3328,4187.821,4283.974,4208.077,4203.718,4237.9490000000005,4234.615,4225.255999999999,4223.333,4175.255999999999,4211.282,4231.282,4212.436,4220.0,4196.538,0,0
276,16,0,0,4183.974,4271.667,4204.359,4199.744000000001,4249.744000000001,4237.308,4225.128,4204.487,4170.897,4198.077,4253.974,4221.026,4215.897,4198.974,0,0
277,17,0,0,4179.744000000001,4245.513,4202.821,4196.41,4222.0509999999995,4228.077,4212.9490000000005,4203.462,4158.846,4179.744000000001,4242.692,4217.564,4213.718,4197.564,0,0
278,18,0,0,4177.9490000000005,4226.923,4200.385,4188.333,4215.255999999999,4231.282,4214.615,4215.128,4166.154,4190.128,4222.564,4211.154,4215.513,4197.0509999999995,0,0
279,19,0,0,4174.231,4221.795,4192.436,4186.282,4233.59,4233.462,4214.359,4201.282,4175.641,4203.205,4219.231,4204.872,4213.205,4185.255999999999,0,0
280,20,0,0,4174.487,4219.744000000001,4196.154,4194.103,4221.795,4225.897,4206.538,4195.385,4176.154,4203.333,4220.897,4207.308,4206.154,4180.255999999999,0,0
281,21,0,0,4180.897,4214.103,4213.718,4202.564,4215.897,4214.872,4208.333,4212.0509999999995,4178.205,4208.333,4229.744000000001,4221.667,4204.359,4196.41,0,0
282,22,0,0,4187.9490000000005,4203.077,4221.667,4203.333,4237.436,4215.769,4213.077,4211.41,4168.718,4221.538,4236.41,4229.359,4205.128,4206.795,0,0
283,23,0,0,4176.923,4179.615,4201.923,4187.0509999999995,4237.0509999999995,4225.769,4199.615,4191.282,4143.59,4220.128,4210.641,4210.769,4193.077,4190.897,0,0
284,24,0,0,4167.436,4161.41,4188.462,4176.282,4222.9490000000005,4231.026,4190.255999999999,4187.692,4143.718,4213.077,4181.667,4190.385,4184.744000000001,4180.641,0,0
285,25,0,0,4194.103,4169.359,4215.385,4200.0,4222.436,4244.231,4220.385,4221.667,4178.205,4241.795,4202.9490000000005,4208.974,4214.359,4205.385,0,0
286,26,0,0,4217.0509999999995,4176.026,4241.667,4225.0,4239.615,4253.077,4247.308,4249.872,4195.641,4289.615,4242.0509999999995,4239.359,4245.641,4233.205,0,0
287,27,0,0,4204.359,4161.282,4230.769,4219.103,4263.333,4240.641,4232.692,4239.872,4184.872,4306.538,4244.615,4240.641,4238.974,4229.744000000001,0,0
288,28,0,0,4194.744000000001,4143.462,4221.667,4213.462,4259.487,4234.487,4217.9490000000005,4230.641,4189.744000000001,4304.744000000001,4233.718,4235.641,4228.205,4216.282,0,0
289,29,0,0,4203.462,4129.615,4232.308,4220.769,4236.026,4246.667,4226.795,4238.077,4195.769,4307.179,4233.462,4237.9490000000005,4230.0,4217.436,0,0
290,30,0,0,4204.487,4120.385,4232.9490000000005,4222.0509999999995,4229.487,4251.923,4231.795,4235.128,4175.0,4304.744000000001,4233.205,4236.154,4220.128,4221.282,0,0
291,31,0,0,4201.154,4129.487,4230.769,4226.667,4232.9490000000005,4249.359,4231.923,4232.821,4173.077,4307.821,4241.282,4240.128,4215.641,4222.9490000000005,0,0
292,32,0,0,4203.718,4137.9490000000005,4233.205,4229.103,4235.769,4243.846,4230.0,4242.179,4188.077,4317.0509999999995,4238.077,4239.359,4224.487,4223.846,0,0
293,33,0,0,4198.333,4124.615,4226.667,4220.769,4241.667,4232.564,4223.077,4237.821,4174.744000000001,4311.538,4219.359,4220.769,4221.154,4215.897,0,0
294,34,0,0,4199.231,4121.154,4231.667,4230.513,4234.359,4237.436,4231.026,4234.231,4158.462,4298.718,4217.308,4220.128,4218.077,4214.872,0,0
295,35,0,0,4209.487,4136.795,4241.154,4253.974,4229.231,4248.974,4239.744000000001,4244.487,4166.154,4294.231,4223.333,4231.923,4228.718,4221.923,0,0
296,36,0,0,4221.154,4146.41,4242.179,4248.59,4235.641,4247.0509999999995,4232.692,4248.333,4178.333,4294.872,4224.231,4232.821,4234.872,4225.897,0,0
297,37,0,0,4216.923,4147.692,4234.103,4229.103,4231.154,4249.359,4222.308,4233.59,4174.744000000001,4291.538,4221.026,4224.487,4229.615,4218.205,0,0
298,38,0,0,4204.744000000001,4150.769,4223.59,4235.255999999999,4228.077,4250.641,4215.128,4212.692,4148.846,4285.0,4213.462,4215.769,4220.128,4207.564,0,0
299,39,0,0,4200.128,4153.846,4212.564,4237.0509999999995,4229.103,4230.897,4207.9490000000005,4207.692,4132.0509999999995,4277.0509999999995,4211.41,4214.359,4211.282,4204.359,0,0
300,40,0,0,4208.974,4159.744000000001,4215.513,4222.179,4229.872,4221.154,4210.385,4222.9490000000005,4165.897,4270.513,4224.103,4227.564,4212.564,4213.974,0,0
301,41,0,0,4220.769,4172.564,4233.077,4230.128,4235.128,4240.641,4225.385,4240.0,4207.0509999999995,4272.0509999999995,4236.41,4236.923,4230.128,4226.41,0,0
302,42,0,0,4230.897,4195.769,4245.641,4264.231,4233.59,4262.308,4239.487,4244.359,4208.333,4281.026,4244.744000000001,4234.744000000001,4246.795,4228.462,0,0
303,43,0,0,4238.462,4218.462,4249.872,4264.359,4238.077,4267.9490000000005,4253.974,4247.308,4205.128,4284.359,4252.308,4241.154,4255.513,4233.333,0,0
304,44,0,0,4241.667,4216.667,4247.308,4233.974,4248.59,4252.0509999999995,4245.385,4234.487,4191.282,4274.487,4239.103,4242.821,4245.513,4234.103,0,0
305,45,0,0,4245.255999999999,4219.615,4248.846,4243.718,4248.205,4234.615,4214.872,4213.462,4161.026,4250.769,4223.077,4233.462,4226.538,4224.359,0,0
306,46,0,0,4252.179,4247.564,4257.179,4277.821,4251.538,4242.9490000000005,4216.538,4222.179,4165.255999999999,4231.667,4231.795,4240.128,4223.718,4226.282,0,0
307,47,0,0,4255.513,4258.462,4263.077,4267.179,4243.718,4265.128,4243.333,4237.436,4186.795,4226.41,4241.282,4254.744000000001,4224.231,4239.872,0,0
308,48,0,0,4258.077,4246.538,4268.333,4238.59,4213.718,4267.9490000000005,4242.179,4232.9490000000005,4181.41,4223.846,4238.974,4256.41,4216.795,4245.897,0,0
309,49,0,0,4268.59,4246.538,4276.795,4258.462,4214.872,4249.744000000001,4230.769,4237.9490000000005,4178.462,4222.308,4247.308,4258.846,4214.744000000001,4249.103,0,0
310,50,0,0,4281.282,4256.667,4286.026,4274.615,4254.487,4243.974,4250.769,4260.128,4207.179,4236.538,4263.718,4273.077,4230.0,4262.564,0,0
311,51,0,0,4281.795,4265.385,4286.667,4245.385,4259.231,4259.359,4266.154,4263.333,4223.846,4251.923,4266.667,4280.513,4243.846,4269.744000000001,0,0
312,52,0,0,4273.846,4276.795,4284.615,4248.205,4236.41,4263.846,4251.923,4258.846,4215.897,4248.077,4264.359,4271.923,4245.769,4263.205,0,0
313,53,0,0,4277.564,4282.308,4292.179,4291.282,4234.231,4258.333,4251.795,4279.359,4219.231,4238.077,4265.128,4271.282,4247.564,4262.9490000000005,0,0
314,54,0,0,4269.231,4282.564,4279.359,4291.282,4231.154,4263.333,4265.128,4285.641,4223.846,4222.436,4253.718,4270.128,4241.026,4257.0509999999995,0,0
315,55,0,0,4249.231,4276.667,4259.615,4243.462,4220.255999999999,4259.615,4257.821,4261.538,4214.487,4200.0,4241.667,4256.923,4223.077,4241.282,0,0
316,56,0,0,4245.641,4268.077,4265.641,4217.436,4237.0509999999995,4241.795,4237.308,4239.103,4206.282,4191.026,4246.154,4248.846,4213.077,4237.564,0,0
317,57,0,0,4255.385,4290.769,4274.359,4244.103,4256.282,4243.205,4238.205,4234.231,4209.487,4177.564,4252.821,4257.564,4219.103,4249.615,0,0
318,58,0,0,4251.026,4308.205,4263.718,4278.462,4219.744000000001,4262.821,4252.179,4237.821,4211.667,4163.333,4255.255999999999,4263.59,4217.9490000000005,4250.641,0,0
319,59,0,0,4249.487,4290.641,4273.718,4239.487,4174.744000000001,4267.9490000000005,4255.513,4242.179,4207.308,4177.821,4270.0,4263.718,4212.821,4247.0509999999995,0,0
320,60,0,0,4263.462,4309.359,4298.59,4224.744000000001,4212.821,4259.103,4254.872,4254.487,4218.205,4166.026,4300.128,4279.231,4224.103,4261.026,0,0
321,61,0,0,4250.641,4382.692,4265.385,4283.077,4262.436,4246.41,4250.128,4256.538,4224.103,4121.923,4279.872,4273.462,4230.0,4253.974,0,0
322,62,0,0,4228.077,4427.692,4228.846,4257.436,4242.308,4243.205,4239.615,4234.872,4202.564,4151.154,4232.308,4244.359,4218.333,4229.359,0,0
323,63,0,0,4245.255999999999,4451.026,4266.795,4196.026,4219.615,4263.974,4238.846,4230.769,4202.564,4192.9490000000005,4257.179,4252.821,4210.128,4242.0509999999995,0,0
324,64,0,3236,4251.41,4521.923,4279.615,4206.026,4236.538,4261.923,4233.59,4244.487,4226.667,4170.769,4268.718,4264.487,4217.9490000000005,4251.154,0,0
325,65,0,3387,4215.0,4648.718,4214.744000000001,4221.154,4226.282,4230.897,4214.872,4230.513,4223.205,4202.564,4206.795,4232.0509999999995,4229.231,4218.59,0,0
326,66,0,2828,4221.667,4735.513,4212.179,4239.103,4200.128,4232.0509999999995,4218.462,4217.564,4211.795,4289.231,4199.615,4228.718,4235.0,4219.872,0,0
327,67,0,3570,4250.897,4735.128,4257.436,4278.205,4240.385,4255.513,4231.923,4229.744000000001,4215.128,4297.308,4248.077,4260.385,4232.436,4251.667,0,0
328,68,0,3611,4241.667,4747.0509999999995,4251.923,4251.538,4256.154,4255.897,4228.846,4230.0,4215.255999999999,4278.077,4246.667,4264.487,4229.359,4253.718,0,0
329,69,0,3419,4239.359,4772.692,4250.385,4227.9490000000005,4194.231,4242.564,4231.667,4232.308,4224.744000000001,4309.359,4234.872,4264.744000000001,4240.769,4252.436,0,0
330,70,0,3404,4256.154,4746.538,4267.0509999999995,4285.0,4186.795,4238.718,4243.974,4260.255999999999,4240.385,4329.487,4252.308,4276.026,4252.9490000000005,4265.255999999999,0,0
331,71,0,3452,4247.821,4757.308,4256.026,4299.103,4238.205,4243.974,4240.641,4266.026,4236.026,4323.333,4256.795,4269.872,4247.692,4265.641,0,0
332,72,0,3485,4242.564,4808.333,4250.0,4286.795,4248.462,4255.641,4233.718,4237.179,4229.103,4318.462,4258.846,4266.41,4237.179,4264.744000000001,0,0
333,73,0,3581,4239.103,4792.436,4243.333,4299.615,4244.103,4247.179,4228.718,4212.564,4221.41,4312.692,4241.282,4255.0,4233.205,4254.103,0,0
334,74,0,3497,4226.667,4757.821,4222.692,4286.795,4247.692,4230.897,4220.385,4207.436,4209.359,4308.333,4218.974,4235.897,4231.154,4237.692,0,0
335,75,0,3336,4234.103,4770.641,4234.103,4269.487,4223.077,4237.308,4224.103,4217.9490000000005,4213.59,4308.718,4234.487,4246.795,4229.487,4250.897,0,0
336,76,0,3068,4258.846,4771.795,4256.026,4294.744000000001,4229.359,4251.154,4234.615,4234.487,4233.846,4318.59,4255.385,4267.9490000000005,4231.667,4277.436,0,0
337,77,0,3281,4287.564,4771.795,4265.513,4329.103,4273.59,4264.872,4240.897,4244.103,4252.436,4333.718,4277.0509999999995,4283.59,4239.744000000001,4301.667,0,0
338,78,0,3497,4309.487,4791.538,4281.795,4332.308,4297.692,4250.385,4233.333,4235.0,4239.359,4342.0509999999995,4297.436,4298.718,4247.179,4321.923,0,0
339,79,0,3336,4313.974,4800.513,4287.692,4341.41,4297.564,4237.692,4237.179,4270.385,4244.615,4354.359,4293.718,4300.769,4249.615,4331.667,0,0
340,80,0,3068,4318.205,4788.462,4284.872,4355.128,4269.359,4266.282,4259.487,4316.538,4292.821,4363.077,4289.103,4301.282,4254.615,4339.744000000001,0,0
341,81,0,3281,4315.769,4746.795,4280.128,4328.462,4261.41,4256.154,4241.538,4247.179,4269.615,4318.077,4296.795,4302.0509999999995,4243.077,4334.487,0,0
342,82,0,3497,4294.487,4704.744000000001,4266.795,4291.41,4293.333,4215.255999999999,4212.564,4177.308,4206.41,4277.564,4295.385,4284.487,4221.923,4308.846,0,0
343,83,0,3336,4294.487,4707.179,4268.846,4300.385,4293.205,4243.974,4240.0,4248.846,4255.513,4325.0,4289.487,4282.0509999999995,4245.255999999999,4308.205,0,0
344,84,0,3068,4299.615,4701.026,4271.667,4309.231,4267.692,4281.538,4254.615,4284.487,4314.231,4356.41,4290.641,4290.769,4272.308,4317.821,0,0
345,85,0,3281,4272.0509999999995,4651.282,4252.436,4280.128,4281.795,4251.026,4215.641,4202.0509999999995,4248.462,4293.974,4278.59,4273.59,4240.385,4290.128,0,0
346,86,0,3497,4242.9490000000005,4613.59,4234.615,4254.103,4287.436,4231.026,4203.59,4184.103,4210.513,4269.231,4257.308,4253.077,4221.538,4257.692,0,0
347,87,0,3336,4245.769,4608.205,4236.923,4251.026,4264.744000000001,4250.769,4227.821,4234.359,4268.077,4304.615,4267.0509999999995,4259.872,4249.872,4265.255999999999,0,0
348,88,0,3068,4252.564,4592.9490000000005,4239.359,4250.0,4268.59,4252.436,4233.59,4237.436,4276.282,4300.0,4291.026,4270.897,4248.333,4281.282,0,0
349,89,0,3281,4245.897,4549.103,4235.897,4237.436,4282.692,4237.564,4220.255999999999,4221.41,4238.846,4286.923,4276.538,4262.821,4228.205,4270.769,0,0
350,90,0,3497,4231.667,4506.282,4228.974,4215.769,4280.897,4232.308,4211.538,4229.615,4251.923,4299.359,4241.026,4246.282,4242.692,4248.59,0,0
351,91,0,3336,4223.205,4484.872,4224.872,4203.333,4270.641,4246.026,4216.026,4237.692,4271.282,4297.179,4241.538,4240.385,4246.41,4244.744000000001,0,0
352,92,0,3068,4224.103,4471.154,4224.103,4203.718,4258.333,4252.9490000000005,4216.795,4224.103,4246.538,4286.538,4253.59,4241.538,4229.359,4252.0509999999995,0,0
353,93,0,3281,4222.0509999999995,4441.923,4218.077,4195.385,4259.744000000001,4235.385,4211.667,4222.821,4236.41,4295.513,4235.897,4237.821,4232.308,4244.359,0,0
354,94,0,3497,4221.026,4418.205,4221.538,4197.179,4267.179,4234.359,4230.769,4253.974,4261.154,4309.103,4234.487,4245.0,4242.0509999999995,4246.026,0,0
355,95,0,3336,4219.872,4408.846,4231.41,4217.0509999999995,4250.897,4254.487,4248.718,4260.0,4262.564,4311.026,4255.641,4256.154,4237.0509999999995,4260.769,0,0
356,96,0,3068,4203.974,4384.487,4216.923,4218.077,4246.795,4248.077,4215.769,4215.385,4224.487,4305.641,4243.077,4239.359,4224.744000000001,4243.205,0,0
357,97,0,3281,4196.026,4354.615,4208.462,4211.923,4275.0,4236.154,4195.255999999999,4202.692,4217.0509999999995,4314.872,4225.255999999999,4229.231,4228.718,4229.103,0,0
358,98,0,3497,4225.128,4332.692,4243.59,4235.255999999999,4292.308,4252.179,4242.692,4246.538,4263.718,4338.718,4251.923,4262.9490000000005,4259.359,4266.282,0,0
359,99,0,3336,4239.231,4313.205,4259.487,4260.641,4277.179,4253.718,4270.255999999999,4265.255999999999,4276.667,4332.9490000000005,4271.538,4280.255999999999,4271.538,4285.255999999999,0,0
360,100,0,3068,4215.897,4305.513,4229.231,4256.538,4253.846,4232.0509999999995,4238.846,4246.923,4233.718,4313.077,4248.974,4251.154,4242.308,4255.897,0,0
361,101,0,3281,4205.385,4286.41,4214.359,4239.872,4232.692,4240.769,4223.846,4241.282,4220.385,4308.205,4236.795,4235.128,4226.282,4242.821,0,0
362,102,0,3497,4210.513,4238.077,4224.872,4232.436,4236.923,4257.308,4238.462,4245.641,4246.026,4302.9490000000005,4244.615,4242.564,4235.641,4248.846,0,0
363,103,0,3336,4202.179,4208.205,4227.179,4243.462,4233.846,4244.615,4236.923,4248.59,4252.308,4300.641,4245.769,4239.487,4234.359,4243.077,0,0
364,104,0,3068,4199.744000000001,4201.154,4227.0509999999995,4252.0509999999995,4176.026,4229.872,4223.077,4247.821,4234.615,4292.0509999999995,4247.9490000000005,4235.255999999999,4231.41,4240.255999999999,0,0
365,105,0,3281,4196.282,4185.255999999999,4208.462,4240.641,4216.923,4229.103,4211.282,4238.59,4236.923,4266.154,4246.538,4227.179,4233.846,4233.59,0,0
366,106,0,3497,4190.513,4166.795,4201.667,4226.282,4309.103,4236.795,4212.0509999999995,4232.9490000000005,4250.641,4275.641,4240.641,4222.564,4231.026,4230.513,0,0
367,107,0,3336,4190.769,4155.0,4214.744000000001,4224.103,4271.154,4223.462,4214.103,4228.974,4235.513,4321.667,4223.974,4223.974,4227.179,4234.615,0,0
368,108,0,3068,4190.255999999999,4158.718,4205.255999999999,4239.744000000001,4237.0509999999995,4201.667,4201.538,4220.385,4225.897,4298.846,4219.872,4219.615,4233.205,4231.667,0,0
369,109,0,3281,4184.487,4148.205,4193.974,4241.026,4248.462,4208.333,4195.897,4214.744000000001,4233.59,4227.436,4236.795,4214.615,4228.718,4225.769,0,0
370,110,0,3497,4170.385,4121.667,4188.846,4209.487,4170.255999999999,4218.205,4185.128,4195.641,4200.769,4219.744000000001,4218.846,4199.487,4190.769,4210.897,0,0
371,111,0,3336,4154.231,4088.077,4168.846,4184.487,4143.846,4206.026,4145.641,4161.282,4172.9490000000005,4239.872,4174.231,4174.359,4169.872,4188.462,0,0
372,112,0,3068,4175.769,4089.2309999999998,4183.718,4210.897,4278.205,4205.641,4154.359,4182.564,4230.641,4245.897,4191.923,4193.974,4217.564,4205.0,0,0
373,113,0,3281,4218.974,4160.513,4236.154,4258.59,4338.974,4232.692,4248.718,4267.436,4296.154,4283.462,4250.897,4251.795,4275.128,4255.641,0,0
374,114,0,3497,4214.359,4203.718,4236.923,4259.359,4263.974,4236.41,4278.462,4283.077,4283.333,4297.179,4258.462,4254.231,4271.667,4262.9490000000005,0,0
375,115,0,3336,4188.333,4160.897,4216.538,4212.564,4184.615,4211.154,4194.744000000001,4208.718,4248.333,4237.436,4228.462,4219.744000000001,4241.795,4236.923,0,0
376,116,0,3068,4184.487,4129.744000000001,4214.872,4203.974,4170.769,4194.872,4142.9490000000005,4166.282,4228.718,4202.692,4211.154,4214.744000000001,4229.487,4229.487,0,0
377,117,0,3281,4181.538,4161.282,4195.897,4246.154,4249.359,4199.103,4162.0509999999995,4174.744000000001,4202.692,4218.077,4208.205,4216.667,4218.462,4225.897,0,0
378,118,0,3497,4170.769,4165.641,4185.385,4244.231,4275.769,4201.282,4169.615,4170.897,4188.333,4197.821,4212.564,4205.385,4203.846,4214.744000000001,0,0
379,119,0,3336,4184.103,4132.821,4213.077,4216.026,4189.231,4200.513,4168.718,4169.487,4195.897,4171.41,4218.718,4214.744000000001,4205.641,4224.744000000001,0,0
380,120,0,3068,4198.974,4129.359,4228.205,4227.0509999999995,4178.846,4201.154,4183.462,4188.974,4208.974,4182.308,4211.923,4229.872,4218.718,4240.641,0,0
381,121,0,3281,4177.564,4139.487,4201.667,4224.615,4238.333,4178.333,4173.205,4180.641,4211.154,4173.205,4187.9490000000005,4208.333,4208.077,4218.974,0,0
382,122,0,3497,4159.615,4139.103,4190.769,4191.154,4214.615,4178.462,4164.359,4165.385,4210.128,4145.897,4184.231,4192.692,4189.487,4202.179,0,0
383,123,0,3336,4175.513,4123.718,4208.59,4194.359,4175.0,4188.077,4174.615,4175.255999999999,4193.205,4148.974,4197.9490000000005,4210.769,4195.641,4215.641,0,0
384,124,0,3068,4184.615,4124.872,4206.154,4223.974,4194.103,4168.846,4171.026,4181.923,4174.615,4157.564,4195.641,4216.538,4203.718,4215.897,0,0
385,125,0,3281,4174.615,4142.0509999999995,4187.564,4222.564,4205.769,4181.923,4164.872,4185.255999999999,4198.205,4150.897,4191.154,4202.9490000000005,4200.128,4206.41,0,0
386,126,0,3497,4185.255999999999,4149.103,4209.872,4214.872,4217.179,4216.026,4182.692,4201.795,4220.513,4159.103,4214.359,4219.744000000001,4205.769,4228.077,0,0
387,127,0,55,4205.641,4151.795,4241.154,4225.0,4242.436,4223.59,4208.846,4213.718,4193.718,4172.9490000000005,4231.154,4248.077,4217.821,4251.795,0,0
388,0,0,3216,4202.9490000000005,4155.897,4227.179,4233.462,4245.769,4192.821,4208.205,4207.821,4190.0,4167.692,4209.872,4236.154,4217.821,4236.41,0,0
389,1,0,3349,4195.897,4165.385,4209.744000000001,4233.59,4240.897,4161.923,4191.026,4207.564,4235.897,4167.308,4201.026,4218.718,4215.385,4222.821,0,0
390,2,0,2810,4201.154,4175.641,4215.0,4235.255999999999,4232.179,4172.436,4189.487,4207.821,4227.821,4166.026,4226.282,4231.154,4217.179,4236.154,0,0
391,3,0,3569,4201.154,4173.718,4207.821,4226.667,4217.0509999999995,4186.41,4178.205,4188.077,4174.744000000001,4155.769,4225.255999999999,4228.974,4213.59,4235.513,0,0
392,4,0,3582,4206.667,4168.718,4209.359,4208.333,4228.59,4183.462,4162.436,4188.205,4195.513,4160.769,4203.846,4218.846,4211.923,4230.385,0,0
393,5,0,3426,4218.59,4166.41,4229.872,4214.231,4248.846,4216.667,4200.513,4219.744000000001,4240.385,4171.41,4216.026,4235.0,4218.205,4242.0509999999995,0,0
394,6,0,3381,4215.897,4157.821,4225.769,4234.615,4243.974,4272.0509999999995,4244.103,4217.9490000000005,4220.641,4175.128,4217.9490000000005,4234.615,4216.667,4238.846,0,0
395,7,0,3426,4205.769,4155.897,4209.231,4238.462,4254.103,4219.103,4211.923,4211.026,4191.282,4186.923,4187.564,4210.641,4203.846,4224.359,0,0
396,8,0,3482,4217.436,4160.769,4222.179,4230.513,4265.255999999999,4141.154,4168.077,4234.487,4189.231,4196.667,4195.513,4219.615,4198.974,4236.41,0,0
397,9,0,3539,4226.538,4156.667,4228.718,4225.0,4243.718,4186.282,4177.179,4216.667,4192.564,4200.0,4211.282,4232.692,4214.744000000001,4245.641,0,0
398,10,0,3477,4220.641,4149.615,4219.872,4235.385,4224.615,4218.077,4193.846,4177.821,4198.462,4212.0509999999995,4191.538,4223.462,4228.462,4236.41,0,0
399,11,0,3306,4214.231,4141.538,4218.846,4243.59,4239.487,4178.333,4198.333,4194.103,4210.641,4227.179,4187.308,4220.0,4223.846,4235.513,0,0
400,12,1,2939,4217.436,4137.821,4218.846,4242.436,4236.026,4182.0509999999995,4204.359,4199.744000000001,4212.179,4230.128,4188.974,4221.026,4223.974,4237.821,0,0
401,13,1,2572,4220.641,4134.103,4218.846,4241.282,4232.564,4185.769,4210.385,4205.385,4213.718,4233.077,4190.641,4222.0509999999995,4224.103,4240.128,0,0
402,14,1,2205,4223.846,4130.385,4218.846,4240.128,4229.103,4189.487,4216.41,4211.026,4215.255999999999,4236.026,4192.308,4223.077,4224.231,4242.436,0,0
403,15,1,1838,4227.0509999999995,4126.667,4218.846,4238.974,4225.641,4193.205,4222.436,4216.667,4216.795,4238.974,4193.974,4224.103,4224.359,4244.744000000001,0,0
404,16,1,1471,4230.255999999999,4122.9490000000005,4218.846,4237.821,4222.179,4196.923,4228.462,4222.308,4218.333,4241.923,4195.641,4225.128,4224.487,4247.0509999999995,0,0
405,17,1,1104,4233.462,4119.231,4218.846,4236.667,4218.718,4200.641,4234.487,4227.9490000000005,4219.872,4244.872,4197.308,4226.154,4224.615,4249.359,0,0
406,18,1,737,4236.667,4115.513,4218.846,4235.513,4215.255999999999,4204.359,4240.513,4233.59,4221.41,4247.821,4198.974,4227.179,4224.744000000001,4251.667,0,0
407,19,1,370,4239.872,4111.795,4218.846,4234.359,4211.795,4208.077,4246.538,4239.231,4222.9490000000005,4250.769,4200.641,4228.205,4224.872,4253.974,0,0
408,20,0,0,4243.462,4107.564,4219.487,4232.308,4208.077,4212.179,4252.821,4245.128,4225.255999999999,4253.846,4203.205,4229.487,4226.026,4256.923,0,0
409,21,0,0,4224.615,4099.231,4206.41,4218.462,4226.667,4177.179,4185.128,4187.692,4194.231,4238.462,4188.718,4218.462,4209.231,4242.821,0,0
410,22,0,0,4217.179,4086.41,4199.615,4228.205,4232.821,4149.744000000001,4159.359,4151.923,4149.615,4228.205,4184.615,4212.821,4200.0,4235.897,0,0
411,23,0,0,4230.385,4091.1540000000005,4202.308,4234.103,4176.026,4211.538,4196.923,4177.0509999999995,4178.974,4222.308,4190.897,4217.564,4200.385,4243.077,0,0
412,24,0,0,4220.513,4082.308,4200.255999999999,4208.462,4165.641,4248.59,4206.795,4192.9490000000005,4226.154,4210.513,4180.897,4214.744000000001,4188.077,4232.821,0,0
413,25,0,0,4211.026,4070.256,4208.205,4202.0509999999995,4240.769,4198.205,4187.436,4184.615,4187.9490000000005,4221.41,4183.59,4222.0509999999995,4183.59,4226.026,0,0
414,26,0,0,4227.436,4076.282,4216.667,4232.821,4225.0,4186.282,4192.436,4182.436,4159.359,4239.487,4201.41,4233.718,4195.385,4238.974,0,0
415,27,0,0,4233.205,4095.0,4213.974,4262.0509999999995,4144.103,4224.487,4213.205,4196.154,4216.026,4229.231,4199.615,4230.769,4201.538,4241.795,0,0
416,28,0,0,4213.462,4107.821,4208.846,4245.513,4211.026,4238.718,4227.436,4215.769,4244.872,4224.103,4194.103,4230.255999999999,4210.641,4230.897,0,0
417,29,0,0,4208.718,4104.744000000001,4215.128,4219.615,4286.667,4229.872,4230.513,4221.282,4209.359,4246.154,4208.462,4240.255999999999,4223.462,4231.026,0,0
418,30,0,0,4222.436,4091.1540000000005,4231.667,4232.0509999999995,4194.231,4206.667,4216.795,4205.769,4201.538,4247.0509999999995,4218.718,4240.897,4215.897,4236.538,0,0
419,31,0,0,4221.154,4100.0,4223.718,4246.795,4144.359,4202.821,4204.359,4202.179,4232.564,4213.846,4205.128,4226.282,4198.077,4226.538,0,0
420,32,0,0,4205.641,4127.821,4200.385,4237.564,4229.231,4223.077,4201.795,4203.846,4213.59,4200.128,4193.718,4220.385,4191.795,4216.282,0,0
421,33,0,0,4195.128,4114.359,4197.821,4226.282,4248.974,4207.692,4192.436,4186.282,4174.615,4205.128,4194.103,4224.615,4192.692,4218.846,0,0
422,34,0,0,4200.641,4095.897,4213.205,4226.154,4198.462,4183.59,4179.359,4177.308,4187.692,4191.795,4201.282,4231.154,4193.205,4230.385,0,0
423,35,0,0,4198.333,4132.692,4214.103,4237.821,4204.487,4198.462,4200.897,4205.385,4216.026,4187.308,4210.641,4232.821,4199.103,4230.255999999999,0,0
424,36,0,0,4180.897,4162.692,4210.769,4230.128,4208.846,4222.821,4235.769,4236.282,4229.231,4205.513,4207.692,4229.231,4209.487,4215.128,0,0
425,37,0,0,4168.205,4135.897,4213.59,4195.769,4175.897,4237.0509999999995,4220.769,4222.692,4233.59,4201.795,4198.846,4225.769,4218.718,4206.026,0,0
426,38,0,0,4180.128,4118.974,4209.872,4220.128,4180.641,4213.974,4184.744000000001,4186.026,4220.769,4181.538,4202.564,4223.333,4216.667,4210.255999999999,0,0
427,39,0,0,4191.154,4145.0,4197.308,4260.641,4223.846,4167.821,4178.974,4179.487,4218.333,4171.795,4199.359,4211.41,4203.205,4208.974,0,0
428,40,0,0,4188.462,4145.641,4193.846,4219.744000000001,4229.615,4187.0509999999995,4190.255999999999,4200.897,4210.641,4180.128,4189.231,4208.59,4197.821,4208.846,0,0
429,41,0,0,4173.974,4116.923,4196.923,4185.0,4203.974,4200.641,4182.308,4196.667,4157.0509999999995,4188.462,4196.282,4215.769,4199.231,4210.255999999999,0,0
430,42,0,0,4151.41,4123.59,4193.846,4216.923,4220.897,4135.128,4167.692,4188.077,4155.385,4181.538,4208.462,4208.846,4199.487,4191.282,0,0
431,43,0,0,4143.974,4151.923,4196.154,4221.282,4231.795,4148.333,4196.41,4226.795,4244.615,4173.205,4200.255999999999,4202.308,4210.0,4172.692,0,0
432,44,0,0,4154.872,4133.59,4201.538,4195.385,4197.436,4256.026,4232.179,4240.897,4276.538,4176.667,4185.769,4208.205,4219.103,4184.872,0,0
433,45,0,0,4152.821,4087.051,4196.41,4199.872,4180.769,4242.692,4200.255999999999,4181.795,4181.41,4184.872,4190.897,4205.513,4213.718,4193.59,0,0
434,46,0,0,4131.923,4084.8720000000003,4192.308,4198.974,4190.255999999999,4157.0509999999995,4177.308,4174.487,4137.0509999999995,4181.41,4199.872,4200.641,4207.692,4175.513,0,0
435,47,0,0,4111.923,4118.077,4185.128,4187.436,4188.718,4176.154,4220.128,4248.974,4257.0509999999995,4157.179,4186.667,4200.641,4215.513,4154.231,0,0
436,48,0,0,4107.821,4067.4359999999997,4172.0509999999995,4189.103,4194.487,4188.846,4187.308,4220.769,4261.154,4132.0509999999995,4174.103,4191.282,4213.59,4147.692,0,0
437,49,0,0,4119.615,3959.2309999999998,4176.026,4191.154,4207.821,4131.795,4114.872,4131.026,4054.3590000000004,4185.385,4192.179,4192.308,4203.333,4163.846,0,0
438,50,0,0,4104.487,3976.1540000000005,4170.128,4175.769,4183.333,4142.9490000000005,4166.538,4190.128,4080.385,4220.513,4208.462,4192.692,4200.641,4171.41,0,0
439,51,0,0,4070.256,4072.692,4148.333,4156.538,4151.026,4211.41,4238.846,4264.103,4316.41,4128.205,4196.795,4178.59,4193.718,4156.795,0,0
440,52,0,0,4078.974,4083.462,4167.308,4175.385,4182.179,4188.333,4205.128,4188.718,4243.333,4121.667,4184.744000000001,4189.231,4209.744000000001,4164.872,0,0
441,53,0,0,4102.436,4038.8459999999995,4187.9490000000005,4191.41,4220.385,4138.462,4155.641,4125.897,4078.333,4219.231,4185.513,4202.308,4232.308,4180.897,0,0
442,54,0,0,4086.538,4042.051,4158.846,4162.692,4194.487,4192.9490000000005,4170.513,4164.872,4198.59,4221.667,4191.41,4180.513,4218.333,4169.103,0,0
443,55,0,0,4082.949,4076.1540000000005,4150.897,4154.231,4167.692,4251.41,4209.359,4198.077,4283.59,4170.255999999999,4185.255999999999,4174.359,4199.872,4164.615,0,0
444,56,0,0,4112.436,4107.436,4182.564,4193.59,4191.538,4211.923,4230.128,4203.077,4185.513,4189.615,4179.487,4200.641,4218.974,4183.974,0,0
445,57,0,0,4123.59,4111.795,4187.692,4208.59,4207.564,4165.255999999999,4210.385,4205.897,4163.974,4213.333,4182.692,4201.41,4233.718,4184.231,0,0
446,58,0,0,4124.615,4098.718,4178.462,4203.333,4199.744000000001,4189.231,4192.436,4204.231,4208.205,4211.41,4181.667,4192.821,4224.872,4182.564,0,0
447,59,0,0,4139.103,4119.744000000001,4192.436,4226.154,4198.077,4220.897,4222.692,4217.9490000000005,4198.846,4238.846,4185.513,4207.436,4231.795,4200.897,0,0
448,60,0,0,4144.744000000001,4131.923,4197.564,4237.0509999999995,4197.179,4220.385,4240.769,4224.231,4182.9490000000005,4244.231,4197.0509999999995,4212.9490000000005,4230.0,4198.462,0,0
449,61,0,0,4151.667,4124.615,4188.59,4230.641,4208.462,4209.231,4221.795,4211.667,4196.667,4215.513,4196.282,4201.923,4212.692,4182.0509999999995,0,0
450,62,0,0,4175.255999999999,4122.179,4192.821,4243.59,4220.0,4202.692,4208.333,4207.821,4211.282,4205.769,4179.615,4200.385,4220.128,4184.103,0,0
451,63,0,0,4186.667,4106.795,4201.795,4254.615,4210.0,4209.872,4237.436,4223.974,4203.974,4226.154,4181.538,4211.667,4235.255999999999,4193.974,0,0
452,64,0,3229,4175.0,4081.538,4199.744000000001,4247.692,4203.59,4219.359,4255.128,4236.667,4194.872,4236.795,4195.128,4215.128,4227.436,4192.564,0,0
453,65,0,3367,4160.128,4060.256,4185.255999999999,4243.205,4209.359,4219.103,4224.615,4216.41,4201.026,4209.103,4184.872,4199.615,4214.103,4176.026,0,0
454,66,0,2818,4164.103,4046.667,4191.282,4257.9490000000005,4198.974,4219.872,4229.615,4211.154,4205.128,4202.9490000000005,4173.974,4199.487,4215.513,4171.923,0,0
455,67,0,3578,4171.41,4041.538,4207.436,4264.615,4197.436,4220.128,4261.923,4248.974,4206.923,4223.333,4182.692,4215.641,4216.282,4184.103,0,0
456,68,0,3624,4176.795,4043.718,4211.154,4257.9490000000005,4208.333,4212.821,4248.718,4270.769,4217.0509999999995,4232.179,4195.128,4220.897,4219.744000000001,4192.821,0,0
457,69,0,3432,4187.179,4055.385,4206.154,4268.974,4216.026,4214.103,4210.769,4236.41,4230.641,4234.615,4201.282,4218.333,4231.795,4196.41,0,0
458,70,0,3398,4210.385,4083.8459999999995,4218.205,4292.308,4214.231,4221.538,4216.41,4207.179,4234.487,4248.333,4219.487,4234.615,4242.564,4217.9490000000005,0,0
459,71,0,3434,4233.333,4090.385,4243.205,4287.0509999999995,4188.846,4218.333,4236.282,4211.795,4217.821,4261.154,4234.744000000001,4246.923,4238.333,4239.872,0,0
460,72,0,3462,4237.436,4091.538,4233.333,4275.769,4205.0,4215.897,4228.077,4210.641,4205.769,4242.564,4228.718,4232.692,4214.872,4234.487,0,0
461,73,0,3584,4234.231,4150.128,4210.255999999999,4311.667,4258.077,4232.0509999999995,4238.077,4210.385,4228.974,4233.718,4233.718,4229.615,4211.154,4236.026,0,0
462,74,0,3486,4248.333,4195.0,4226.282,4326.282,4269.231,4232.9490000000005,4246.667,4222.308,4236.026,4249.103,4250.255999999999,4250.128,4228.077,4258.718,0,0
463,75,0,3320,4269.103,4172.9490000000005,4254.744000000001,4296.667,4246.538,4219.615,4236.154,4231.538,4208.077,4247.179,4254.872,4266.154,4223.205,4273.974,0,0
464,76,0,3050,4272.9490000000005,4169.744000000001,4255.641,4305.385,4230.897,4224.744000000001,4237.179,4228.077,4206.41,4241.154,4254.231,4262.9490000000005,4212.821,4270.769,0,0
465,77,0,3259,4263.333,4197.9490000000005,4257.564,4321.923,4218.846,4230.897,4249.872,4240.0,4252.0509999999995,4245.769,4259.103,4255.641,4227.9490000000005,4264.103,0,0
466,78,0,3486,4252.692,4178.718,4256.923,4296.154,4226.026,4215.641,4243.974,4252.9490000000005,4266.026,4240.128,4258.333,4251.154,4236.41,4258.718,0,0
467,79,0,3320,4239.231,4142.692,4230.385,4269.487,4269.487,4208.333,4232.564,4232.9490000000005,4223.846,4229.359,4242.179,4244.359,4223.846,4246.026,0,0
468,80,0,3050,4229.103,4151.795,4227.308,4273.077,4236.154,4227.564,4239.872,4227.436,4222.9490000000005,4236.538,4232.436,4241.41,4224.359,4233.974,0,0
469,81,0,3259,4222.179,4175.769,4242.179,4285.769,4169.744000000001,4237.308,4238.333,4241.026,4251.667,4235.128,4231.41,4238.846,4234.615,4226.667,0,0
470,82,0,3486,4204.487,4177.692,4220.769,4268.077,4186.795,4226.154,4241.154,4226.026,4233.718,4211.154,4221.41,4225.897,4223.462,4211.026,0,0
471,83,0,3320,4186.154,4155.385,4195.769,4225.513,4220.385,4193.462,4242.436,4205.128,4208.718,4184.487,4201.154,4208.974,4197.9490000000005,4190.385,0,0
472,84,0,3050,4180.0,4149.231,4199.231,4211.923,4226.795,4176.282,4213.205,4224.615,4226.026,4181.795,4198.205,4207.0509999999995,4199.103,4184.487,0,0
473,85,0,3259,4194.615,4186.282,4213.333,4235.897,4243.333,4214.872,4207.436,4238.462,4254.231,4204.487,4221.154,4227.436,4232.436,4201.795,0,0
474,86,0,3486,4205.255999999999,4218.974,4217.179,4240.897,4213.718,4256.538,4240.769,4229.359,4259.487,4215.385,4232.821,4238.462,4249.231,4215.641,0,0
475,87,0,3320,4194.744000000001,4223.462,4217.179,4231.795,4167.436,4238.333,4259.872,4262.564,4249.872,4206.538,4221.538,4229.744000000001,4238.205,4207.692,0,0
476,88,0,3050,4174.487,4228.974,4204.744000000001,4226.41,4218.846,4194.359,4238.077,4272.692,4241.026,4189.103,4206.154,4215.255999999999,4227.308,4186.667,0,0
477,89,0,3259,4177.821,4239.615,4201.538,4216.282,4257.179,4203.846,4224.359,4216.667,4253.205,4181.41,4206.795,4214.103,4234.359,4184.744000000001,0,0
478,90,0,3486,4187.0509999999995,4235.255999999999,4210.513,4209.872,4208.077,4225.513,4230.513,4190.641,4249.872,4174.744000000001,4212.179,4220.128,4229.487,4192.308,0,0
479,91,0,3320,4177.692,4227.9490000000005,4206.154,4210.897,4195.897,4209.103,4224.231,4212.564,4224.615,4158.59,4205.255999999999,4217.308,4206.026,4183.333,0,0
480,92,0,3050,4175.641,4236.282,4205.255999999999,4221.026,4214.872,4201.923,4222.179,4222.821,4232.308,4162.179,4204.103,4216.282,4205.255999999999,4183.462,0,0
481,93,0,3259,4182.308,4242.821,4211.923,4215.255999999999,4208.59,4220.897,4234.103,4224.103,4251.282,4178.974,4217.0509999999995,4222.179,4222.9490000000005,4195.513,0,0
482,94,0,3486,4175.897,4230.897,4203.846,4186.795,4213.462,4221.154,4235.0,4233.846,4244.359,4166.923,4215.641,4222.179,4221.795,4188.205,0,0
483,95,0,3320,4163.077,4215.513,4188.205,4181.282,4214.744000000001,4200.641,4221.282,4230.0,4228.846,4145.255999999999,4197.821,4212.692,4207.821,4170.128,0,0
484,96,0,3050,4162.692,4223.205,4188.333,4191.795,4207.564,4204.487,4219.103,4220.641,4232.692,4156.282,4193.59,4208.718,4211.41,4169.487,0,0
485,97,0,3259,4166.282,4235.641,4190.897,4185.513,4222.179,4220.255999999999,4225.897,4228.974,4250.255999999999,4159.487,4203.59,4211.41,4221.923,4179.872,0,0
486,98,0,3486,4167.308,4217.821,4189.872,4177.9490000000005,4216.026,4212.692,4221.026,4242.692,4247.564,4138.59,4205.641,4213.974,4215.0,4183.718,0,0
487,99,0,3320,4167.9490000000005,4193.718,4197.436,4179.744000000001,4200.385,4202.179,4212.692,4235.769,4231.923,4140.0,4201.923,4212.821,4206.538,4181.538,0,0
488,100,0,3050,4171.41,4198.077,4208.077,4178.974,4204.231,4209.744000000001,4226.795,4219.103,4231.795,4161.667,4208.974,4215.385,4212.308,4181.538,0,0
489,101,0,3259,4171.923,4207.821,4207.564,4184.615,4216.795,4215.0,4245.513,4233.846,4245.385,4160.128,4214.487,4224.359,4220.769,4184.615,0,0
490,102,0,3486,4168.077,4192.179,4198.333,4192.9490000000005,4227.179,4209.744000000001,4229.744000000001,4256.923,4257.692,4151.154,4198.333,4223.333,4215.385,4180.128,0,0
491,103,0,3320,4168.59,4173.462,4194.615,4192.692,4225.0,4211.41,4209.359,4239.231,4255.255999999999,4163.718,4194.359,4212.0509999999995,4206.026,4174.615,0,0
492,104,0,3050,4174.487,4165.897,4197.821,4192.564,4213.462,4217.179,4222.0509999999995,4211.41,4236.026,4157.308,4215.128,4213.846,4200.769,4182.179,0,0
493,105,0,3259,4177.308,4159.487,4203.077,4199.231,4220.128,4224.103,4244.359,4230.385,4240.641,4166.41,4211.923,4224.872,4208.974,4188.846,0,0
494,106,0,3486,4186.154,4154.744000000001,4213.718,4204.872,4245.641,4236.923,4248.846,4258.59,4251.026,4223.077,4187.9490000000005,4227.564,4226.923,4190.513,0,0
495,107,0,3320,4190.641,4142.9490000000005,4215.128,4204.359,4241.41,4234.615,4238.333,4242.179,4226.667,4242.821,4185.128,4221.538,4222.0509999999995,4190.641,0,0
496,108,0,3050,4176.923,4117.308,4195.641,4195.128,4212.9490000000005,4219.615,4221.282,4217.692,4222.308,4203.333,4187.821,4206.154,4197.692,4180.255999999999,0,0
497,109,0,3259,4172.179,4106.282,4192.9490000000005,4193.974,4218.205,4221.923,4222.179,4241.154,4264.103,4188.205,4193.333,4202.9490000000005,4198.462,4180.897,0,0
498,110,0,3486,4182.9490000000005,4110.0,4209.615,4202.564,4243.718,4232.821,4238.333,4254.487,4274.487,4222.564,4204.744000000001,4217.0509999999995,4225.513,4197.564,0,0
499,111,0,3320,4187.692,4097.564,4211.923,4206.41,4242.436,4234.872,4240.128,4226.923,4250.0,4241.667,4205.0,4221.026,4233.974,4200.769,0,0
500,112,0,3050,4178.077,4076.667,4198.205,4201.026,4229.359,4223.974,4223.205,4207.436,4240.641,4233.718,4202.564,4205.897,4215.0,4187.821,0,0
501,113,0,3259,4175.255999999999,4060.7690000000002,4191.41,4192.821,4231.923,4216.282,4211.41,4203.333,4237.821,4218.333,4200.513,4196.154,4200.641,4183.077,0,0
502,114,0,3486,4176.026,4045.385,4191.538,4197.0509999999995,4232.308,4227.564,4217.308,4203.205,4235.897,4212.436,4184.744000000001,4195.513,4206.282,4181.282,0,0
503,115,0,3320,4173.846,4027.051,4192.692,4202.564,4223.974,4238.333,4224.359,4208.846,4241.923,4221.538,4175.641,4194.103,4211.538,4174.872,0,0
504,116,0,3050,4171.026,3993.718,4189.487,4189.615,4222.821,4228.59,4217.0509999999995,4212.692,4231.538,4221.923,4190.0,4193.974,4201.667,4173.59,0,0
505,117,0,3259,4179.103,3962.692,4191.026,4183.205,4233.718,4224.744000000001,4208.077,4211.154,4218.846,4216.282,4198.718,4200.0,4198.462,4180.255999999999,0,0
506,118,0,3486,4194.744000000001,3967.308,4206.282,4203.974,4236.282,4229.487,4212.179,4211.538,4222.308,4225.0,4196.538,4208.462,4207.692,4190.128,0,0
507,119,0,3320,4208.333,3985.7690000000002,4224.359,4223.718,4224.872,4217.0509999999995,4217.821,4222.9490000000005,4232.0509999999995,4248.846,4203.718,4218.333,4215.641,4200.641,0,0
508,120,0,3050,4209.231,3984.8720000000003,4224.359,4227.0509999999995,4231.282,4210.128,4214.872,4238.462,4249.231,4254.872,4215.641,4226.795,4224.487,4206.667,0,0
509,121,0,3259,4207.179,3989.487,4222.821,4242.9490000000005,4249.872,4219.872,4222.436,4247.692,4268.333,4242.179,4227.308,4233.205,4237.692,4213.077,0,0
510,122,0,3486,4205.769,3999.487,4224.615,4250.128,4252.308,4220.769,4228.718,4233.333,4260.128,4240.513,4221.667,4227.821,4237.308,4212.179,0,0
511,123,0,3320,4203.462,3992.051,4220.769,4231.923,4236.154,4225.641,4221.41,4216.667,4244.744000000001,4238.59,4199.744000000001,4215.769,4228.718,4201.923,0,0
512,124,0,3050,4204.103,3988.205,4224.231,4236.026,4210.255999999999,4241.923,4222.564,4220.385,4256.026,4236.538,4199.615,4215.897,4230.513,4205.0,0,0
513,125,0,3259,4203.974,3992.179,4222.179,4250.0,4202.564,4244.231,4220.255999999999,4223.333,4260.0,4242.0509999999995,4216.538,4220.255999999999,4229.872,4209.103,0,0
514,126,0,3486,4200.641,3979.2309999999998,4212.308,4226.282,4217.692,4224.359,4205.513,4216.795,4234.231,4238.205,4209.231,4216.154,4221.026,4199.103,0,0
515,127,0,55,4191.154,3950.0,4201.41,4199.487,4217.436,4213.462,4197.564,4203.333,4221.282,4219.744000000001,4180.128,4200.513,4208.205,4184.487,0,0
516,0,0,3245,4194.231,3951.282,4205.513,4232.436,4199.359,4219.744000000001,4203.077,4207.9490000000005,4233.462,4209.872,4183.077,4198.974,4199.615,4187.9490000000005,0,0
517,1,0,3405,4208.205,3982.4359999999997,4218.974,4259.872,4195.897,4194.487,4201.154,4223.718,4233.59,4223.718,4204.487,4211.667,4210.513,4199.487,0,0
518,2,0,2832,4213.718,3988.077,4225.897,4226.667,4202.0509999999995,4178.462,4199.615,4229.615,4231.923,4232.9490000000005,4203.718,4217.436,4222.0509999999995,4201.026,0,0
519,3,0,3593,4220.255999999999,3990.513,4238.077,4227.821,4206.538,4235.128,4225.897,4245.513,4265.769,4237.692,4204.359,4229.487,4228.846,4211.667,0,0
520,4,0,3636,4239.872,4023.077,4257.308,4284.615,4208.846,4277.308,4256.026,4260.0,4298.077,4257.179,4228.077,4252.692,4250.0,4237.692,0,0
521,5,0,3417,4248.846,4042.5640000000003,4263.205,4290.0,4202.308,4246.667,4256.41,4255.0,4296.538,4262.692,4240.385,4258.077,4263.462,4246.282,0,0
522,6,0,3390,4234.487,4041.41,4245.385,4248.333,4220.769,4230.513,4235.385,4234.744000000001,4261.667,4240.128,4222.9490000000005,4239.231,4238.077,4226.795,0,0
523,7,0,3445,4217.9490000000005,4055.513,4225.513,4239.615,4243.205,4236.282,4221.795,4224.744000000001,4226.154,4223.718,4206.026,4222.692,4214.103,4210.513,0,0
524,8,0,3474,4211.026,4070.385,4219.359,4246.538,4215.0,4217.564,4225.385,4240.385,4241.667,4211.538,4201.795,4219.744000000001,4219.359,4210.255999999999,0,0
525,9,0,3620,4202.0509999999995,4068.205,4214.487,4230.897,4180.641,4218.974,4230.128,4254.744000000001,4273.59,4190.897,4200.513,4215.255999999999,4219.615,4206.667,0,0
526,10,0,3495,4189.872,4071.026,4201.282,4203.974,4172.821,4220.769,4210.128,4223.205,4252.0509999999995,4174.744000000001,4192.436,4197.9490000000005,4204.103,4190.513,0,0
527,11,0,3334,4183.077,4096.026,4190.255999999999,4190.641,4173.846,4198.974,4190.385,4191.795,4232.436,4166.026,4188.462,4186.41,4201.026,4182.179,0,0
528,12,0,3050,4195.897,4139.744000000001,4207.9490000000005,4205.255999999999,4194.103,4202.0509999999995,4213.205,4246.795,4276.41,4181.282,4209.359,4203.718,4222.821,4205.0,0,0
529,13,0,3271,4222.821,4183.077,4241.41,4239.103,4223.974,4225.897,4245.385,4302.436,4300.769,4222.821,4248.333,4238.333,4256.282,4242.308,0,0
530,14,0,3495,4234.744000000001,4200.897,4250.128,4252.692,4224.487,4232.564,4251.667,4275.385,4278.718,4214.231,4261.795,4250.0,4269.487,4251.923,0,0
531,15,0,3334,4219.103,4196.538,4228.205,4226.795,4214.487,4226.154,4240.385,4230.128,4266.282,4175.128,4234.103,4227.692,4246.538,4228.718,0,0
532,16,0,0,4196.41,4182.9490000000005,4206.41,4196.41,4217.9490000000005,4227.308,4216.923,4216.41,4251.667,4159.231,4229.744000000001,4210.255999999999,4216.282,4211.154,0,0
533,17,0,0,4198.205,4172.9490000000005,4210.385,4191.923,4209.487,4234.359,4211.923,4221.923,4243.333,4125.255999999999,4239.487,4217.0509999999995,4206.282,4214.615,0,0
534,18,0,0,4197.692,4168.974,4201.538,4187.564,4188.846,4226.923,4214.487,4216.026,4256.923,4115.255999999999,4199.487,4195.641,4206.538,4195.897,0,0
535,19,0,0,4182.308,4164.231,4177.564,4163.333,4169.103,4205.513,4189.744000000001,4198.59,4251.667,4130.641,4177.308,4168.462,4192.692,4170.769,0,0
536,20,0,0,4192.436,4180.255999999999,4192.0509999999995,4172.0509999999995,4175.641,4211.026,4184.359,4206.538,4240.128,4125.128,4218.077,4199.872,4198.077,4197.308,0,0
537,21,0,0,4233.333,4211.795,4241.538,4221.154,4219.615,4239.231,4233.462,4254.615,4287.821,4168.462,4240.513,4243.59,4248.59,4243.846,0,0
538,22,0,0,4247.9490000000005,4222.436,4258.846,4238.333,4242.179,4233.846,4260.769,4276.667,4306.026,4270.385,4229.872,4241.026,4277.564,4247.179,0,0
539,23,0,0,4230.385,4197.9490000000005,4235.385,4214.231,4219.103,4210.769,4235.769,4241.795,4240.513,4283.846,4228.077,4224.615,4246.667,4229.615,0,0
540,24,0,0,4207.9490000000005,4151.026,4207.692,4188.333,4195.769,4213.333,4206.026,4210.769,4221.026,4203.462,4202.9490000000005,4207.436,4210.769,4209.744000000001,0,0
541,25,0,0,4202.692,4121.282,4200.897,4187.308,4196.154,4219.359,4200.385,4214.231,4262.436,4180.128,4180.255999999999,4191.667,4213.462,4192.692,0,0
542,26,0,0,4215.897,4125.385,4212.692,4196.41,4211.41,4218.974,4219.872,4238.333,4280.513,4218.718,4206.154,4199.872,4229.103,4204.487,0,0
543,27,0,0,4235.128,4139.872,4233.462,4223.846,4225.641,4235.897,4244.872,4257.821,4285.897,4257.564,4235.385,4226.282,4246.282,4234.103,0,0
544,28,0,0,4247.0509999999995,4140.128,4253.462,4245.513,4227.179,4251.154,4258.59,4276.667,4293.205,4274.487,4245.641,4245.897,4262.9490000000005,4250.385,0,0
545,29,0,0,4238.333,4117.564,4243.718,4213.846,4223.077,4246.923,4255.128,4283.974,4290.641,4261.538,4240.0,4237.821,4254.487,4242.179,0,0
546,30,0,0,4227.308,4088.718,4224.359,4198.333,4214.615,4247.821,4240.128,4245.128,4287.436,4239.615,4227.179,4218.59,4243.59,4228.077,0,0
547,31,0,0,4232.564,4091.795,4226.795,4229.744000000001,4213.462,4230.0,4222.0509999999995,4196.026,4260.128,4245.769,4231.282,4220.641,4252.0509999999995,4228.974,0,0
548,32,0,0,4244.615,4120.513,4233.077,4227.821,4226.41,4203.974,4217.821,4205.897,4244.872,4272.821,4236.667,4233.205,4254.231,4241.795,0,0
549,33,0,0,4243.462,4129.744000000001,4225.641,4191.795,4240.128,4223.59,4228.333,4242.564,4278.462,4252.692,4232.179,4231.026,4235.513,4247.436,0,0
550,34,0,0,4268.205,4150.641,4247.308,4220.641,4235.641,4253.846,4237.179,4252.308,4295.769,4243.718,4254.744000000001,4247.821,4246.795,4270.513,0,0
551,35,0,0,4316.154,4204.872,4289.872,4290.513,4223.462,4255.513,4249.487,4266.026,4301.795,4296.282,4289.359,4283.205,4285.897,4311.026,0,0
552,36,0,0,4316.795,4213.59,4281.923,4279.615,4238.333,4241.026,4262.308,4271.41,4305.897,4298.077,4275.255999999999,4275.385,4270.0,4304.615,0,0
553,37,0,0,4285.513,4181.026,4254.359,4237.564,4248.846,4231.41,4268.462,4251.41,4282.179,4247.0509999999995,4250.641,4250.513,4237.692,4276.667,0,0
554,38,0,0,4288.846,4190.641,4265.255999999999,4249.359,4229.615,4245.897,4253.205,4248.59,4282.436,4237.436,4263.333,4262.179,4248.59,4287.9490000000005,0,0
555,39,0,0,4289.872,4208.974,4263.077,4256.795,4218.718,4246.154,4213.205,4236.154,4297.564,4235.897,4263.333,4260.128,4242.179,4287.821,0,0
556,40,0,0,4262.564,4188.077,4232.692,4223.59,4217.564,4205.897,4189.231,4200.769,4253.462,4204.615,4233.333,4228.205,4204.487,4254.231,0,0
557,41,0,0,4253.846,4176.282,4235.385,4206.026,4203.333,4190.255999999999,4204.744000000001,4213.974,4231.026,4189.872,4221.41,4224.615,4198.077,4247.564,0,0
558,42,0,0,4301.923,4220.0,4293.077,4248.718,4215.513,4243.333,4256.667,4281.667,4311.795,4221.538,4275.385,4276.282,4252.692,4301.795,0,0
559,43,0,0,4351.538,4296.282,4337.9490000000005,4321.667,4242.821,4297.564,4311.538,4329.359,4380.897,4274.744000000001,4341.154,4328.205,4317.564,4358.59,0,0
560,44,0,0,4342.179,4330.128,4319.103,4355.128,4233.718,4296.667,4311.667,4310.255999999999,4353.974,4289.872,4321.923,4318.846,4316.282,4348.077,0,0
561,45,0,0,4311.667,4298.333,4289.744000000001,4298.59,4237.179,4264.103,4264.231,4249.359,4299.615,4232.9490000000005,4268.333,4280.513,4258.333,4302.692,0,0
562,46,0,0,4307.564,4281.41,4294.744000000001,4234.359,4264.872,4244.615,4241.026,4227.0509999999995,4292.0509999999995,4158.974,4277.0509999999995,4276.41,4230.769,4296.026,0,0
563,47,0,0,4306.41,4330.641,4289.231,4268.59,4262.821,4249.744000000001,4251.41,4249.744000000001,4298.846,4167.821,4286.154,4282.179,4242.436,4305.641,0,0
564,48,0,0,4287.179,4376.667,4257.308,4300.897,4226.538,4248.974,4249.359,4240.769,4264.872,4216.795,4251.026,4255.641,4229.359,4284.103,0,0
565,49,0,0,4282.179,4412.564,4256.026,4253.59,4212.179,4232.821,4232.9490000000005,4221.026,4252.9490000000005,4187.692,4236.282,4239.744000000001,4208.846,4268.205,0,0
566,50,0,0,4286.282,4501.538,4266.923,4215.385,4229.744000000001,4228.462,4224.615,4241.795,4288.846,4156.923,4242.436,4254.231,4220.0,4281.282,0,0
567,51,0,0,4300.385,4578.846,4272.9490000000005,4244.744000000001,4241.282,4236.795,4247.0509999999995,4264.231,4296.154,4221.026,4254.487,4273.846,4245.897,4304.615,0,0
568,52,0,0,4322.436,4600.0,4293.974,4262.179,4240.385,4248.333,4286.923,4270.255999999999,4288.718,4269.359,4278.59,4286.41,4261.538,4323.718,0,0
569,53,0,0,4319.487,4644.615,4298.077,4221.282,4226.667,4255.641,4289.359,4271.41,4308.205,4244.744000000001,4275.385,4285.0,4258.718,4321.923,0,0
570,54,0,0,4308.333,4709.359,4289.615,4232.179,4232.0509999999995,4258.462,4256.026,4265.255999999999,4320.255999999999,4243.462,4258.333,4279.487,4259.487,4311.026,0,0
571,55,0,0,4307.9490000000005,4715.641,4288.205,4265.0,4261.41,4261.795,4233.333,4259.615,4308.718,4255.897,4261.282,4277.436,4262.692,4306.923,0,0
572,56,0,0,4273.846,4688.077,4248.077,4204.103,4273.077,4243.462,4210.641,4230.897,4274.487,4221.923,4233.59,4248.077,4236.41,4274.487,0,0
573,57,0,0,4216.41,4661.923,4189.231,4131.154,4227.692,4208.462,4181.538,4178.974,4221.282,4169.359,4173.974,4195.513,4182.821,4213.077,0,0
574,58,0,0,4200.641,4636.538,4183.846,4140.0,4177.821,4195.769,4183.077,4165.769,4207.9490000000005,4148.205,4153.974,4174.487,4161.026,4186.795,0,0
575,59,0,0,4231.538,4652.692,4220.513,4179.231,4203.077,4219.744000000001,4219.615,4214.231,4260.128,4185.128,4188.974,4208.205,4207.9490000000005,4222.0509999999995,0,0
576,60,0,0,4262.179,4686.026,4250.0,4194.359,4267.436,4232.308,4250.897,4260.513,4298.59,4228.974,4232.436,4253.59,4263.59,4269.359,0,0
577,61,0,0,4262.179,4681.282,4252.9490000000005,4203.718,4285.385,4220.513,4249.744000000001,4257.821,4291.026,4226.538,4241.154,4258.077,4267.821,4272.692,0,0
578,62,0,0,4252.821,4656.667,4250.641,4207.692,4231.41,4246.154,4247.821,4244.744000000001,4292.564,4219.744000000001,4233.846,4243.718,4250.255999999999,4254.359,0,0
579,63,0,0,4252.9490000000005,4639.487,4250.128,4195.255999999999,4210.128,4275.128,4260.897,4252.308,4303.077,4231.282,4238.462,4242.692,4253.205,4248.974,0,0
580,64,0,3252,4239.487,4615.897,4224.872,4162.0509999999995,4246.026,4240.641,4231.538,4241.154,4277.9490000000005,4219.103,4216.538,4228.974,4250.385,4236.41,0,0
581,65,0,3378,4211.667,4586.667,4195.385,4136.923,4253.077,4209.231,4209.231,4220.0,4255.897,4181.41,4176.795,4199.872,4223.974,4208.077,0,0
582,66,0,2838,4211.026,4562.821,4206.026,4161.026,4230.255999999999,4234.744000000001,4251.282,4225.255999999999,4267.9490000000005,4149.872,4183.846,4200.769,4206.282,4201.667,0,0
583,67,0,3515,4204.744000000001,4525.641,4201.538,4153.974,4216.026,4232.0509999999995,4228.974,4209.359,4248.333,4132.821,4185.255999999999,4199.615,4191.667,4196.154,0,0
584,68,0,3612,4190.128,4488.205,4182.692,4114.487,4212.564,4187.692,4149.231,4188.718,4227.0509999999995,4145.641,4164.103,4184.103,4187.564,4184.231,0,0
585,69,0,3401,4215.513,4495.897,4213.974,4148.205,4222.436,4197.179,4175.641,4230.255999999999,4284.744000000001,4184.359,4204.103,4212.564,4222.179,4215.255999999999,0,0
586,70,0,3366,4238.846,4505.769,4238.974,4189.615,4243.718,4226.026,4233.718,4252.9490000000005,4290.897,4182.436,4239.487,4245.0,4240.641,4237.692,0,0
587,71,0,3438,4211.538,4458.59,4205.128,4155.769,4240.255999999999,4208.462,4198.333,4199.615,4207.821,4147.179,4189.359,4215.385,4208.59,4201.154,0,0
588,72,0,3467,4195.513,4423.974,4187.564,4134.103,4218.846,4190.255999999999,4177.0509999999995,4178.974,4217.179,4154.103,4158.59,4186.795,4195.897,4180.128,0,0
589,73,0,3651,4209.615,4431.282,4204.872,4155.0,4208.846,4203.077,4213.205,4221.41,4286.795,4183.846,4186.282,4200.769,4212.179,4197.821,0,0
590,74,0,3504,4201.795,4402.436,4197.0509999999995,4132.308,4201.026,4207.436,4206.154,4218.846,4256.795,4169.103,4178.846,4196.282,4193.974,4190.897,0,0
591,75,0,3328,4187.308,4346.154,4176.667,4102.179,4200.0,4199.231,4176.538,4174.487,4208.205,4134.872,4145.897,4172.821,4163.462,4167.9490000000005,0,0
592,76,0,3056,4193.462,4329.487,4176.538,4121.41,4213.974,4201.282,4182.9490000000005,4168.974,4230.385,4131.282,4148.205,4172.179,4166.923,4170.0,0,0
593,77,0,3265,4205.641,4349.487,4193.462,4137.308,4221.923,4201.282,4215.385,4206.538,4248.718,4158.205,4175.385,4197.0509999999995,4193.59,4194.103,0,0
594,78,0,3504,4217.179,4354.487,4209.359,4147.179,4217.692,4202.9490000000005,4221.923,4226.154,4249.359,4193.59,4195.255999999999,4214.487,4215.385,4213.205,0,0
595,79,0,3328,4219.231,4330.255999999999,4209.231,4153.974,4217.436,4211.538,4211.795,4218.59,4265.0,4186.41,4188.333,4207.692,4208.718,4203.718,0,0
596,80,0,3056,4206.795,4310.385,4198.846,4134.103,4211.026,4209.487,4218.077,4214.744000000001,4268.333,4161.923,4173.205,4196.026,4191.41,4187.821,0,0
597,81,0,3265,4200.769,4304.103,4196.923,4127.692,4185.255999999999,4201.282,4211.667,4209.231,4247.692,4165.255999999999,4175.897,4193.077,4187.308,4188.077,0,0
598,82,0,3504,4189.744000000001,4287.9490000000005,4186.538,4129.615,4172.0509999999995,4195.0,4195.385,4190.513,4231.282,4163.846,4165.897,4180.385,4181.795,4176.282,0,0
599,83,0,3328,4171.282,4255.641,4164.615,4095.897,4173.077,4186.026,4186.667,4173.974,4220.255999999999,4144.231,4134.744000000001,4157.436,4161.667,4152.564,0,0
600,84,0,3056,4187.821,4256.41,4182.0509999999995,4114.231,4186.538,4197.9490000000005,4193.846,4193.846,4228.462,4164.744000000001,4150.0,4172.436,4175.385,4171.795,0,0
601,85,0,3265,4231.667,4313.205,4226.282,4196.667,4224.103,4238.077,4221.41,4239.359,4280.769,4219.615,4203.59,4219.615,4228.59,4223.59,0,0
602,86,0,3504,4222.179,4340.769,4212.9490000000005,4180.0,4238.077,4238.333,4223.974,4237.308,4296.154,4219.231,4204.487,4216.795,4234.615,4220.0,0,0
603,87,0,3328,4192.179,4303.462,4185.513,4119.615,4218.205,4212.0509999999995,4202.821,4206.154,4252.0509999999995,4191.538,4181.41,4187.564,4201.923,4189.487,0,0
604,88,0,3056,4202.9490000000005,4291.154,4205.385,4154.487,4215.897,4212.9490000000005,4208.077,4219.872,4259.231,4202.564,4196.667,4199.487,4206.154,4200.513,0,0
605,89,0,3265,4212.692,4311.667,4216.154,4180.255999999999,4212.179,4202.436,4218.974,4236.026,4292.179,4205.513,4201.923,4211.795,4218.462,4210.128,0,0
606,90,0,3504,4197.436,4305.0,4195.128,4136.282,4188.205,4186.923,4197.0509999999995,4206.41,4263.333,4178.462,4178.59,4188.718,4200.255999999999,4190.255999999999,0,0
607,91,0,3328,4189.615,4301.026,4182.9490000000005,4138.205,4204.103,4201.667,4189.615,4194.487,4240.641,4177.436,4172.821,4180.255999999999,4190.769,4184.872,0,0
608,92,0,3056,4194.487,4321.923,4187.9490000000005,4177.821,4239.487,4217.9490000000005,4215.0,4211.923,4259.744000000001,4195.0,4185.255999999999,4199.359,4204.231,4197.179,0,0
609,93,0,3265,4184.872,4317.821,4184.359,4164.744000000001,4227.308,4206.538,4212.821,4195.641,4251.923,4181.795,4187.821,4199.103,4201.795,4190.128,0,0
610,94,0,3504,4170.641,4295.513,4174.615,4132.9490000000005,4211.923,4194.872,4184.744000000001,4170.641,4238.846,4161.538,4185.0,4183.333,4185.255999999999,4182.692,0,0
611,95,0,3328,4170.255999999999,4295.513,4175.128,4130.385,4217.9490000000005,4208.718,4183.974,4189.487,4257.692,4170.0,4186.538,4180.641,4185.897,4189.744000000001,0,0
612,96,0,3056,4177.9490000000005,4302.564,4184.615,4152.564,4212.0509999999995,4220.641,4205.385,4215.641,4271.795,4178.846,4187.692,4190.897,4204.487,4194.872,0,0
613,97,0,3265,4166.923,4290.513,4172.179,4163.205,4196.538,4203.718,4197.692,4203.077,4261.923,4158.59,4188.974,4187.564,4205.255999999999,4185.641,0,0
614,98,0,3504,4152.308,4275.897,4151.282,4141.667,4196.667,4182.564,4172.436,4182.179,4242.179,4150.897,4185.641,4169.103,4188.205,4170.641,0,0
615,99,0,3328,4161.282,4278.846,4162.564,4130.641,4211.538,4192.821,4179.744000000001,4183.59,4237.0509999999995,4170.385,4182.821,4166.026,4189.231,4172.179,0,0
616,100,0,3056,4174.744000000001,4273.462,4179.744000000001,4148.846,4207.179,4205.0,4197.564,4182.308,4237.821,4180.0,4172.821,4172.821,4188.077,4179.359,0,0
617,101,0,3265,4168.846,4253.846,4171.923,4151.538,4188.59,4199.744000000001,4192.821,4175.128,4228.974,4162.564,4162.821,4167.0509999999995,4169.487,4171.538,0,0
618,102,0,3504,4167.692,4246.026,4168.462,4138.974,4186.154,4198.59,4188.846,4187.436,4228.077,4137.179,4175.255999999999,4163.718,4164.615,4166.282,0,0
619,103,0,3328,4177.9490000000005,4247.436,4179.103,4148.718,4197.0509999999995,4197.436,4192.564,4198.333,4225.769,4135.128,4183.974,4170.128,4168.59,4176.667,0,0
620,104,0,3056,4186.154,4240.128,4186.282,4159.103,4205.255999999999,4196.538,4196.795,4182.564,4210.641,4155.128,4174.359,4174.872,4166.41,4187.0509999999995,0,0
621,105,0,3265,4185.128,4216.538,4184.103,4147.821,4201.795,4205.128,4201.026,4175.641,4219.615,4165.897,4176.667,4172.0509999999995,4173.846,4184.487,0,0
622,106,0,3504,4181.41,4195.128,4180.769,4138.718,4198.077,4210.513,4205.769,4195.641,4251.41,4161.923,4190.897,4172.692,4186.026,4184.615,0,0
623,107,0,3328,4184.359,4188.59,4184.744000000001,4146.795,4201.026,4202.179,4207.308,4213.59,4258.205,4175.769,4187.0509999999995,4181.667,4185.769,4189.615,0,0
624,108,0,3056,4189.359,4172.564,4186.795,4156.154,4200.897,4200.128,4204.359,4214.487,4243.205,4192.564,4184.359,4185.255999999999,4186.795,4190.0,0,0
625,109,0,3265,4186.923,4139.872,4182.692,4153.718,4201.154,4212.821,4213.333,4212.564,4240.385,4177.9490000000005,4195.385,4181.41,4180.513,4189.231,0,0
626,110,0,3504,4182.821,4114.487,4182.179,4150.897,4215.255999999999,4213.077,4235.897,4223.718,4251.282,4167.0509999999995,4187.0509999999995,4180.0,4168.974,4185.897,0,0
627,111,0,3328,4181.923,4092.308,4182.179,4146.923,4217.564,4200.641,4231.667,4224.359,4241.41,4182.564,4173.718,4179.872,4176.41,4180.641,0,0
628,112,0,3056,4176.795,4052.821,4171.795,4139.744000000001,4192.436,4197.179,4188.333,4189.103,4211.41,4186.41,4177.692,4170.385,4185.897,4176.538,0,0
629,113,0,3265,4180.0,4022.821,4173.333,4151.795,4186.282,4200.385,4174.615,4168.333,4215.128,4175.385,4182.9490000000005,4169.744000000001,4183.846,4179.872,0,0
630,114,0,3504,4191.538,4024.3590000000004,4187.436,4177.821,4209.615,4206.795,4207.821,4202.308,4252.821,4187.821,4186.154,4181.282,4191.154,4189.359,0,0
631,115,0,3328,4204.872,4023.333,4200.769,4196.923,4221.154,4220.769,4224.872,4227.0509999999995,4267.308,4210.513,4196.667,4194.615,4212.821,4203.205,0,0
632,116,0,3056,4212.0509999999995,3995.0,4210.0,4213.462,4217.308,4219.231,4211.923,4211.41,4263.846,4211.41,4206.282,4203.718,4222.692,4210.513,0,0
633,117,0,3265,4210.641,3963.718,4208.333,4222.9490000000005,4202.692,4201.154,4207.436,4203.462,4261.923,4204.872,4204.103,4201.154,4207.179,4203.462,0,0
634,118,0,3504,4201.026,3945.256,4193.846,4210.513,4184.359,4198.205,4210.513,4197.308,4242.692,4188.205,4192.9490000000005,4186.538,4176.667,4190.897,0,0
635,119,0,3328,4200.128,3922.4359999999997,4195.769,4204.487,4184.231,4204.487,4205.513,4186.154,4224.872,4166.667,4184.744000000001,4182.308,4166.795,4189.744000000001,0,0
636,120,0,3056,4203.077,3904.615,4199.487,4223.846,4206.538,4201.154,4204.103,4195.128,4230.0,4172.821,4180.641,4184.231,4181.154,4191.154,0,0
637,121,0,3265,4208.333,3911.795,4196.282,4236.795,4197.692,4202.821,4218.974,4205.385,4234.487,4181.41,4183.077,4183.718,4184.744000000001,4190.641,0,0
638,122,0,3504,4214.231,3930.0,4206.538,4225.897,4165.641,4208.718,4228.974,4205.128,4229.231,4175.255999999999,4187.9490000000005,4186.667,4181.026,4194.487,0,0
639,123,0,3328,4209.872,3938.974,4208.462,4229.487,4186.667,4214.744000000001,4237.436,4212.564,4226.795,4180.641,4188.333,4186.154,4182.821,4196.538,0,0
640,124,0,3056,4214.744000000001,3934.615,4209.615,4241.282,4190.641,4224.103,4237.308,4213.205,4232.564,4191.41,4192.179,4190.513,4186.923,4202.308,0,0
641,125,0,3265,4210.513,3935.385,4205.641,4219.103,4140.255999999999,4199.487,4179.231,4182.564,4237.564,4179.359,4188.462,4187.564,4187.179,4196.026,0,0
642,126,0,3504,4184.872,3968.462,4172.436,4202.308,4166.154,4157.179,4120.897,4159.615,4222.9490000000005,4171.282,4177.436,4167.821,4184.487,4175.641,0,0
643,127,0,55,4184.744000000001,4029.103,4170.769,4226.538,4241.282,4175.897,4163.462,4184.487,4216.41,4198.718,4194.615,4172.821,4203.077,4185.0,0,0
644,0,0,3217,4208.974,4069.615,4209.872,4241.538,4217.692,4220.641,4221.154,4219.744000000001,4247.821,4209.872,4220.128,4201.795,4222.0509999999995,4213.718,0,0
645,1,0,3309,4196.41,4078.974,4197.308,4225.128,4156.41,4212.9490000000005,4204.487,4225.385,4272.9490000000005,4183.59,4210.641,4195.769,4207.436,4205.769,0,0
646,2,0,2811,4174.615,4092.692,4163.205,4205.513,4176.667,4186.154,4187.692,4213.59,4253.846,4176.538,4198.59,4172.436,4192.564,4188.077,0,0
647,3,0,3540,4177.692,4116.282,4175.255999999999,4189.487,4211.795,4184.359,4190.513,4201.026,4222.308,4187.564,4207.308,4173.974,4198.077,4191.154,0,0
648,4,0,3607,4175.641,4139.231,4183.077,4189.744000000001,4199.872,4197.9490000000005,4177.0509999999995,4182.308,4213.205,4170.513,4205.385,4177.692,4189.231,4185.513,0,0
649,5,0,3365,4172.436,4154.487,4178.205,4202.9490000000005,4182.564,4209.744000000001,4182.821,4182.692,4227.179,4162.564,4205.255999999999,4181.538,4184.615,4188.333,0,0
650,6,0,3361,4188.205,4168.333,4195.513,4202.821,4193.59,4205.641,4218.718,4218.077,4255.769,4195.0,4230.513,4204.615,4214.231,4214.231,0,0
651,7,0,3417,4195.769,4190.0,4203.59,4194.231,4211.667,4203.077,4230.128,4242.692,4270.513,4213.205,4242.821,4214.359,4229.231,4220.128,0,0
652,8,0,3446,4185.385,4213.59,4189.744000000001,4192.692,4199.103,4213.59,4207.308,4224.487,4252.821,4187.308,4219.231,4193.846,4207.436,4199.744000000001,0,0
653,9,0,3594,4177.821,4234.359,4177.692,4194.103,4180.255999999999,4201.282,4199.103,4204.359,4231.026,4163.718,4200.255999999999,4181.154,4196.026,4191.41,0,0
654,10,0,3489,4181.538,4244.615,4174.744000000001,4179.615,4180.897,4177.308,4204.103,4212.692,4222.179,4166.026,4210.128,4185.641,4201.923,4196.538,0,0
655,11,0,3305,4190.641,4253.59,4182.692,4165.641,4191.667,4195.769,4216.154,4225.513,4236.282,4167.436,4220.255999999999,4190.769,4206.795,4199.103,0,0
656,12,0,3025,4190.128,4253.077,4185.255999999999,4166.795,4202.436,4219.103,4218.974,4215.769,4254.615,4151.795,4208.077,4185.0,4205.897,4191.41,0,0
657,13,0,3243,4189.359,4241.667,4189.615,4173.718,4203.846,4212.0509999999995,4204.744000000001,4212.0509999999995,4258.846,4142.821,4200.513,4185.897,4201.923,4192.308,0,0
658,14,0,3489,4194.103,4240.385,4199.103,4173.59,4199.103,4210.255999999999,4200.385,4232.308,4257.308,4148.333,4211.026,4198.333,4195.641,4203.59,0,0
659,15,0,3305,4203.077,4248.077,4206.538,4182.0509999999995,4198.462,4216.667,4216.538,4235.385,4255.0,4153.205,4225.513,4207.564,4198.718,4208.333,0,0
660,16,0,0,4214.872,4246.154,4213.205,4194.231,4204.615,4213.974,4218.462,4208.59,4250.641,4149.744000000001,4236.41,4212.179,4209.231,4214.615,0,0
661,17,0,0,4207.821,4215.897,4198.077,4169.231,4197.436,4193.974,4178.462,4172.436,4226.41,4122.436,4215.0,4198.718,4184.359,4206.154,0,0
662,18,0,0,4183.974,4189.872,4168.846,4138.846,4178.333,4180.255999999999,4161.795,4155.769,4203.974,4109.231,4173.974,4167.436,4162.308,4176.154,0,0
663,19,0,0,4198.974,4199.487,4186.538,4160.897,4192.308,4203.462,4213.205,4204.615,4228.462,4137.692,4179.615,4172.9490000000005,4197.308,4181.41,0,0
664,20,0,0,4237.692,4223.077,4228.462,4204.103,4228.205,4227.9490000000005,4256.282,4268.974,4275.128,4160.255999999999,4231.923,4221.538,4227.692,4227.9490000000005,0,0
665,21,0,0,4231.41,4206.923,4221.026,4192.821,4222.821,4206.795,4227.821,4239.103,4257.692,4160.385,4241.538,4225.769,4209.487,4231.282,0,0
666,22,0,0,4194.615,4155.641,4184.487,4146.026,4192.564,4191.795,4179.487,4163.205,4204.615,4160.128,4184.103,4176.026,4189.615,4184.359,0,0
667,23,0,0,4185.0,4129.872,4171.41,4137.308,4186.282,4204.231,4179.872,4152.9490000000005,4198.333,4138.077,4141.154,4152.179,4172.0509999999995,4159.103,0,0
668,24,0,0,4185.769,4117.179,4167.308,4146.41,4183.205,4181.923,4172.821,4167.308,4202.0509999999995,4105.128,4149.359,4156.282,4141.282,4159.359,0,0
669,25,0,0,4193.462,4102.179,4177.308,4152.692,4182.692,4156.41,4146.795,4177.0509999999995,4210.641,4130.897,4173.205,4167.692,4161.154,4175.769,0,0
670,26,0,0,4224.872,4114.103,4214.231,4183.59,4216.154,4192.564,4187.179,4212.9490000000005,4250.641,4184.231,4199.872,4202.308,4223.59,4213.718,0,0
671,27,0,0,4250.255999999999,4130.0,4238.077,4222.821,4248.718,4236.282,4249.103,4241.538,4276.795,4204.487,4228.077,4231.923,4245.385,4241.538,0,0
672,28,0,0,4242.436,4100.769,4225.128,4222.0509999999995,4235.641,4226.923,4229.872,4236.795,4262.821,4206.795,4216.795,4221.795,4226.154,4226.538,0,0
673,29,0,0,4220.385,4038.974,4202.564,4198.718,4212.9490000000005,4189.487,4172.9490000000005,4210.0,4235.897,4198.59,4175.769,4192.821,4206.795,4198.718,0,0
674,30,0,0,4217.0509999999995,3995.513,4202.821,4198.462,4209.744000000001,4176.923,4184.103,4191.923,4213.59,4188.718,4168.718,4187.179,4199.744000000001,4199.359,0,0
675,31,0,0,4220.0,3982.4359999999997,4209.231,4203.462,4204.103,4200.897,4224.231,4195.385,4217.9490000000005,4186.795,4178.718,4193.846,4196.282,4205.128,0,0
676,32,0,0,4216.667,3979.615,4200.897,4198.462,4199.231,4208.718,4206.538,4197.308,4234.103,4175.0,4171.923,4187.436,4185.769,4194.615,0,0
677,33,0,0,4216.282,3962.692,4198.846,4209.359,4209.231,4188.974,4170.0,4191.667,4217.564,4177.436,4177.564,4187.0509999999995,4185.128,4195.385,0,0
678,34,0,0,4228.974,3951.1540000000005,4218.333,4232.436,4216.923,4188.718,4173.718,4188.718,4209.744000000001,4197.821,4191.795,4204.615,4203.205,4213.59,0,0
679,35,0,0,4234.744000000001,3964.8720000000003,4226.026,4231.923,4215.641,4205.769,4204.744000000001,4183.974,4227.179,4192.821,4186.026,4208.974,4200.641,4215.128,0,0
680,36,0,0,4227.692,3968.462,4215.769,4219.744000000001,4208.974,4202.308,4207.0509999999995,4180.769,4219.487,4179.487,4181.795,4200.641,4180.0,4203.205,0,0
681,37,0,0,4219.103,3950.513,4209.487,4222.179,4204.872,4196.795,4191.538,4192.821,4215.513,4188.846,4184.872,4198.718,4189.359,4199.231,0,0
682,38,0,0,4217.9490000000005,3940.513,4211.923,4236.41,4200.641,4202.308,4206.154,4207.9490000000005,4246.41,4191.154,4186.538,4201.282,4208.59,4202.436,0,0
683,39,0,0,4222.179,3929.3590000000004,4214.872,4243.077,4176.923,4195.255999999999,4213.333,4218.846,4247.179,4184.872,4186.154,4202.692,4201.026,4202.9490000000005,0,0
684,40,0,0,4220.641,3908.8459999999995,4210.641,4224.359,4172.436,4181.538,4177.436,4213.974,4215.128,4186.154,4174.615,4196.795,4194.615,4195.769,0,0
685,41,0,0,4205.255999999999,3907.5640000000003,4194.231,4211.538,4200.385,4180.897,4159.872,4184.615,4207.436,4175.769,4169.231,4180.513,4199.872,4184.487,0,0
686,42,0,0,4206.41,3922.692,4201.41,4238.59,4195.255999999999,4195.128,4191.667,4177.308,4214.872,4180.769,4182.179,4187.436,4196.667,4191.795,0,0
687,43,0,0,4229.103,3928.59,4230.128,4258.846,4184.487,4205.641,4201.538,4203.077,4221.538,4209.615,4193.205,4215.897,4194.487,4216.41,0,0
688,44,0,0,4224.615,3937.949,4218.077,4249.872,4204.615,4200.128,4197.564,4216.026,4234.103,4201.026,4189.231,4212.436,4200.513,4212.564,0,0
689,45,0,0,4205.128,3948.333,4199.359,4248.205,4187.9490000000005,4203.205,4222.821,4206.923,4248.077,4166.154,4184.231,4193.205,4202.179,4189.615,0,0
690,46,0,0,4201.795,3955.6409999999996,4205.0,4243.205,4174.615,4209.103,4215.769,4204.103,4249.487,4163.974,4181.154,4190.385,4199.231,4184.103,0,0
691,47,0,0,4194.744000000001,3968.077,4191.667,4228.333,4211.154,4188.462,4160.128,4191.538,4224.487,4172.821,4173.846,4184.231,4191.282,4184.359,0,0
692,48,0,0,4174.231,3960.385,4166.026,4216.282,4168.974,4172.692,4145.641,4158.205,4194.103,4151.923,4165.255999999999,4163.718,4172.436,4166.41,0,0
693,49,0,0,4175.513,3953.077,4177.0509999999995,4191.538,4099.103,4182.436,4181.026,4155.897,4194.359,4137.692,4164.615,4161.154,4163.077,4162.0509999999995,0,0
694,50,0,0,4191.41,4007.5640000000003,4196.795,4196.538,4153.718,4184.231,4193.333,4195.255999999999,4221.154,4157.692,4180.897,4180.0,4185.513,4187.179,0,0
695,51,0,0,4198.718,4075.256,4201.026,4234.615,4214.359,4184.359,4194.231,4216.026,4235.128,4183.205,4204.872,4196.923,4212.9490000000005,4206.154,0,0
696,52,0,0,4203.205,4101.667,4207.692,4235.641,4187.179,4199.615,4217.0509999999995,4215.385,4245.128,4197.0509999999995,4217.308,4205.897,4220.128,4209.615,0,0
697,53,0,0,4212.564,4132.179,4214.744000000001,4217.436,4168.846,4217.179,4236.282,4233.462,4271.538,4199.487,4219.872,4214.359,4224.231,4215.641,0,0
698,54,0,0,4212.436,4157.436,4219.231,4215.641,4180.769,4218.333,4227.692,4235.769,4277.436,4190.0,4221.923,4215.385,4228.718,4220.0,0,0
699,55,0,0,4202.308,4161.538,4214.615,4212.821,4183.974,4203.333,4214.103,4215.385,4248.59,4178.846,4214.359,4203.205,4217.692,4208.974,0,0
700,56,0,0,4202.179,4187.179,4211.667,4212.308,4187.821,4196.026,4223.077,4234.359,4242.179,4174.872,4203.205,4200.897,4206.538,4203.846,0,0
701,57,0,0,4201.282,4200.769,4208.333,4210.769,4190.255999999999,4201.795,4230.385,4241.667,4256.282,4159.103,4200.897,4202.179,4204.487,4203.846,0,0
702,58,0,0,4189.359,4192.436,4196.538,4195.641,4177.308,4205.255999999999,4220.769,4191.282,4237.308,4141.795,4199.615,4191.538,4201.154,4193.718,0,0
703,59,0,0,4192.692,4207.308,4202.821,4184.744000000001,4156.026,4199.231,4200.0,4170.385,4219.744000000001,4147.436,4195.0,4192.564,4202.0509999999995,4194.872,0,0
704,60,0,0,4203.974,4224.615,4213.718,4185.641,4154.744000000001,4192.179,4187.9490000000005,4198.333,4236.41,4152.9490000000005,4197.9490000000005,4204.872,4201.282,4208.462,0,0
705,61,0,0,4192.179,4216.923,4195.128,4180.513,4172.179,4185.513,4179.359,4194.872,4231.282,4133.59,4200.0,4195.769,4185.385,4203.077,0,0
706,62,0,0,4186.667,4229.615,4186.026,4192.821,4179.231,4180.128,4168.077,4181.923,4216.41,4125.513,4200.0,4191.282,4185.513,4197.436,0,0
707,63,0,0,4185.513,4248.077,4191.795,4193.846,4164.103,4177.436,4161.41,4180.641,4218.59,4126.795,4195.128,4189.744000000001,4186.154,4193.462,0,0
708,64,0,3216,4160.128,4216.538,4167.564,4140.513,4126.667,4168.59,4149.744000000001,4153.205,4197.564,4091.1540000000005,4168.974,4156.154,4147.564,4161.923,0,0
709,65,0,3349,4171.41,4236.667,4179.615,4135.897,4133.718,4179.359,4183.462,4178.333,4208.846,4100.641,4190.897,4170.769,4162.0509999999995,4175.769,0,0
710,66,0,2815,4235.641,4363.718,4248.974,4217.436,4214.103,4215.0,4255.769,4266.538,4292.436,4181.795,4263.333,4249.231,4255.641,4254.103,0,0
711,67,0,3568,4243.974,4431.538,4253.462,4251.282,4248.718,4227.436,4264.103,4279.231,4315.513,4204.487,4263.462,4256.026,4274.231,4264.231,0,0
712,68,0,3625,4207.0509999999995,4363.718,4211.026,4202.308,4195.385,4204.872,4212.692,4216.154,4228.974,4163.718,4216.282,4206.667,4203.077,4214.615,0,0
713,69,0,3373,4207.436,4320.385,4215.255999999999,4152.692,4158.333,4190.255999999999,4192.9490000000005,4198.205,4196.667,4148.59,4220.897,4207.179,4186.795,4214.103,0,0
714,70,0,3380,4234.615,4377.436,4251.795,4155.769,4170.128,4211.538,4221.795,4230.513,4267.692,4149.615,4250.385,4235.897,4223.718,4243.846,0,0
715,71,0,3400,4222.436,4436.282,4240.0,4190.897,4202.692,4221.667,4231.923,4235.0,4296.282,4138.462,4239.231,4227.0509999999995,4220.769,4230.513,0,0
716,72,0,3443,4184.231,4463.974,4185.128,4186.41,4221.795,4202.436,4211.026,4212.308,4253.718,4137.821,4203.974,4195.128,4198.077,4192.308,0,0
717,73,0,3597,4169.872,4509.103,4163.974,4137.9490000000005,4185.0,4195.897,4198.205,4205.0,4234.231,4136.538,4185.513,4180.641,4195.641,4177.692,0,0
718,74,0,3480,4189.103,4534.359,4195.0,4132.821,4166.41,4197.564,4202.564,4209.872,4248.718,4133.333,4196.538,4192.692,4198.59,4190.769,0,0
719,75,0,3309,4209.744000000001,4513.333,4222.436,4153.205,4199.103,4189.872,4206.538,4206.667,4238.333,4141.026,4210.897,4207.436,4193.59,4201.282,0,0
720,76,0,3010,4194.744000000001,4531.154,4197.436,4144.872,4196.282,4185.769,4201.795,4197.692,4212.9490000000005,4135.385,4197.179,4193.462,4181.923,4185.255999999999,0,0
721,77,0,3243,4184.359,4573.333,4180.641,4152.436,4167.436,4189.231,4199.872,4199.744000000001,4218.846,4130.255999999999,4189.231,4185.641,4184.103,4178.59,0,0
722,78,0,3480,4193.205,4554.359,4195.385,4161.795,4175.897,4185.0,4200.128,4209.103,4240.128,4140.385,4202.436,4199.359,4198.59,4190.769,0,0
723,79,0,3309,4200.0,4534.872,4213.974,4157.179,4188.718,4201.026,4228.718,4226.41,4246.667,4149.231,4213.718,4214.231,4198.462,4203.462,0,0
724,80,0,3010,4193.846,4559.487,4209.615,4169.744000000001,4185.255999999999,4217.9490000000005,4239.744000000001,4222.692,4236.154,4148.846,4208.974,4210.385,4182.821,4203.077,0,0
725,81,0,3243,4189.231,4542.821,4196.154,4177.9490000000005,4186.026,4194.872,4204.615,4196.795,4230.0,4145.641,4197.692,4197.564,4182.564,4193.333,0,0
726,82,0,3480,4184.487,4496.154,4191.667,4164.872,4188.077,4180.128,4185.769,4191.795,4233.205,4137.436,4193.333,4191.667,4187.308,4187.0509999999995,0,0
727,83,0,3309,4173.846,4491.026,4182.564,4150.255999999999,4183.846,4185.0,4189.103,4193.462,4230.385,4123.59,4187.179,4186.282,4171.795,4180.641,0,0
728,84,0,3010,4175.641,4493.077,4181.923,4149.359,4187.0509999999995,4183.462,4188.333,4195.385,4228.205,4131.026,4185.0,4190.385,4168.077,4180.385,0,0
729,85,0,3243,4187.692,4481.538,4194.744000000001,4160.255999999999,4194.103,4194.231,4199.103,4213.205,4227.564,4155.255999999999,4197.308,4201.923,4184.872,4192.821,0,0
730,86,0,3480,4183.59,4458.846,4192.821,4159.103,4178.333,4202.436,4205.897,4212.0509999999995,4221.41,4149.103,4197.0509999999995,4193.718,4181.282,4192.308,0,0
731,87,0,3309,4168.718,4432.308,4176.923,4140.769,4162.9490000000005,4186.154,4190.0,4187.179,4218.974,4121.41,4182.179,4177.0509999999995,4164.231,4177.308,0,0
732,88,0,3010,4172.564,4423.974,4181.667,4146.667,4184.744000000001,4187.179,4192.821,4196.154,4236.923,4130.897,4188.974,4186.282,4175.513,4182.821,0,0
733,89,0,3243,4193.333,4417.436,4197.308,4170.769,4207.564,4207.0509999999995,4208.205,4224.103,4251.795,4165.769,4206.795,4205.255999999999,4198.333,4204.103,0,0
734,90,0,3480,4193.462,4389.487,4192.9490000000005,4170.513,4196.923,4198.077,4204.487,4215.769,4239.487,4159.872,4210.255999999999,4202.436,4191.41,4206.667,0,0
735,91,0,3309,4177.0509999999995,4346.923,4182.436,4149.359,4178.718,4182.821,4200.385,4198.462,4221.154,4133.59,4201.282,4186.41,4177.308,4189.744000000001,0,0
736,92,0,3010,4177.821,4318.462,4182.821,4138.205,4182.564,4187.564,4196.795,4197.179,4221.282,4138.077,4185.128,4182.179,4183.846,4184.359,0,0
737,93,0,3243,4184.231,4307.692,4183.077,4143.462,4182.9490000000005,4189.487,4188.974,4193.974,4221.667,4141.795,4185.897,4187.9490000000005,4183.205,4191.538,0,0
738,94,0,3480,4186.41,4296.795,4187.308,4151.282,4177.0509999999995,4188.718,4188.59,4190.128,4204.103,4127.9490000000005,4210.385,4195.641,4173.974,4194.231,0,0
739,95,0,3309,4186.41,4282.821,4191.923,4154.872,4195.385,4195.385,4202.0509999999995,4197.821,4204.231,4141.026,4207.308,4197.308,4178.333,4190.897,0,0
740,96,0,3010,4183.846,4262.692,4191.154,4155.128,4218.974,4203.59,4208.718,4207.9490000000005,4233.974,4154.231,4182.436,4192.9490000000005,4178.846,4189.615,0,0
741,97,0,3243,4180.897,4237.821,4188.077,4155.128,4203.59,4202.0509999999995,4197.9490000000005,4203.974,4241.795,4140.641,4192.308,4191.795,4171.282,4189.744000000001,0,0
742,98,0,3480,4184.103,4217.821,4187.0509999999995,4153.718,4178.59,4189.103,4185.513,4195.385,4221.282,4140.255999999999,4206.41,4190.769,4173.846,4186.41,0,0
743,99,0,3309,4187.9490000000005,4213.718,4190.769,4161.667,4196.667,4183.462,4191.795,4200.897,4224.744000000001,4153.205,4202.692,4190.513,4182.9490000000005,4187.821,0,0
744,100,0,3010,4202.821,4228.333,4210.385,4184.231,4224.359,4196.154,4213.59,4221.282,4251.282,4169.744000000001,4218.974,4208.462,4195.769,4205.897,0,0
745,101,0,3243,4216.923,4229.231,4223.846,4193.333,4224.615,4206.026,4217.564,4231.026,4257.308,4195.128,4236.282,4226.41,4208.333,4223.077,0,0
746,102,0,3480,4209.615,4193.718,4211.538,4187.179,4212.821,4202.821,4211.154,4222.436,4247.564,4199.231,4227.564,4220.0,4202.179,4218.846,0,0
747,103,0,3309,4196.282,4153.077,4197.308,4182.564,4207.308,4199.359,4212.179,4213.59,4240.769,4184.103,4214.103,4204.872,4187.821,4201.538,0,0
748,104,0,3010,4194.103,4132.179,4193.846,4183.333,4197.9490000000005,4190.255999999999,4199.744000000001,4204.872,4230.255999999999,4183.333,4204.487,4191.538,4186.282,4188.846,0,0
749,105,0,3243,4194.487,4112.436,4195.0,4189.359,4190.255999999999,4184.231,4189.487,4201.026,4222.436,4183.462,4200.513,4189.359,4185.641,4190.641,0,0
750,106,0,3480,4192.821,4085.256,4196.923,4200.641,4203.718,4192.0509999999995,4199.103,4204.359,4225.385,4177.564,4199.615,4197.179,4182.692,4194.487,0,0
751,107,0,3309,4191.923,4058.205,4195.255999999999,4215.255999999999,4215.769,4192.0509999999995,4197.436,4201.795,4225.0,4184.231,4194.744000000001,4190.513,4185.128,4183.462,0,0
752,108,0,3010,4188.333,4021.923,4187.179,4227.821,4208.846,4181.282,4183.077,4193.718,4215.513,4185.0,4185.769,4177.0509999999995,4183.974,4170.0,0,0
753,109,0,3243,4192.0509999999995,3990.6409999999996,4192.821,4237.0509999999995,4208.205,4180.513,4190.641,4194.744000000001,4213.077,4178.077,4184.359,4187.692,4177.692,4179.359,0,0
754,110,0,3480,4198.846,3988.077,4204.103,4243.59,4219.872,4186.795,4196.538,4202.436,4226.026,4182.308,4193.974,4201.282,4178.846,4195.641,0,0
755,111,0,3309,4205.385,3993.205,4204.615,4255.385,4212.0509999999995,4188.59,4187.9490000000005,4204.359,4234.872,4188.59,4199.231,4203.333,4185.128,4196.026,0,0
756,112,0,3010,4205.897,3979.744,4199.872,4264.872,4195.128,4187.821,4185.769,4201.923,4230.897,4184.487,4190.255999999999,4198.59,4178.333,4184.103,0,0
757,113,0,3243,4202.821,3966.026,4197.564,4262.308,4202.308,4184.744000000001,4182.821,4202.0509999999995,4230.0,4183.205,4180.385,4189.615,4173.205,4179.744000000001,0,0
758,114,0,3480,4206.026,3968.718,4203.974,4265.513,4197.436,4187.308,4184.487,4208.077,4231.282,4190.513,4184.103,4192.179,4180.385,4191.667,0,0
759,115,0,3309,4211.026,3962.051,4209.487,4269.872,4183.333,4195.385,4191.282,4200.769,4215.128,4191.667,4186.667,4198.077,4174.872,4195.769,0,0
760,116,0,3010,4200.769,3944.744,4199.744000000001,4264.487,4202.308,4186.026,4180.385,4187.179,4205.513,4191.026,4182.436,4185.769,4166.026,4181.538,0,0
761,117,0,3243,4187.821,3943.8459999999995,4185.255999999999,4259.359,4221.41,4177.9490000000005,4186.795,4196.538,4222.821,4199.872,4180.641,4177.436,4173.59,4172.308,0,0
