,COUNTER, INTERPOLATED, RAW_CQ, AF3, F7, F3, FC5, T7, P7, O1, O2, P8, T8, FC6, F4, F8, AF4, MARKER_HARDWARE, MARKER
0,48,0,0,4183.077,4185.897,4190.0,4204.103,4196.538,4180.0,4182.692,4205.385,4192.564,4186.538,4198.462,4204.872,4180.897,4191.667,0,0
1,49,0,0,4180.897,4174.103,4190.513,4195.385,4175.641,4181.154,4183.333,4184.744000000001,4181.282,4182.821,4204.103,4199.872,4182.564,4189.359,0,0
2,50,0,0,4181.282,4167.564,4195.513,4194.615,4166.154,4173.718,4180.128,4169.359,4181.795,4179.487,4200.385,4194.872,4186.41,4185.255999999999,0,0
3,51,0,0,4169.231,4176.538,4175.128,4185.128,4202.9490000000005,4164.744000000001,4162.436,4167.564,4181.41,4174.231,4185.128,4184.487,4180.255999999999,4173.974,0,0
4,52,0,0,4173.333,4182.821,4169.615,4183.077,4196.026,4171.667,4166.154,4176.923,4183.846,4174.615,4189.487,4185.513,4180.641,4176.538,0,0
5,53,0,0,4193.077,4179.744000000001,4198.846,4208.205,4148.205,4177.0509999999995,4182.0509999999995,4176.282,4184.744000000001,4181.154,4199.359,4197.436,4183.974,4193.462,0,0
6,54,0,0,4189.359,4178.077,4200.128,4204.487,4165.513,4170.0,4171.923,4168.462,4171.923,4174.103,4187.436,4192.564,4175.128,4188.59,0,0
7,55,0,0,4167.308,4178.718,4164.359,4172.0509999999995,4211.41,4167.692,4164.103,4175.128,4168.846,4162.692,4176.282,4175.0,4167.564,4166.026,0,0
8,56,0,0,4173.59,4173.59,4174.872,4181.795,4186.282,4177.0509999999995,4188.205,4196.282,4185.0,4170.255999999999,4187.179,4185.128,4174.231,4171.282,0,0
9,57,0,0,4182.692,4166.795,4204.744000000001,4203.333,4148.462,4182.821,4200.641,4201.795,4192.692,4176.41,4191.923,4199.872,4179.231,4186.282,0,0
10,58,0,0,4174.872,4175.641,4193.077,4188.59,4174.872,4179.615,4190.255999999999,4190.897,4182.436,4165.385,4180.128,4191.026,4176.538,4180.385,0,0
11,59,0,0,4168.462,4191.282,4175.897,4175.769,4210.255999999999,4178.718,4189.103,4187.9490000000005,4179.744000000001,4162.0509999999995,4180.255999999999,4182.179,4176.923,4171.667,0,0
12,60,0,0,4170.385,4189.487,4180.513,4188.205,4195.513,4174.487,4192.692,4194.359,4186.538,4165.897,4185.255999999999,4182.308,4176.154,4171.538,0,0
13,61,0,0,4172.308,4185.897,4189.359,4207.179,4163.846,4169.231,4194.744000000001,4193.077,4187.821,4167.9490000000005,4185.0,4182.692,4176.923,4172.436,0,0
14,62,0,0,4178.846,4195.0,4191.923,4201.154,4176.154,4170.128,4191.154,4181.667,4179.872,4162.179,4184.872,4185.641,4176.026,4177.692,0,0
15,63,0,0,4175.641,4205.641,4179.872,4165.769,4214.231,4169.872,4175.641,4179.231,4173.718,4152.564,4183.077,4184.872,4169.231,4184.359,0,0
16,64,0,3230,4180.0,4215.897,4187.436,4174.615,4205.897,4176.026,4181.923,4187.821,4183.205,4158.974,4192.436,4192.436,4178.59,4193.333,0,0
17,65,0,3366,4191.026,4222.692,4212.179,4215.255999999999,4179.103,4186.667,4202.0509999999995,4186.154,4190.255999999999,4167.0509999999995,4202.9490000000005,4203.59,4193.205,4200.0,0,0
18,66,0,2846,4180.385,4215.128,4198.59,4198.205,4188.462,4183.462,4187.692,4182.308,4183.462,4150.513,4191.282,4192.692,4180.513,4189.231,0,0
19,67,0,3546,4170.385,4207.692,4174.103,4165.641,4197.179,4173.077,4171.923,4191.923,4182.692,4139.872,4178.077,4179.103,4163.974,4177.564,0,0
20,68,0,3417,4181.795,4215.769,4186.154,4182.692,4182.179,4174.872,4186.282,4194.615,4191.282,4154.744000000001,4186.667,4185.641,4175.513,4183.974,0,0
21,69,0,3378,4189.744000000001,4221.154,4203.718,4198.846,4179.615,4177.9490000000005,4192.436,4184.615,4192.692,4165.641,4196.154,4193.333,4188.846,4194.359,0,0
22,70,0,3374,4180.513,4219.615,4195.255999999999,4193.462,4190.513,4170.513,4179.615,4177.9490000000005,4183.718,4161.026,4191.923,4187.821,4186.026,4191.154,0,0
23,71,0,3430,4177.308,4219.615,4183.333,4183.846,4190.385,4163.846,4169.744000000001,4170.769,4172.821,4148.718,4186.667,4179.872,4172.436,4181.538,0,0
24,72,0,3443,4174.231,4213.718,4175.255999999999,4164.872,4185.385,4167.308,4170.255999999999,4166.154,4169.615,4136.154,4179.872,4170.385,4163.846,4173.59,0,0
25,73,0,3598,4178.333,4202.179,4180.0,4168.077,4183.846,4171.538,4175.385,4169.103,4171.795,4134.487,4176.154,4171.795,4166.795,4176.41,0,0
26,74,0,3468,4183.718,4202.0509999999995,4186.41,4184.231,4175.897,4166.538,4172.0509999999995,4171.667,4171.282,4138.59,4184.231,4179.744000000001,4170.128,4183.462,0,0
27,75,0,3327,4181.41,4204.744000000001,4179.487,4167.821,4167.308,4156.026,4161.282,4170.128,4166.795,4135.641,4187.564,4178.462,4167.9490000000005,4180.513,0,0
28,76,0,3061,4169.487,4196.795,4170.897,4148.846,4161.026,4153.077,4156.923,4165.0,4162.564,4132.179,4173.846,4170.641,4166.282,4171.41,0,0
29,77,0,3264,4171.538,4196.41,4171.923,4173.077,4164.872,4164.359,4161.154,4157.9490000000005,4163.846,4133.077,4167.564,4169.744000000001,4166.795,4173.846,0,0
30,78,0,3468,4183.59,4202.179,4182.821,4185.769,4176.667,4173.462,4171.923,4165.513,4176.667,4139.359,4181.667,4178.718,4168.974,4186.026,0,0
31,79,0,3327,4184.487,4190.513,4192.308,4167.564,4167.564,4170.0,4181.026,4180.128,4185.513,4145.513,4188.59,4183.205,4171.538,4188.333,0,0
32,80,0,3061,4176.923,4184.872,4182.692,4172.821,4163.974,4174.615,4181.154,4181.667,4183.077,4148.718,4182.0509999999995,4176.41,4176.795,4180.641,0,0
33,81,0,3264,4175.897,4203.205,4168.59,4184.103,4194.359,4183.59,4185.513,4184.487,4182.821,4151.795,4181.154,4170.513,4181.923,4174.744000000001,0,0
34,82,0,3468,4179.359,4210.769,4172.179,4175.128,4203.718,4177.0509999999995,4194.744000000001,4200.385,4183.462,4146.154,4179.487,4172.308,4174.103,4173.462,0,0
35,83,0,3327,4177.436,4202.0509999999995,4178.333,4172.0509999999995,4183.333,4171.154,4193.205,4200.769,4173.718,4133.59,4173.205,4172.564,4160.897,4172.436,0,0
36,84,0,3061,4177.308,4201.026,4176.795,4178.333,4182.564,4177.9490000000005,4188.462,4176.923,4167.179,4131.41,4176.667,4173.462,4163.333,4173.333,0,0
37,85,0,3264,4176.538,4198.077,4178.59,4171.667,4178.974,4177.564,4189.615,4164.744000000001,4176.923,4140.769,4185.385,4177.564,4171.923,4173.077,0,0
38,86,0,3468,4169.615,4190.769,4179.615,4165.641,4161.795,4172.308,4188.59,4173.846,4181.41,4145.897,4180.897,4175.128,4172.9490000000005,4167.436,0,0
39,87,0,3327,4155.897,4184.615,4161.667,4164.487,4172.179,4170.385,4172.821,4172.308,4168.205,4142.179,4163.718,4160.128,4170.513,4156.026,0,0
40,88,0,3061,4157.692,4177.308,4159.872,4164.231,4165.385,4169.359,4166.795,4162.564,4163.59,4140.0,4160.385,4160.128,4170.385,4157.821,0,0
41,89,0,3264,4165.385,4179.103,4171.026,4167.308,4147.564,4170.769,4177.0509999999995,4166.282,4174.744000000001,4143.077,4171.923,4169.487,4170.641,4167.692,0,0
42,90,0,3468,4171.795,4189.103,4172.179,4168.205,4173.718,4170.255999999999,4176.41,4174.744000000001,4177.436,4145.769,4179.872,4171.154,4171.154,4172.564,0,0
43,91,0,3327,4172.179,4191.282,4167.0509999999995,4172.692,4196.923,4166.923,4167.179,4169.872,4171.41,4148.333,4179.231,4169.231,4173.077,4173.974,0,0
44,92,0,3061,4174.872,4186.154,4171.282,4178.333,4185.641,4168.59,4167.308,4160.128,4167.564,4143.718,4173.462,4171.282,4171.795,4174.872,0,0
45,93,0,3264,4175.513,4183.974,4176.795,4178.59,4178.59,4170.513,4173.205,4164.487,4164.103,4134.744000000001,4168.718,4171.538,4168.718,4172.692,0,0
46,94,0,3468,4175.128,4185.769,4175.128,4175.769,4184.744000000001,4166.795,4168.718,4169.744000000001,4162.9490000000005,4132.9490000000005,4172.436,4172.308,4162.9490000000005,4172.692,0,0
47,95,0,3327,4177.564,4185.0,4179.359,4180.385,4174.231,4170.769,4165.897,4171.795,4173.333,4145.128,4184.615,4180.385,4169.103,4177.179,0,0
48,96,0,3061,4182.821,4176.795,4189.103,4190.641,4155.769,4178.077,4177.179,4187.179,4190.0,4161.667,4191.667,4185.769,4183.974,4180.128,0,0
49,97,0,3264,4177.692,4174.231,4184.872,4188.205,4165.385,4169.487,4185.513,4193.462,4191.538,4163.077,4185.513,4180.513,4181.154,4177.821,0,0
50,98,0,3468,4168.974,4181.795,4166.923,4174.103,4196.41,4158.333,4175.385,4172.0509999999995,4176.41,4149.744000000001,4176.026,4170.769,4173.846,4172.0509999999995,0,0
51,99,0,3327,4177.308,4183.846,4168.846,4174.872,4200.513,4164.615,4169.487,4166.667,4173.333,4145.897,4176.923,4173.333,4181.795,4177.436,0,0
52,100,0,3061,4187.0509999999995,4186.795,4191.41,4194.231,4170.128,4174.615,4187.179,4192.436,4187.9490000000005,4161.667,4191.026,4188.077,4187.308,4191.795,0,0
53,101,0,3264,4182.0509999999995,4191.667,4192.692,4189.359,4168.462,4170.641,4187.564,4194.872,4186.538,4161.41,4195.0,4191.282,4177.0509999999995,4186.154,0,0
54,102,0,3468,4170.513,4181.667,4168.333,4165.769,4189.487,4163.974,4161.154,4167.821,4171.667,4145.0,4178.846,4175.0,4170.641,4166.026,0,0
55,103,0,3327,4172.692,4174.103,4165.897,4163.974,4180.255999999999,4167.564,4155.641,4159.487,4171.538,4147.821,4168.333,4171.667,4169.744000000001,4170.128,0,0
56,104,0,3061,4176.026,4183.974,4177.436,4174.872,4161.923,4172.436,4172.0509999999995,4169.872,4175.641,4155.513,4173.846,4178.718,4166.795,4180.769,0,0
57,105,0,3264,4175.385,4182.692,4174.103,4177.821,4166.41,4168.333,4173.077,4168.59,4172.0509999999995,4146.026,4176.026,4174.744000000001,4166.538,4174.359,0,0
58,106,0,3468,4171.538,4167.0509999999995,4165.128,4181.282,4180.385,4166.923,4167.436,4166.538,4173.333,4144.359,4173.205,4167.436,4168.718,4167.692,0,0
59,107,0,3327,4173.205,4166.282,4170.897,4184.872,4180.513,4177.0509999999995,4181.026,4173.077,4176.026,4157.9490000000005,4176.667,4172.821,4172.436,4171.154,0,0
60,108,0,3061,4166.026,4174.744000000001,4166.795,4172.692,4172.9490000000005,4183.205,4181.795,4168.205,4170.128,4155.0,4174.359,4169.231,4169.487,4166.41,0,0
61,109,0,3264,4163.333,4179.487,4159.744000000001,4168.205,4176.282,4172.436,4165.897,4166.667,4171.795,4144.103,4169.359,4163.718,4166.026,4162.436,0,0
62,110,0,3468,4177.308,4183.718,4173.718,4187.564,4185.641,4164.615,4171.923,4186.538,4189.615,4158.974,4183.333,4178.333,4181.538,4179.487,0,0
63,111,0,3327,4186.667,4182.0509999999995,4183.333,4194.103,4181.795,4170.769,4184.103,4202.179,4196.795,4174.872,4195.255999999999,4189.487,4193.974,4190.897,0,0
64,112,0,3061,4168.462,4169.103,4163.333,4172.308,4169.359,4169.487,4165.769,4183.077,4172.692,4150.769,4170.385,4167.692,4168.846,4168.462,0,0
65,113,0,3264,4150.897,4163.846,4146.026,4155.641,4167.308,4163.333,4149.231,4157.179,4154.359,4127.308,4149.487,4146.923,4149.872,4149.103,0,0
66,114,0,3468,4165.897,4177.0509999999995,4161.026,4165.769,4171.154,4166.923,4170.128,4170.385,4174.487,4145.897,4174.231,4168.333,4175.897,4168.718,0,0
67,115,0,3327,4181.282,4182.308,4174.231,4176.41,4176.282,4175.385,4188.077,4193.333,4188.462,4156.795,4189.615,4185.641,4185.385,4182.0509999999995,0,0
68,116,0,3061,4175.255999999999,4177.436,4169.231,4173.974,4185.769,4183.333,4180.897,4182.0509999999995,4172.564,4142.564,4170.769,4171.795,4167.436,4167.436,0,0
69,117,0,3264,4170.641,4175.641,4169.487,4180.255999999999,4182.9490000000005,4187.436,4180.641,4163.462,4173.718,4149.487,4173.333,4168.205,4179.744000000001,4165.769,0,0
70,118,0,3468,4181.41,4172.436,4184.231,4196.41,4166.667,4185.769,4195.0,4174.872,4193.077,4166.795,4193.59,4186.41,4196.154,4181.667,0,0
71,119,0,3327,4172.9490000000005,4169.872,4177.0509999999995,4182.564,4168.077,4182.692,4193.59,4183.462,4182.821,4152.436,4181.538,4182.692,4175.513,4176.154,0,0
72,120,0,3061,4166.026,4171.795,4165.385,4161.795,4177.308,4183.205,4184.487,4176.282,4168.077,4139.615,4169.231,4174.359,4165.128,4165.641,0,0
73,121,0,3264,4180.0,4167.692,4184.615,4186.795,4159.487,4183.59,4199.744000000001,4191.282,4187.308,4157.308,4187.692,4189.231,4182.821,4178.333,0,0
74,122,0,3468,4186.154,4160.769,4195.0,4208.974,4158.846,4182.821,4208.718,4210.897,4198.846,4164.359,4192.821,4193.462,4182.436,4187.9490000000005,0,0
75,123,0,3327,4174.231,4178.59,4173.462,4190.641,4192.692,4185.255999999999,4194.744000000001,4207.821,4190.128,4156.154,4180.897,4182.308,4176.154,4178.077,0,0
76,124,0,3061,4175.385,4187.9490000000005,4171.282,4184.744000000001,4201.41,4187.308,4195.255999999999,4200.897,4188.462,4157.564,4190.641,4187.9490000000005,4184.744000000001,4176.154,0,0
77,125,0,3264,4180.255999999999,4170.385,4186.923,4200.513,4181.154,4186.923,4207.564,4197.308,4186.026,4160.0,4201.538,4195.0,4186.795,4180.385,0,0
78,126,0,3468,4181.795,4171.026,4184.615,4192.564,4179.231,4190.641,4202.821,4190.769,4181.41,4152.0509999999995,4194.103,4188.974,4182.564,4178.205,0,0
79,127,0,55,4184.231,4189.231,4182.821,4180.641,4189.103,4195.513,4198.59,4191.795,4193.205,4151.026,4195.0,4193.077,4185.0,4185.769,0,0
80,0,0,3255,4181.923,4183.205,4189.615,4188.846,4183.718,4191.026,4205.897,4193.333,4197.821,4151.795,4197.436,4199.615,4186.026,4189.231,0,0
81,1,0,3419,4172.821,4164.359,4178.333,4183.077,4177.436,4183.205,4197.179,4186.026,4184.359,4141.538,4181.538,4185.641,4180.255999999999,4171.282,0,0
82,2,0,2862,4171.923,4167.436,4174.231,4178.333,4169.615,4187.308,4189.231,4192.436,4188.333,4141.026,4176.41,4179.231,4182.9490000000005,4168.205,0,0
83,3,0,3549,4178.974,4171.282,4190.641,4189.872,4160.0,4191.282,4192.308,4189.103,4195.385,4145.0,4186.41,4190.255999999999,4187.564,4183.59,0,0
84,4,0,3454,4170.513,4161.538,4179.231,4181.282,4178.205,4178.846,4178.333,4168.462,4185.897,4137.9490000000005,4179.872,4183.205,4182.692,4171.026,0,0
85,5,0,3376,4163.462,4167.821,4168.462,4175.385,4189.103,4174.872,4176.154,4180.255999999999,4184.615,4136.282,4176.667,4176.538,4182.692,4158.974,0,0
86,6,0,3378,4171.026,4184.359,4186.282,4193.846,4167.179,4188.205,4192.564,4196.923,4193.718,4146.795,4187.564,4185.0,4186.41,4170.385,0,0
87,7,0,3444,4176.538,4180.255999999999,4189.487,4193.333,4172.564,4190.769,4189.359,4180.128,4187.821,4147.179,4183.59,4185.128,4181.154,4172.564,0,0
88,8,0,3453,4165.769,4167.821,4168.974,4172.564,4193.846,4182.9490000000005,4178.974,4175.513,4180.255999999999,4137.692,4177.9490000000005,4175.769,4174.487,4163.462,0,0
89,9,0,3600,4163.718,4175.897,4172.9490000000005,4177.179,4173.846,4183.205,4186.667,4192.692,4185.255999999999,4132.436,4186.41,4178.846,4175.769,4162.9490000000005,0,0
90,10,0,3467,4162.308,4180.128,4174.615,4183.205,4168.205,4185.769,4183.846,4185.385,4186.923,4130.128,4178.718,4174.744000000001,4172.0509999999995,4157.821,0,0
91,11,0,3333,4155.513,4169.359,4152.821,4164.103,4193.974,4183.59,4167.692,4170.128,4182.564,4130.769,4159.872,4161.282,4165.513,4151.154,0,0
92,12,0,3060,4156.923,4172.436,4151.923,4160.897,4181.41,4181.795,4175.769,4178.718,4183.462,4139.744000000001,4166.667,4164.615,4173.462,4156.41,0,0
93,13,0,3269,4174.615,4184.615,4178.077,4182.821,4158.462,4180.128,4196.154,4190.513,4191.795,4148.205,4185.128,4183.205,4187.821,4170.769,0,0
94,14,0,3467,4184.615,4183.59,4189.103,4189.103,4170.385,4183.333,4199.231,4196.026,4196.538,4148.205,4186.41,4192.308,4190.769,4180.897,0,0
95,15,0,3333,4176.282,4175.0,4179.359,4171.538,4173.462,4188.59,4189.359,4192.9490000000005,4188.846,4145.0,4181.026,4184.744000000001,4186.667,4175.385,0,0
96,16,0,0,4163.462,4177.692,4170.385,4175.0,4165.897,4183.333,4184.359,4181.795,4178.974,4139.872,4177.436,4176.154,4183.846,4163.59,0,0
97,17,0,0,4164.359,4178.59,4170.641,4189.744000000001,4168.333,4177.436,4185.0,4180.769,4178.59,4136.538,4175.385,4177.308,4178.462,4164.615,0,0
98,18,0,0,4172.9490000000005,4170.255999999999,4173.846,4168.462,4170.255999999999,4184.359,4183.333,4191.667,4186.795,4139.103,4177.564,4181.41,4174.231,4168.974,0,0
99,19,0,0,4172.308,4175.255999999999,4172.436,4162.0509999999995,4177.436,4189.615,4186.154,4192.308,4189.103,4141.41,4181.667,4180.897,4179.615,4168.205,0,0
100,20,0,0,4176.923,4188.205,4176.41,4197.821,4191.795,4183.718,4193.333,4185.0,4188.718,4144.231,4188.077,4186.41,4186.154,4177.179,0,0
101,21,0,0,4182.308,4190.513,4181.282,4201.154,4187.0509999999995,4182.308,4192.692,4185.255999999999,4192.821,4149.744000000001,4191.795,4188.462,4185.385,4182.564,0,0
102,22,0,0,4181.282,4183.974,4181.026,4172.308,4165.385,4186.026,4187.308,4187.179,4191.026,4149.231,4183.974,4183.077,4180.769,4176.795,0,0
103,23,0,0,4171.923,4178.974,4169.231,4162.9490000000005,4170.385,4173.718,4177.179,4175.0,4176.795,4139.359,4174.231,4176.026,4175.0,4170.897,0,0
104,24,0,0,4173.333,4173.59,4169.231,4171.667,4167.308,4167.9490000000005,4176.41,4179.872,4176.282,4141.026,4183.077,4180.128,4177.179,4177.564,0,0
105,25,0,0,4182.179,4169.103,4181.538,4182.9490000000005,4131.923,4182.0509999999995,4191.026,4202.436,4192.0509999999995,4157.179,4196.923,4188.974,4186.538,4188.077,0,0
106,26,0,0,4184.487,4165.385,4180.641,4184.615,4145.0,4181.41,4185.897,4187.692,4187.179,4157.564,4189.744000000001,4187.821,4183.077,4183.974,0,0
107,27,0,0,4169.744000000001,4166.026,4164.359,4167.179,4191.667,4168.846,4166.538,4160.641,4175.255999999999,4146.026,4176.923,4172.692,4176.026,4168.077,0,0
108,28,0,0,4162.179,4172.9490000000005,4155.513,4156.923,4182.821,4169.487,4171.923,4174.231,4181.41,4143.59,4180.0,4165.0,4174.359,4160.385,0,0
109,29,0,0,4166.538,4171.795,4158.462,4166.795,4151.923,4174.615,4188.59,4193.846,4185.128,4146.154,4183.974,4170.255999999999,4171.154,4163.59,0,0
110,30,0,0,4166.667,4169.615,4162.9490000000005,4171.41,4161.923,4176.026,4185.769,4184.231,4177.692,4142.308,4177.179,4169.231,4171.282,4163.077,0,0
111,31,0,0,4168.974,4181.154,4170.513,4181.538,4177.179,4182.0509999999995,4183.974,4185.255999999999,4182.308,4143.333,4176.795,4165.255999999999,4177.692,4165.385,0,0
112,32,0,0,4177.0509999999995,4188.718,4172.564,4190.641,4176.667,4186.795,4187.0509999999995,4189.615,4188.077,4150.0,4184.359,4170.641,4181.538,4173.462,0,0
113,33,0,0,4175.385,4184.231,4168.205,4178.205,4177.564,4181.41,4176.923,4176.282,4180.513,4150.128,4182.821,4176.41,4184.103,4171.923,0,0
114,34,0,0,4170.128,4182.564,4170.897,4175.0,4169.103,4176.923,4175.641,4177.564,4177.9490000000005,4148.846,4179.359,4173.718,4181.41,4168.974,0,0
115,35,0,0,4178.59,4184.872,4180.513,4181.026,4167.564,4178.59,4185.128,4189.231,4180.897,4146.795,4185.0,4176.667,4172.436,4177.692,0,0
116,36,0,0,4179.231,4187.692,4175.255999999999,4171.282,4180.769,4175.513,4181.667,4183.59,4179.359,4148.974,4186.026,4179.103,4176.41,4180.897,0,0
117,37,0,0,4170.385,4186.026,4166.538,4162.821,4186.282,4165.769,4175.385,4176.538,4179.872,4154.359,4187.308,4177.179,4185.128,4177.821,0,0
118,38,0,0,4170.0,4170.0,4171.795,4175.0,4164.359,4171.154,4179.103,4183.718,4183.333,4159.231,4192.308,4178.718,4184.872,4177.179,0,0
119,39,0,0,4175.0,4161.923,4175.897,4179.615,4145.128,4181.282,4180.255999999999,4182.308,4177.821,4159.744000000001,4186.026,4179.231,4183.333,4172.692,0,0
120,40,0,0,4165.769,4178.974,4165.513,4168.846,4165.897,4174.744000000001,4176.923,4176.282,4176.154,4154.487,4180.128,4172.308,4183.59,4163.205,0,0
121,41,0,0,4163.59,4188.974,4166.41,4171.538,4185.255999999999,4176.41,4181.667,4182.436,4186.795,4153.846,4187.436,4171.667,4183.205,4168.205,0,0
122,42,0,0,4171.026,4177.436,4176.154,4181.667,4172.179,4183.59,4184.231,4189.615,4189.487,4161.538,4191.538,4177.821,4184.744000000001,4178.462,0,0
123,43,0,0,4178.333,4170.128,4180.641,4179.872,4159.103,4178.333,4184.487,4189.615,4180.897,4161.538,4192.436,4183.974,4180.0,4180.769,0,0
124,44,0,0,4172.0509999999995,4171.282,4177.9490000000005,4172.436,4169.359,4172.0509999999995,4183.205,4183.077,4177.821,4154.359,4196.667,4186.538,4172.692,4180.513,0,0
125,45,0,0,4172.436,4175.128,4181.538,4175.769,4182.821,4172.821,4178.333,4185.385,4183.077,4160.769,4197.308,4191.026,4179.615,4188.205,0,0
126,46,0,0,4188.59,4183.462,4197.0509999999995,4187.9490000000005,4175.0,4177.0509999999995,4177.564,4198.462,4186.282,4173.077,4200.641,4199.872,4188.333,4197.564,0,0
127,47,0,0,4195.641,4175.897,4203.077,4191.282,4161.923,4180.769,4180.128,4196.538,4183.974,4169.487,4206.41,4200.255999999999,4188.462,4192.9490000000005,0,0
128,48,0,0,4179.487,4167.308,4185.128,4183.462,4171.41,4175.513,4177.179,4181.538,4181.41,4162.436,4195.128,4186.923,4186.282,4180.385,0,0
129,49,0,0,4167.0509999999995,4181.923,4173.462,4183.333,4190.0,4169.103,4172.9490000000005,4178.462,4180.769,4162.308,4183.205,4179.744000000001,4180.641,4173.974,0,0
130,50,0,0,4176.795,4192.436,4185.641,4193.974,4185.128,4176.282,4181.538,4184.231,4180.641,4158.718,4188.59,4186.667,4175.385,4177.308,0,0
131,51,0,0,4181.154,4191.154,4189.744000000001,4190.385,4178.846,4180.513,4187.9490000000005,4188.718,4182.9490000000005,4160.385,4191.154,4189.615,4182.308,4180.769,0,0
132,52,0,0,4184.359,4200.255999999999,4188.462,4184.359,4190.897,4180.128,4183.718,4190.385,4189.615,4171.282,4193.077,4193.974,4190.0,4189.103,0,0
133,53,0,0,4190.513,4202.308,4193.974,4191.41,4197.436,4187.821,4183.333,4187.179,4192.436,4173.59,4201.41,4198.846,4188.59,4199.487,0,0
134,54,0,0,4192.692,4189.103,4196.923,4189.231,4190.769,4189.231,4187.692,4192.0509999999995,4193.462,4169.103,4203.59,4197.9490000000005,4187.436,4199.231,0,0
135,55,0,0,4187.9490000000005,4189.615,4192.692,4184.359,4180.769,4184.872,4188.077,4197.9490000000005,4196.026,4173.59,4200.128,4197.179,4187.692,4196.154,0,0
136,56,0,0,4190.641,4195.255999999999,4195.255999999999,4193.974,4182.436,4184.487,4185.513,4186.795,4189.231,4176.026,4202.308,4203.077,4188.077,4199.615,0,0
137,57,0,0,4192.9490000000005,4186.795,4197.308,4195.769,4185.255999999999,4183.077,4179.872,4179.487,4182.179,4169.359,4203.462,4203.462,4189.359,4199.103,0,0
138,58,0,0,4192.692,4177.0509999999995,4195.0,4178.974,4170.769,4173.077,4174.872,4178.846,4181.795,4162.821,4194.615,4195.897,4185.641,4195.385,0,0
139,59,0,0,4184.744000000001,4169.231,4185.769,4171.538,4168.846,4164.487,4175.128,4167.692,4178.718,4158.974,4182.308,4186.538,4178.974,4190.255999999999,0,0
140,60,0,0,4186.538,4167.0509999999995,4188.205,4193.205,4184.359,4174.744000000001,4181.282,4168.205,4178.333,4162.0509999999995,4187.564,4188.974,4180.769,4190.513,0,0
141,61,0,0,4187.436,4169.359,4192.179,4196.154,4177.179,4187.0509999999995,4182.0509999999995,4180.385,4184.359,4168.59,4200.897,4192.179,4187.564,4191.795,0,0
142,62,0,0,4177.564,4167.436,4178.718,4170.385,4161.026,4176.41,4174.744000000001,4175.641,4179.872,4162.0509999999995,4192.0509999999995,4180.897,4184.744000000001,4183.333,0,0
143,63,0,0,4181.795,4171.41,4177.0509999999995,4171.282,4175.128,4167.436,4173.59,4172.436,4177.821,4159.103,4181.923,4180.897,4180.255999999999,4184.103,0,0
144,64,0,3247,4195.513,4183.077,4191.41,4195.128,4198.59,4179.487,4182.821,4183.718,4191.538,4170.128,4191.923,4198.077,4183.59,4201.026,0,0
145,65,0,3402,4197.308,4187.692,4199.359,4204.487,4197.564,4191.282,4192.821,4194.615,4190.513,4175.641,4200.385,4206.282,4187.0509999999995,4207.564,0,0
146,66,0,2859,4193.205,4186.667,4199.231,4202.692,4183.718,4189.872,4194.744000000001,4202.692,4183.205,4176.538,4205.128,4202.564,4186.282,4201.026,0,0
147,67,0,3533,4195.128,4185.385,4197.179,4193.205,4185.513,4184.359,4187.0509999999995,4196.282,4187.179,4175.769,4203.462,4200.897,4183.077,4199.487,0,0
148,68,0,3468,4187.9490000000005,4185.385,4185.769,4180.255999999999,4194.359,4182.308,4175.897,4175.641,4184.231,4170.128,4191.026,4195.641,4182.308,4193.718,0,0
149,69,0,3357,4187.564,4188.974,4188.846,4188.333,4175.385,4182.9490000000005,4175.385,4174.615,4179.744000000001,4168.205,4190.641,4196.026,4184.872,4192.9490000000005,0,0
150,70,0,3369,4185.128,4186.538,4190.513,4188.077,4159.359,4178.462,4180.0,4184.615,4181.538,4169.487,4193.974,4193.077,4183.974,4192.436,0,0
151,71,0,3427,4176.026,4178.205,4174.615,4172.0509999999995,4180.513,4173.59,4178.333,4182.436,4177.308,4165.0,4183.846,4181.667,4180.255999999999,4178.077,0,0
152,72,0,3439,4172.821,4178.205,4166.923,4177.564,4187.564,4176.538,4177.821,4181.923,4175.0,4162.9490000000005,4179.872,4176.026,4180.0,4168.205,0,0
153,73,0,3592,4181.154,4185.255999999999,4177.0509999999995,4185.0,4168.974,4182.821,4183.59,4185.385,4184.103,4164.744000000001,4187.692,4183.462,4182.564,4177.9490000000005,0,0
154,74,0,3468,4180.769,4185.641,4177.0509999999995,4171.282,4169.231,4187.436,4182.564,4184.872,4184.487,4163.974,4190.0,4185.128,4181.41,4183.205,0,0
155,75,0,3327,4173.846,4177.436,4170.769,4161.026,4173.974,4184.615,4169.359,4184.359,4173.205,4162.436,4184.487,4181.41,4172.692,4178.077,0,0
156,76,0,3057,4169.487,4169.103,4172.0509999999995,4165.255999999999,4165.128,4176.538,4168.846,4186.795,4171.538,4161.026,4182.564,4184.487,4170.641,4176.923,0,0
157,77,0,3264,4175.897,4170.128,4181.154,4175.897,4174.615,4182.179,4192.179,4191.154,4182.692,4166.41,4190.385,4195.385,4185.128,4186.538,0,0
158,78,0,3468,4188.333,4174.872,4193.462,4188.077,4190.641,4194.615,4208.974,4210.385,4197.9490000000005,4179.615,4201.154,4206.282,4194.744000000001,4198.462,0,0
159,79,0,3327,4194.487,4173.205,4197.0509999999995,4198.846,4179.487,4191.795,4209.231,4227.692,4200.769,4181.41,4202.0509999999995,4208.59,4188.462,4198.718,0,0
160,80,0,3057,4186.538,4169.744000000001,4190.128,4191.154,4171.282,4186.154,4211.41,4215.513,4193.59,4174.872,4195.128,4204.744000000001,4184.103,4192.436,0,0
161,81,0,3264,4176.026,4167.821,4183.974,4169.487,4181.154,4184.744000000001,4209.744000000001,4207.564,4197.179,4176.667,4193.205,4199.359,4186.282,4186.026,0,0
162,82,0,3468,4176.795,4166.026,4185.0,4167.821,4180.769,4185.513,4202.436,4219.615,4203.718,4184.103,4197.308,4199.231,4186.538,4183.718,0,0
163,83,0,3327,4176.282,4169.615,4178.974,4185.513,4170.128,4188.846,4196.795,4211.154,4199.615,4183.718,4195.385,4196.41,4185.385,4181.538,0,0
164,84,0,3057,4177.436,4173.59,4181.923,4196.538,4166.667,4187.692,4190.769,4181.026,4192.692,4175.128,4184.359,4194.359,4186.795,4184.487,0,0
165,85,0,3264,4180.513,4167.821,4188.974,4185.255999999999,4170.255999999999,4182.821,4181.154,4166.667,4183.333,4170.255999999999,4185.897,4195.128,4185.0,4187.821,0,0
166,86,0,3468,4178.846,4162.436,4179.103,4170.128,4180.769,4174.615,4171.154,4166.282,4173.974,4167.821,4193.462,4190.769,4177.821,4184.744000000001,0,0
167,87,0,3327,4169.231,4166.154,4166.538,4168.205,4187.0509999999995,4168.333,4168.462,4165.385,4176.41,4166.667,4188.718,4184.744000000001,4177.436,4180.0,0,0
168,88,0,3057,4174.359,4172.564,4176.41,4171.026,4176.923,4174.231,4175.385,4169.615,4181.667,4168.59,4191.538,4195.641,4187.564,4185.255999999999,0,0
169,89,0,3264,4180.385,4174.872,4187.564,4170.255999999999,4169.872,4178.59,4177.9490000000005,4168.333,4178.333,4170.128,4197.179,4203.205,4191.282,4190.513,0,0
170,90,0,3468,4180.385,4177.179,4185.0,4168.846,4176.923,4173.846,4170.255999999999,4165.0,4173.846,4166.282,4188.974,4193.462,4180.769,4183.59,0,0
171,91,0,3327,4170.513,4176.667,4170.641,4169.103,4178.59,4173.333,4164.872,4171.667,4174.103,4163.718,4179.744000000001,4181.154,4170.255999999999,4171.667,0,0
172,92,0,3057,4165.897,4174.359,4163.205,4166.538,4172.0509999999995,4175.0,4165.641,4173.718,4172.179,4164.103,4180.641,4180.0,4166.538,4171.026,0,0
173,93,0,3264,4173.462,4177.308,4174.487,4172.564,4169.744000000001,4176.282,4171.923,4171.923,4177.9490000000005,4166.667,4186.795,4187.564,4175.128,4180.641,0,0
174,94,0,3468,4178.205,4171.154,4179.103,4176.538,4173.59,4183.077,4176.026,4172.564,4180.641,4170.128,4187.821,4188.846,4182.179,4183.974,0,0
175,95,0,3327,4171.795,4159.231,4170.0,4163.974,4170.641,4183.974,4172.308,4175.0,4176.667,4168.077,4181.41,4184.231,4177.308,4176.667,0,0
176,96,0,3057,4176.667,4167.9490000000005,4179.615,4168.205,4164.103,4182.0509999999995,4177.9490000000005,4186.41,4188.462,4174.103,4185.769,4193.59,4180.641,4181.795,0,0
177,97,0,3264,4194.487,4184.103,4202.9490000000005,4187.179,4174.872,4183.846,4188.462,4199.615,4199.359,4189.872,4207.0509999999995,4213.59,4191.026,4202.308,0,0
178,98,0,3468,4192.308,4179.103,4198.59,4181.41,4187.9490000000005,4176.795,4181.154,4187.179,4184.487,4187.0509999999995,4210.0,4207.9490000000005,4188.077,4203.333,0,0
179,99,0,3327,4185.769,4175.513,4185.769,4171.923,4178.077,4172.564,4171.026,4165.255999999999,4168.59,4174.744000000001,4196.795,4195.513,4180.641,4192.9490000000005,0,0
180,100,0,3057,4186.026,4184.103,4187.179,4185.513,4168.59,4180.641,4174.359,4168.59,4176.154,4178.974,4197.692,4196.923,4184.872,4194.615,0,0
181,101,0,3264,4186.795,4176.282,4191.41,4191.667,4173.077,4182.9490000000005,4180.128,4184.103,4183.59,4183.974,4204.359,4196.923,4188.462,4198.077,0,0
182,102,0,3468,4178.846,4165.641,4181.667,4177.0509999999995,4177.436,4172.9490000000005,4178.718,4183.59,4182.308,4178.974,4197.308,4190.128,4187.0509999999995,4187.821,0,0
183,103,0,3327,4173.333,4169.231,4168.974,4165.641,4173.59,4166.026,4170.897,4171.923,4177.308,4174.872,4185.385,4187.821,4179.744000000001,4175.0,0,0
184,104,0,3057,4168.718,4170.897,4163.718,4166.667,4172.308,4172.821,4161.538,4165.769,4169.744000000001,4169.359,4182.179,4182.692,4167.821,4169.615,0,0
185,105,0,3264,4171.154,4168.462,4171.538,4174.231,4174.487,4188.205,4168.333,4170.513,4170.513,4165.385,4184.359,4180.513,4168.59,4173.59,0,0
186,106,0,3468,4168.974,4171.923,4175.0,4178.846,4172.308,4191.667,4179.231,4172.692,4172.0509999999995,4166.538,4183.333,4184.103,4174.103,4176.154,0,0
187,107,0,3327,4163.59,4171.026,4168.205,4167.692,4163.59,4173.077,4170.255999999999,4165.897,4165.128,4162.9490000000005,4180.513,4181.282,4166.795,4168.077,0,0
188,108,0,3057,4168.974,4169.487,4171.923,4160.769,4163.718,4165.0,4164.359,4171.795,4167.692,4166.923,4181.41,4179.231,4169.231,4167.436,0,0
189,109,0,3264,4185.128,4181.795,4188.718,4180.641,4178.974,4178.333,4179.359,4181.538,4182.179,4183.718,4186.795,4189.744000000001,4188.333,4183.205,0,0
190,110,0,3468,4193.462,4194.615,4193.462,4190.641,4190.128,4187.436,4190.513,4182.564,4186.282,4190.769,4197.692,4200.513,4194.103,4193.718,0,0
191,111,0,3327,4191.795,4194.744000000001,4186.41,4177.821,4182.179,4184.231,4183.718,4193.718,4185.897,4188.205,4207.692,4201.282,4187.0509999999995,4195.385,0,0
192,112,0,3057,4184.615,4187.179,4178.077,4174.872,4172.179,4183.205,4175.769,4191.923,4186.41,4181.026,4195.769,4188.846,4183.974,4186.795,0,0
193,113,0,3264,4174.744000000001,4175.769,4167.821,4179.744000000001,4178.462,4184.872,4168.846,4163.333,4177.9490000000005,4170.641,4173.205,4171.538,4183.205,4167.0509999999995,0,0
194,114,0,3468,4176.154,4173.462,4172.436,4176.667,4182.692,4185.255999999999,4165.0,4154.872,4170.513,4169.744000000001,4174.231,4172.436,4183.974,4161.026,0,0
195,115,0,3327,4177.9490000000005,4180.897,4178.59,4173.59,4173.59,4184.359,4167.692,4172.308,4172.9490000000005,4174.487,4186.41,4181.154,4182.692,4169.744000000001,0,0
196,116,0,3057,4182.436,4188.718,4180.255999999999,4180.128,4168.718,4173.718,4169.487,4178.462,4177.0509999999995,4177.821,4188.077,4186.667,4183.846,4178.846,0,0
197,117,0,3264,4190.513,4195.769,4186.026,4188.718,4173.974,4168.59,4168.333,4176.923,4182.692,4185.897,4188.846,4191.538,4192.0509999999995,4185.0,0,0
198,118,0,3468,4190.255999999999,4188.718,4187.692,4187.179,4182.9490000000005,4180.385,4170.255999999999,4181.923,4183.718,4185.255999999999,4189.359,4191.923,4191.795,4182.436,0,0
199,119,0,3327,4172.9490000000005,4172.436,4172.436,4173.59,4189.359,4181.795,4169.487,4178.846,4174.103,4171.154,4178.846,4179.744000000001,4184.487,4167.821,0,0
200,120,0,3057,4174.359,4172.692,4169.103,4162.0509999999995,4179.872,4170.128,4166.026,4169.872,4167.564,4168.462,4178.205,4178.077,4179.744000000001,4170.769,0,0
201,121,0,3264,4188.718,4185.897,4180.128,4162.0509999999995,4167.179,4166.923,4168.59,4163.718,4167.821,4174.615,4186.667,4185.128,4179.231,4187.692,0,0
202,122,0,3468,4191.795,4187.564,4181.41,4172.692,4171.41,4171.923,4172.179,4169.872,4168.59,4173.974,4180.769,4184.744000000001,4181.667,4186.667,0,0
203,123,0,3327,4181.026,4182.308,4173.974,4179.487,4173.974,4172.436,4171.282,4181.538,4176.026,4178.205,4172.308,4180.128,4185.0,4174.103,0,0
204,124,0,3057,4175.641,4177.436,4169.103,4167.9490000000005,4167.436,4170.769,4167.821,4176.154,4180.513,4182.821,4178.59,4179.487,4185.897,4170.255999999999,0,0
205,125,0,3264,4176.026,4171.41,4168.462,4162.308,4166.282,4178.077,4169.231,4169.744000000001,4179.615,4181.282,4184.744000000001,4179.103,4186.667,4171.923,0,0
206,126,0,3468,4173.846,4172.821,4166.282,4171.41,4176.795,4184.744000000001,4171.667,4181.923,4180.128,4176.923,4181.795,4175.641,4181.026,4168.59,0,0
207,127,0,55,4173.462,4173.974,4168.718,4171.282,4183.59,4183.59,4168.846,4188.846,4178.718,4173.205,4181.538,4178.974,4175.0,4170.513,0,0
208,0,0,3249,4182.436,4170.513,4182.821,4177.179,4181.41,4185.897,4171.282,4176.026,4175.385,4182.821,4188.718,4191.154,4187.308,4183.59,0,0
209,1,0,3426,4187.0509999999995,4171.923,4188.205,4184.359,4185.385,4183.974,4175.897,4163.462,4173.462,4193.718,4193.846,4195.0,4197.692,4188.333,0,0
210,2,0,2868,4174.872,4179.231,4171.41,4169.615,4190.641,4172.0509999999995,4171.667,4163.333,4168.205,4184.231,4189.872,4178.846,4182.9490000000005,4173.974,0,0
211,3,0,3550,4174.487,4187.308,4169.359,4174.359,4181.026,4174.231,4169.359,4170.897,4168.846,4170.0,4180.385,4169.359,4172.821,4167.308,0,0
212,4,0,3461,4175.255999999999,4181.026,4173.462,4181.795,4165.128,4182.0509999999995,4173.205,4175.385,4174.615,4171.667,4175.385,4170.385,4181.795,4170.513,0,0
213,5,0,3363,4165.128,4166.41,4163.462,4157.692,4172.179,4173.974,4168.462,4173.718,4171.667,4172.0509999999995,4171.667,4168.974,4183.077,4165.255999999999,0,0
214,6,0,3374,4166.667,4168.974,4166.282,4161.282,4186.538,4176.154,4170.0,4180.897,4178.846,4174.744000000001,4178.974,4174.744000000001,4178.846,4164.103,0,0
215,7,0,3438,4182.564,4182.179,4187.821,4186.282,4181.795,4191.154,4184.615,4196.923,4196.026,4189.744000000001,4198.974,4194.103,4185.385,4181.154,0,0
216,8,0,3446,4173.077,4172.308,4182.821,4173.974,4170.769,4184.359,4184.231,4198.205,4195.128,4193.846,4198.205,4194.103,4188.462,4184.615,0,0
217,9,0,3594,4163.205,4152.821,4168.718,4163.718,4166.026,4174.872,4177.821,4186.923,4181.282,4181.667,4181.282,4177.0509999999995,4181.026,4173.333,0,0
218,10,0,3468,4171.795,4165.513,4172.692,4182.308,4168.333,4178.462,4178.718,4181.41,4176.026,4176.282,4179.359,4174.359,4178.846,4173.333,0,0
219,11,0,3328,4178.846,4191.154,4179.103,4185.897,4181.795,4179.231,4180.128,4179.103,4173.846,4177.179,4182.436,4181.795,4182.436,4180.128,0,0
220,12,0,3056,4173.846,4188.846,4177.0509999999995,4178.974,4191.667,4180.513,4180.0,4174.872,4165.897,4167.692,4168.205,4174.487,4179.231,4178.205,0,0
221,13,0,3266,4171.538,4168.718,4172.308,4178.59,4178.718,4179.103,4173.718,4164.872,4151.026,4151.026,4157.821,4163.718,4168.205,4169.103,0,0
222,14,0,3468,4175.897,4170.128,4175.385,4178.59,4163.718,4169.103,4165.385,4161.923,4146.923,4151.538,4169.744000000001,4171.41,4165.513,4168.077,0,0
223,15,0,3328,4180.769,4182.821,4186.538,4188.718,4168.205,4169.487,4173.974,4175.769,4165.897,4170.513,4182.564,4182.9490000000005,4176.923,4180.641,0,0
224,16,0,0,4178.846,4175.897,4186.026,4186.154,4173.462,4177.821,4182.564,4186.923,4176.154,4176.667,4178.462,4181.282,4178.333,4188.462,0,0
225,17,0,0,4165.769,4161.282,4167.0509999999995,4162.9490000000005,4170.641,4176.538,4172.308,4186.538,4168.205,4165.255999999999,4168.205,4171.41,4166.538,4172.821,0,0
226,18,0,0,4166.026,4167.179,4165.0,4161.026,4166.795,4182.179,4170.255999999999,4185.769,4168.846,4168.462,4173.59,4168.462,4171.41,4162.821,0,0
227,19,0,0,4170.641,4177.436,4171.538,4172.0509999999995,4164.872,4186.282,4175.255999999999,4177.308,4170.513,4178.974,4177.564,4165.641,4183.59,4168.974,0,0
228,20,0,0,4175.0,4167.9490000000005,4175.513,4175.897,4171.026,4173.077,4173.974,4169.744000000001,4162.0509999999995,4172.436,4171.41,4166.41,4180.897,4175.769,0,0
229,21,0,0,4184.487,4173.846,4186.282,4187.436,4182.9490000000005,4173.59,4184.872,4188.974,4171.795,4172.9490000000005,4181.282,4178.462,4182.0509999999995,4183.333,0,0
230,22,0,0,4191.41,4195.0,4194.744000000001,4197.179,4188.205,4190.385,4195.385,4204.359,4188.077,4185.255999999999,4196.667,4189.615,4190.385,4190.513,0,0
231,23,0,0,4179.744000000001,4195.513,4182.821,4184.359,4182.0509999999995,4192.564,4182.179,4191.41,4185.385,4191.026,4192.308,4185.897,4188.974,4187.179,0,0
232,24,0,0,4175.769,4183.974,4175.641,4175.128,4177.564,4182.692,4175.769,4185.641,4182.9490000000005,4196.667,4188.718,4186.154,4185.385,4185.513,0,0
233,25,0,0,4183.077,4187.0509999999995,4188.077,4189.615,4172.436,4185.255999999999,4188.974,4201.282,4191.667,4204.487,4203.59,4195.769,4188.333,4186.667,0,0
234,26,0,0,4180.769,4192.308,4192.179,4192.179,4160.769,4190.0,4184.744000000001,4203.846,4193.333,4201.795,4201.795,4195.255999999999,4189.359,4177.436,0,0
235,27,0,0,4163.333,4185.769,4172.692,4167.9490000000005,4169.103,4178.333,4165.641,4188.462,4183.333,4195.128,4176.923,4179.872,4184.872,4162.436,0,0
236,28,0,0,4163.462,4185.128,4167.692,4163.462,4188.462,4166.026,4167.821,4182.9490000000005,4182.564,4196.667,4176.41,4178.846,4186.282,4166.667,0,0
237,29,0,0,4179.359,4185.255999999999,4188.59,4190.0,4178.59,4172.308,4185.897,4190.255999999999,4195.255999999999,4198.974,4196.154,4195.255999999999,4191.538,4182.9490000000005,0,0
238,30,0,0,4182.821,4183.205,4191.41,4191.538,4163.974,4183.205,4188.718,4189.103,4199.231,4201.282,4198.59,4197.0509999999995,4192.179,4184.615,0,0
239,31,0,0,4178.333,4191.41,4176.154,4165.641,4182.9490000000005,4186.154,4181.026,4180.128,4187.564,4203.718,4196.538,4189.744000000001,4190.0,4181.026,0,0
240,32,0,0,4181.41,4196.282,4179.103,4166.026,4196.41,4183.974,4183.846,4182.821,4178.59,4200.385,4202.692,4193.333,4185.385,4186.667,0,0
241,33,0,0,4190.641,4197.821,4197.179,4193.333,4178.718,4184.359,4197.308,4200.513,4188.974,4201.154,4203.077,4204.231,4187.692,4196.667,0,0
242,34,0,0,4193.718,4204.103,4197.179,4206.538,4176.154,4195.385,4202.179,4205.128,4197.0509999999995,4206.923,4199.231,4200.897,4199.744000000001,4199.231,0,0
243,35,0,0,4192.436,4198.462,4187.308,4194.231,4190.385,4198.462,4193.462,4186.282,4182.436,4197.0509999999995,4193.59,4193.205,4196.795,4193.333,0,0
244,36,0,0,4185.897,4183.974,4186.538,4186.795,4191.41,4189.487,4190.128,4178.333,4173.205,4181.41,4188.718,4192.692,4182.0509999999995,4186.795,0,0
245,37,0,0,4185.641,4192.564,4192.0509999999995,4190.128,4189.103,4193.077,4192.308,4189.359,4182.179,4184.231,4194.103,4195.385,4186.667,4189.872,0,0
246,38,0,0,4183.59,4203.333,4186.026,4183.462,4190.897,4199.872,4180.897,4185.769,4177.308,4185.641,4192.821,4188.59,4191.026,4190.385,0,0
247,39,0,0,4182.179,4187.179,4181.282,4178.077,4186.923,4191.538,4171.795,4174.487,4163.077,4175.0,4184.231,4184.744000000001,4175.255999999999,4186.923,0,0
248,40,0,0,4181.795,4175.897,4181.026,4179.872,4183.846,4180.641,4179.872,4180.641,4172.308,4177.436,4191.026,4189.487,4175.641,4189.744000000001,0,0
249,41,0,0,4185.897,4188.718,4181.795,4176.026,4181.795,4178.077,4187.179,4188.462,4181.41,4188.205,4203.462,4192.821,4188.846,4194.359,0,0
250,42,0,0,4183.462,4196.41,4180.897,4171.667,4171.667,4176.282,4182.308,4183.077,4176.41,4190.255999999999,4198.333,4188.59,4183.846,4188.59,0,0
251,43,0,0,4183.077,4191.282,4181.154,4177.821,4171.154,4179.487,4181.026,4185.513,4181.923,4192.9490000000005,4189.744000000001,4188.59,4180.513,4184.872,0,0
252,44,0,0,4184.231,4190.897,4180.769,4182.0509999999995,4182.436,4180.897,4183.846,4190.0,4185.769,4197.821,4192.821,4192.308,4186.795,4192.179,0,0
253,45,0,0,4186.026,4195.0,4186.795,4184.615,4190.513,4182.436,4182.179,4187.9490000000005,4179.872,4193.718,4199.103,4195.769,4181.538,4200.513,0,0
254,46,0,0,4192.692,4199.744000000001,4198.205,4189.231,4191.154,4192.0509999999995,4186.41,4191.41,4181.41,4192.9490000000005,4204.615,4203.333,4178.205,4202.692,0,0
255,47,0,0,4187.179,4195.769,4191.923,4187.436,4187.436,4191.667,4187.9490000000005,4185.641,4179.359,4193.077,4192.821,4199.872,4180.0,4191.154,0,0
256,48,0,0,4178.718,4182.564,4187.436,4188.077,4183.59,4183.462,4184.103,4193.718,4179.103,4190.769,4177.179,4194.103,4179.359,4183.462,0,0
257,49,0,0,4187.564,4187.564,4202.9490000000005,4192.0509999999995,4185.128,4187.692,4192.821,4226.026,4199.359,4204.103,4210.128,4204.615,4193.846,4195.128,0,0
258,50,0,0,4199.872,4207.308,4208.59,4194.872,4193.718,4198.077,4199.231,4220.513,4206.795,4216.282,4265.769,4211.795,4210.769,4207.564,0,0
259,51,0,0,4183.205,4204.487,4179.487,4191.538,4198.077,4192.564,4184.487,4181.282,4181.795,4199.744000000001,4267.436,4190.769,4197.308,4191.538,0,0
260,52,0,0,4169.103,4184.487,4166.923,4185.128,4192.436,4182.9490000000005,4178.077,4177.436,4168.077,4181.667,4241.282,4177.821,4182.0509999999995,4169.359,0,0
261,53,0,0,4168.59,4176.154,4178.846,4181.795,4183.077,4183.59,4192.179,4195.769,4177.692,4187.821,4247.436,4183.846,4191.538,4166.795,0,0
262,54,0,0,4170.128,4173.462,4178.718,4174.744000000001,4177.179,4185.0,4200.255999999999,4196.41,4180.255999999999,4192.436,4258.974,4186.795,4193.077,4177.564,0,0
263,55,0,0,4173.59,4180.128,4176.667,4167.692,4180.641,4185.769,4201.667,4201.795,4179.487,4189.231,4254.487,4191.538,4182.692,4190.385,0,0
264,56,0,0,4180.128,4191.026,4185.255999999999,4168.846,4195.769,4184.744000000001,4202.9490000000005,4203.974,4181.026,4189.103,4252.692,4197.564,4181.026,4192.692,0,0
265,57,0,0,4180.513,4188.333,4187.308,4183.205,4198.205,4187.9490000000005,4199.744000000001,4196.41,4183.333,4194.615,4253.974,4192.0509999999995,4187.564,4184.744000000001,0,0
266,58,0,0,4182.692,4181.923,4186.154,4192.436,4172.0509999999995,4183.846,4186.795,4189.615,4176.41,4191.923,4251.41,4189.103,4185.897,4183.333,0,0
267,59,0,0,4176.923,4182.179,4180.769,4177.436,4163.59,4166.282,4163.718,4172.692,4154.231,4177.436,4244.231,4190.385,4169.231,4183.846,0,0
268,60,0,0,4177.436,4192.179,4177.9490000000005,4171.795,4193.846,4167.821,4162.179,4164.359,4146.154,4173.333,4245.897,4193.462,4162.821,4185.641,0,0
269,61,0,0,4192.308,4206.154,4188.974,4192.564,4205.641,4191.026,4187.821,4176.795,4162.436,4181.795,4259.872,4204.744000000001,4180.385,4196.538,0,0
270,62,0,0,4189.744000000001,4201.282,4188.205,4194.615,4188.974,4192.821,4195.769,4188.974,4175.641,4187.692,4259.103,4204.744000000001,4191.154,4197.564,0,0
271,63,0,0,4170.0,4179.231,4168.077,4165.128,4184.359,4178.718,4177.0509999999995,4179.103,4170.385,4185.513,4242.0509999999995,4186.923,4180.769,4176.538,0,0
272,64,0,3244,4167.9490000000005,4177.308,4163.462,4157.308,4173.077,4183.59,4173.462,4167.692,4167.9490000000005,4182.9490000000005,4234.744000000001,4178.205,4176.026,4167.436,0,0
273,65,0,3399,4184.487,4196.795,4183.077,4178.077,4158.333,4186.282,4191.41,4191.026,4180.513,4185.897,4238.077,4190.769,4183.59,4187.0509999999995,0,0
274,66,0,2853,4181.667,4198.59,4183.077,4181.154,4178.077,4172.9490000000005,4190.897,4202.564,4184.487,4191.795,4236.026,4195.897,4180.769,4192.308,0,0
275,67,0,3529,4175.255999999999,4187.436,4175.897,4171.795,4190.255999999999,4167.692,4175.255999999999,4172.308,4171.795,4187.692,4238.333,4194.359,4172.0509999999995,4179.231,0,0
276,68,0,3461,4182.308,4192.436,4184.872,4176.282,4173.718,4178.59,4182.179,4166.026,4174.872,4191.282,4250.769,4200.641,4178.974,4183.718,0,0
277,69,0,3378,4188.974,4210.769,4189.872,4187.692,4189.487,4191.667,4192.9490000000005,4193.205,4188.846,4205.897,4253.333,4204.103,4191.795,4196.41,0,0
278,70,0,3369,4173.462,4202.0509999999995,4171.538,4177.692,4205.513,4183.333,4172.692,4180.0,4173.333,4191.282,4238.077,4187.821,4177.692,4181.667,0,0
279,71,0,3430,4173.462,4183.333,4173.59,4168.718,4177.9490000000005,4173.077,4168.462,4163.205,4159.231,4176.41,4235.0,4184.744000000001,4165.897,4176.538,0,0
280,72,0,3444,4194.744000000001,4202.9490000000005,4196.667,4191.538,4175.897,4184.872,4200.513,4192.0509999999995,4181.538,4200.255999999999,4250.769,4203.59,4188.59,4200.255999999999,0,0
281,73,0,3591,4200.769,4224.872,4195.769,4203.462,4203.077,4195.255999999999,4205.641,4202.9490000000005,4189.872,4210.0,4252.179,4207.308,4197.9490000000005,4203.59,0,0
282,74,0,3462,4183.077,4209.615,4179.615,4183.333,4196.923,4181.282,4183.333,4179.744000000001,4171.282,4187.692,4236.154,4188.974,4178.974,4178.718,0,0
283,75,0,3323,4175.769,4193.846,4177.0509999999995,4170.128,4177.308,4170.769,4177.436,4168.462,4164.744000000001,4181.795,4227.308,4179.872,4171.795,4167.821,0,0
284,76,0,3048,4182.179,4203.846,4180.128,4176.538,4183.077,4178.333,4182.0509999999995,4176.154,4175.513,4196.795,4233.846,4189.872,4182.436,4178.59,0,0
285,77,0,3258,4186.282,4209.231,4180.385,4182.9490000000005,4192.436,4179.872,4183.333,4187.9490000000005,4184.359,4202.564,4246.538,4202.308,4185.0,4190.128,0,0
286,78,0,3462,4186.154,4211.795,4183.846,4181.667,4183.59,4173.333,4176.538,4186.282,4177.564,4191.923,4248.462,4204.487,4175.0,4191.41,0,0
287,79,0,3323,4186.154,4215.641,4187.436,4177.0509999999995,4170.641,4175.255999999999,4168.333,4173.974,4167.0509999999995,4182.821,4237.692,4196.667,4168.462,4184.487,0,0
288,80,0,3048,4185.513,4203.462,4185.255999999999,4173.718,4177.821,4177.308,4175.641,4178.205,4173.974,4186.923,4230.769,4189.359,4174.103,4178.333,0,0
289,81,0,3258,4173.205,4191.795,4171.41,4171.667,4190.513,4171.026,4180.0,4185.128,4181.41,4188.59,4229.103,4179.615,4177.9490000000005,4171.41,0,0
290,82,0,3462,4174.487,4202.179,4172.308,4176.154,4182.821,4174.872,4174.872,4179.487,4180.0,4190.0,4233.974,4182.9490000000005,4174.359,4178.59,0,0
291,83,0,3323,4190.385,4218.846,4190.0,4188.846,4175.128,4188.077,4184.615,4180.255999999999,4185.897,4206.41,4247.821,4198.462,4182.564,4194.359,0,0
292,84,0,3048,4196.282,4213.974,4193.846,4191.795,4188.974,4189.103,4190.128,4181.667,4182.821,4210.128,4249.231,4200.128,4185.0,4191.795,0,0
293,85,0,3258,4183.718,4199.103,4180.128,4180.255999999999,4196.923,4180.641,4174.359,4180.897,4170.897,4193.846,4234.615,4186.795,4175.128,4178.846,0,0
294,86,0,3462,4182.821,4195.897,4184.359,4188.59,4178.718,4172.564,4175.385,4188.974,4179.231,4194.872,4233.333,4189.359,4179.103,4181.026,0,0
295,87,0,3323,4191.026,4203.974,4196.667,4202.179,4175.385,4173.974,4188.59,4188.462,4191.154,4208.846,4249.231,4201.795,4189.615,4191.282,0,0
296,88,0,3048,4194.872,4203.974,4190.641,4188.205,4203.077,4184.359,4184.103,4175.641,4183.718,4207.436,4253.077,4203.718,4189.872,4197.179,0,0
297,89,0,3258,4186.026,4192.0509999999995,4172.564,4171.026,4207.821,4185.897,4178.718,4178.205,4177.564,4198.462,4234.487,4190.128,4185.0,4190.385,0,0
298,90,0,3462,4175.255999999999,4186.795,4165.897,4167.692,4177.564,4170.255999999999,4173.462,4177.821,4174.487,4186.282,4213.205,4172.308,4173.718,4170.513,0,0
299,91,0,3323,4174.487,4195.897,4169.744000000001,4171.282,4173.333,4162.692,4163.205,4163.205,4163.718,4177.436,4211.667,4170.897,4167.0509999999995,4163.205,0,0
300,92,0,3048,4185.128,4211.667,4180.513,4183.462,4190.513,4172.0509999999995,4175.513,4173.333,4167.9490000000005,4190.513,4228.718,4188.974,4184.744000000001,4178.974,0,0
301,93,0,3258,4189.359,4204.103,4189.872,4193.333,4183.718,4173.974,4191.154,4193.718,4182.436,4201.282,4231.795,4195.513,4193.974,4187.436,0,0
302,94,0,3462,4185.641,4195.385,4184.487,4190.0,4183.59,4170.513,4178.846,4181.667,4179.615,4189.487,4221.154,4183.59,4181.41,4180.128,0,0
303,95,0,3323,4191.795,4216.538,4178.974,4187.9490000000005,4205.513,4178.205,4170.385,4169.872,4176.667,4190.513,4227.821,4184.744000000001,4184.231,4181.923,0,0
304,96,0,3048,4191.923,4227.0509999999995,4173.59,4184.872,4208.718,4183.718,4177.9490000000005,4186.923,4186.41,4203.59,4232.436,4186.667,4189.615,4183.846,0,0
305,97,0,3258,4182.564,4210.255999999999,4167.564,4170.769,4190.513,4180.897,4175.641,4191.026,4181.923,4194.872,4216.795,4174.615,4177.179,4174.231,0,0
306,98,0,3462,4179.487,4206.282,4168.462,4176.154,4188.333,4180.0,4170.385,4172.9490000000005,4168.333,4184.872,4211.154,4171.282,4170.769,4171.538,0,0
307,99,0,3323,4187.308,4214.872,4173.205,4187.0509999999995,4198.462,4173.462,4171.026,4171.41,4167.564,4187.564,4218.333,4184.872,4171.667,4182.179,0,0
308,100,0,3048,4187.436,4214.103,4171.538,4175.513,4202.0509999999995,4161.154,4167.821,4179.744000000001,4174.872,4190.641,4218.718,4190.641,4171.026,4184.103,0,0
309,101,0,3258,4195.385,4220.255999999999,4185.0,4183.718,4196.41,4171.667,4179.103,4186.154,4185.385,4200.255999999999,4227.308,4194.872,4183.718,4186.923,0,0
310,102,0,3462,4201.282,4215.385,4195.128,4203.205,4186.41,4187.179,4194.359,4191.923,4194.872,4207.821,4235.513,4199.359,4192.564,4194.615,0,0
311,103,0,3323,4199.744000000001,4204.872,4187.564,4189.487,4186.154,4182.0509999999995,4189.231,4193.846,4191.667,4202.692,4230.897,4200.255999999999,4186.282,4196.923,0,0
312,104,0,3048,4198.718,4222.692,4185.128,4182.179,4199.231,4175.897,4182.692,4188.462,4185.641,4203.974,4233.205,4203.205,4188.333,4201.282,0,0
313,105,0,3258,4198.205,4230.513,4187.821,4195.769,4208.333,4179.487,4182.564,4179.359,4185.0,4206.667,4237.308,4207.0509999999995,4190.385,4205.513,0,0
314,106,0,3462,4192.0509999999995,4214.359,4189.103,4187.179,4195.128,4183.974,4179.359,4178.974,4184.744000000001,4202.436,4233.846,4205.128,4184.487,4200.897,0,0
315,107,0,3323,4191.41,4210.513,4192.308,4177.692,4189.359,4176.667,4180.641,4187.692,4183.333,4200.128,4231.667,4199.744000000001,4181.795,4194.231,0,0
316,108,0,3048,4188.974,4219.872,4184.615,4185.641,4199.231,4164.615,4180.385,4186.538,4181.026,4193.077,4226.667,4192.436,4173.974,4188.077,0,0
317,109,0,3258,4181.41,4217.0509999999995,4173.462,4178.846,4184.231,4172.0509999999995,4174.744000000001,4173.462,4175.641,4179.615,4217.9490000000005,4181.154,4164.615,4181.282,0,0
318,110,0,3462,4184.744000000001,4210.641,4178.462,4178.333,4168.718,4184.872,4177.0509999999995,4178.205,4174.615,4176.923,4212.436,4177.308,4169.103,4179.872,0,0
319,111,0,3323,4190.255999999999,4214.487,4178.59,4189.744000000001,4196.41,4176.282,4177.179,4188.974,4175.255999999999,4181.667,4206.923,4178.974,4173.205,4178.974,0,0
320,112,0,3048,4185.769,4220.255999999999,4172.821,4184.744000000001,4219.103,4164.487,4174.872,4175.255999999999,4173.974,4181.667,4204.103,4179.615,4170.769,4177.179,0,0
321,113,0,3258,4180.128,4221.026,4177.0509999999995,4177.0509999999995,4198.846,4172.9490000000005,4182.179,4166.923,4175.385,4181.282,4209.872,4180.897,4176.667,4180.0,0,0
322,114,0,3462,4188.205,4217.436,4184.872,4190.641,4189.231,4182.821,4184.615,4178.846,4173.59,4184.103,4214.487,4187.692,4178.846,4190.385,0,0
323,115,0,3323,4193.846,4218.333,4183.077,4200.255999999999,4203.846,4185.897,4182.692,4181.538,4174.103,4188.462,4217.436,4188.462,4172.179,4192.821,0,0
324,116,0,3048,4190.128,4218.718,4180.128,4188.077,4204.103,4187.564,4193.974,4178.59,4181.41,4194.615,4219.872,4182.564,4175.513,4184.872,0,0
325,117,0,3258,4184.744000000001,4214.744000000001,4177.9490000000005,4178.333,4194.103,4186.41,4201.795,4190.385,4186.538,4204.103,4218.846,4182.564,4185.769,4182.564,0,0
326,118,0,3462,4188.077,4217.0509999999995,4180.128,4182.0509999999995,4199.615,4185.128,4194.744000000001,4198.077,4186.538,4209.103,4220.769,4192.179,4185.513,4190.513,0,0
327,119,0,3323,4192.436,4220.385,4187.692,4180.897,4203.462,4188.59,4200.385,4202.436,4194.103,4212.692,4231.923,4202.436,4186.667,4200.769,0,0
328,120,0,3048,4202.821,4208.846,4198.462,4178.462,4187.9490000000005,4192.9490000000005,4208.333,4206.41,4199.103,4214.231,4239.103,4206.026,4195.255999999999,4209.872,0,0
329,121,0,3258,4197.308,4200.0,4187.9490000000005,4180.769,4184.231,4188.205,4186.538,4192.9490000000005,4185.0,4202.564,4223.077,4190.513,4185.769,4200.255999999999,0,0
330,122,0,3462,4183.333,4211.026,4169.744000000001,4177.564,4201.282,4175.897,4168.077,4180.641,4179.103,4190.128,4207.0509999999995,4175.0,4171.154,4186.538,0,0
331,123,0,3323,4184.231,4217.564,4173.333,4177.436,4205.255999999999,4169.615,4181.282,4187.564,4186.41,4192.821,4210.385,4179.359,4178.974,4192.308,0,0
332,124,0,3048,4197.821,4211.538,4186.795,4189.744000000001,4197.692,4176.41,4194.872,4186.154,4187.308,4199.744000000001,4221.154,4189.103,4190.128,4201.282,0,0
333,125,0,3258,4202.436,4210.128,4191.154,4192.179,4202.564,4185.769,4193.205,4183.718,4188.077,4205.641,4223.974,4194.615,4186.282,4203.59,0,0
334,126,0,3462,4192.436,4205.769,4184.615,4185.128,4194.615,4188.462,4188.846,4200.769,4197.9490000000005,4211.41,4219.487,4194.103,4186.282,4203.077,0,0
335,127,0,55,4186.923,4200.513,4180.897,4184.615,4181.538,4188.077,4186.538,4205.513,4205.897,4209.103,4219.872,4192.821,4191.538,4197.821,0,0
336,0,0,3248,4182.9490000000005,4197.308,4175.897,4180.128,4191.026,4183.846,4183.205,4189.487,4202.179,4202.179,4218.59,4186.026,4186.795,4185.513,0,0
337,1,0,3384,4182.308,4185.0,4174.615,4172.821,4189.872,4181.667,4184.359,4185.641,4198.462,4202.308,4218.077,4181.538,4188.077,4183.462,0,0
338,2,0,2863,4179.872,4178.718,4171.667,4174.103,4176.795,4180.513,4185.128,4183.462,4195.769,4207.0509999999995,4217.692,4177.692,4194.615,4184.872,0,0
339,3,0,3545,4183.846,4188.205,4171.667,4178.718,4181.026,4179.103,4186.923,4177.436,4190.769,4205.641,4216.41,4176.41,4189.103,4184.487,0,0
340,4,0,3459,4184.231,4183.718,4172.0509999999995,4181.923,4185.641,4181.41,4192.821,4191.154,4192.436,4203.718,4216.667,4177.179,4188.718,4185.641,0,0
341,5,0,3375,4181.667,4164.744000000001,4170.255999999999,4182.9490000000005,4181.154,4185.897,4197.9490000000005,4207.436,4194.359,4204.103,4216.667,4178.077,4196.795,4188.846,0,0
342,6,0,3386,4176.41,4169.872,4163.333,4175.128,4185.897,4178.846,4200.0,4202.692,4188.59,4200.769,4212.821,4175.385,4190.128,4188.462,0,0
343,7,0,3449,4174.872,4189.487,4162.308,4171.154,4183.59,4172.436,4201.026,4201.026,4185.0,4196.41,4208.718,4178.462,4179.744000000001,4183.333,0,0
344,8,0,3457,4179.231,4188.205,4173.974,4180.255999999999,4179.744000000001,4181.795,4200.385,4202.179,4190.769,4197.436,4213.462,4188.974,4188.974,4186.795,0,0
345,9,0,3601,4186.282,4182.436,4181.282,4189.744000000001,4193.974,4185.513,4190.513,4187.821,4190.385,4197.821,4216.026,4193.59,4194.487,4194.359,0,0
346,10,0,3468,4181.282,4193.462,4171.41,4190.897,4192.179,4181.538,4179.872,4180.385,4183.59,4195.255999999999,4207.9490000000005,4185.769,4185.255999999999,4186.923,0,0
347,11,0,3339,4177.308,4197.564,4167.436,4180.385,4180.385,4186.026,4183.333,4187.436,4187.179,4198.205,4202.436,4179.487,4184.872,4176.923,0,0
348,12,0,3076,4179.744000000001,4184.359,4170.641,4163.974,4187.564,4182.821,4180.0,4183.462,4188.333,4199.359,4197.692,4178.462,4187.9490000000005,4179.872,0,0
349,13,0,3277,4175.385,4182.179,4166.026,4166.154,4185.641,4170.641,4169.103,4178.205,4182.0509999999995,4193.718,4195.255999999999,4176.667,4183.077,4184.359,0,0
350,14,0,3468,4178.333,4196.282,4171.795,4183.846,4173.974,4176.795,4180.897,4195.0,4191.795,4199.615,4202.436,4182.821,4187.821,4186.795,0,0
351,15,0,3339,4187.692,4202.564,4182.564,4181.795,4183.462,4190.641,4196.923,4201.795,4204.103,4208.718,4209.744000000001,4188.718,4197.0509999999995,4189.744000000001,0,0
352,16,0,0,4183.077,4198.59,4175.385,4170.641,4190.0,4186.41,4182.692,4176.154,4188.205,4195.769,4204.231,4179.487,4185.513,4183.205,0,0
353,17,0,0,4175.641,4200.769,4166.538,4184.872,4183.077,4177.564,4169.615,4160.0,4174.231,4182.0509999999995,4197.692,4170.385,4176.795,4177.564,0,0
354,18,0,0,4190.255999999999,4208.077,4182.436,4206.795,4193.974,4181.41,4180.385,4178.718,4185.769,4192.179,4201.282,4183.718,4189.744000000001,4191.282,0,0
355,19,0,0,4191.41,4206.795,4183.205,4198.333,4202.436,4184.744000000001,4182.9490000000005,4188.974,4191.538,4195.769,4200.897,4187.436,4189.615,4192.179,0,0
356,20,0,0,4176.282,4199.615,4161.154,4170.513,4186.026,4183.205,4175.128,4176.154,4181.282,4182.821,4189.231,4172.9490000000005,4173.205,4173.077,0,0
357,21,0,0,4177.179,4200.897,4161.41,4167.9490000000005,4180.897,4186.154,4180.0,4174.359,4180.385,4187.308,4186.667,4176.538,4178.205,4174.231,0,0
358,22,0,0,4194.872,4204.744000000001,4187.821,4182.179,4187.9490000000005,4187.0509999999995,4193.974,4188.846,4186.795,4198.59,4200.385,4196.795,4191.795,4196.923,0,0
359,23,0,0,4193.846,4200.897,4190.385,4182.821,4179.744000000001,4183.846,4196.026,4193.846,4185.513,4196.026,4205.769,4197.179,4187.436,4199.231,0,0
360,24,0,0,4190.897,4202.308,4182.0509999999995,4186.795,4176.282,4184.231,4188.718,4188.718,4185.0,4196.538,4205.0,4195.0,4184.359,4193.59,0,0
361,25,0,0,4198.077,4217.821,4190.385,4198.59,4196.154,4190.255999999999,4186.923,4187.564,4190.128,4201.41,4211.667,4204.872,4188.974,4203.077,0,0
362,26,0,0,4205.513,4216.923,4196.282,4199.103,4204.231,4188.718,4189.231,4189.744000000001,4191.41,4197.821,4211.795,4203.462,4185.255999999999,4209.359,0,0
363,27,0,0,4198.846,4197.436,4185.897,4193.718,4183.077,4180.0,4185.0,4185.255999999999,4186.026,4190.255999999999,4199.103,4187.179,4178.462,4197.0509999999995,0,0
364,28,0,0,4181.795,4195.0,4167.0509999999995,4181.41,4170.769,4176.667,4175.128,4171.282,4178.718,4181.154,4189.231,4174.103,4172.692,4175.513,0,0
365,29,0,0,4175.385,4201.923,4164.615,4168.59,4182.821,4186.282,4180.641,4171.026,4179.359,4180.255999999999,4189.487,4177.692,4171.538,4174.103,0,0
366,30,0,0,4178.846,4198.462,4173.974,4179.487,4191.282,4192.692,4187.564,4177.9490000000005,4181.667,4188.077,4190.255999999999,4182.0509999999995,4181.538,4182.0509999999995,0,0
367,31,0,0,4180.0,4199.359,4172.564,4193.59,4181.667,4181.282,4179.615,4171.538,4177.564,4186.923,4186.154,4174.487,4186.538,4175.897,0,0
368,32,0,0,4167.564,4198.205,4155.641,4172.564,4170.128,4167.436,4169.744000000001,4167.436,4169.487,4175.641,4174.615,4159.231,4172.692,4159.359,0,0
369,33,0,0,4163.333,4191.282,4153.718,4157.436,4168.59,4166.795,4165.641,4168.462,4161.282,4168.974,4165.128,4155.0,4161.795,4153.462,0,0
370,34,0,0,4169.872,4203.718,4165.255999999999,4177.308,4176.923,4172.436,4169.359,4169.359,4161.154,4174.359,4170.769,4163.077,4169.615,4159.872,0,0
371,35,0,0,4178.077,4212.821,4175.255999999999,4191.154,4188.718,4170.769,4179.872,4169.487,4169.231,4180.513,4183.077,4173.59,4177.308,4171.923,0,0
372,36,0,0,4181.538,4202.179,4179.744000000001,4184.359,4188.205,4169.231,4185.769,4162.0509999999995,4170.769,4178.846,4183.846,4177.436,4174.744000000001,4180.255999999999,0,0
373,37,0,0,4182.692,4207.308,4171.795,4182.9490000000005,4184.872,4176.667,4173.077,4148.077,4158.59,4172.436,4177.0509999999995,4172.9490000000005,4167.692,4174.231,0,0
374,38,0,0,4175.0,4219.359,4163.462,4180.0,4190.769,4180.0,4162.9490000000005,4152.179,4160.128,4176.538,4178.974,4168.077,4170.0,4165.255999999999,0,0
375,39,0,0,4172.9490000000005,4208.974,4173.846,4177.436,4188.846,4177.564,4173.846,4169.103,4173.974,4184.231,4182.308,4172.564,4175.897,4170.897,0,0
376,40,0,0,4177.308,4198.333,4180.0,4188.846,4185.0,4177.436,4177.564,4173.846,4170.513,4179.872,4182.436,4175.769,4170.255999999999,4178.205,0,0
377,41,0,0,4179.744000000001,4201.667,4172.692,4196.026,4187.0509999999995,4181.795,4170.769,4172.692,4166.282,4180.128,4186.026,4175.897,4172.821,4177.308,0,0
378,42,0,0,4172.564,4205.641,4168.205,4181.41,4180.769,4185.385,4177.9490000000005,4176.538,4176.538,4190.255999999999,4183.718,4175.385,4185.255999999999,4170.385,0,0
379,43,0,0,4172.821,4199.103,4175.641,4174.359,4176.923,4187.179,4192.821,4190.0,4185.128,4193.462,4180.0,4173.333,4186.026,4168.333,0,0
380,44,0,0,4180.0,4183.59,4178.974,4183.846,4185.897,4180.897,4185.128,4190.0,4176.795,4185.255999999999,4179.872,4171.282,4179.744000000001,4172.564,0,0
381,45,0,0,4175.513,4185.897,4169.744000000001,4182.308,4189.615,4176.538,4172.9490000000005,4167.436,4159.744000000001,4175.513,4175.641,4171.026,4178.846,4175.255999999999,0,0
382,46,0,0,4171.538,4203.718,4172.179,4178.077,4183.59,4181.538,4187.179,4169.744000000001,4161.538,4176.41,4177.0509999999995,4175.513,4179.231,4174.872,0,0
383,47,0,0,4177.564,4201.795,4186.026,4186.538,4186.667,4187.821,4209.359,4199.744000000001,4185.513,4189.872,4186.923,4181.795,4184.231,4174.744000000001,0,0
384,48,0,0,4177.179,4187.821,4180.769,4185.897,4188.462,4189.359,4206.795,4200.641,4193.974,4191.795,4184.872,4183.333,4187.9490000000005,4172.564,0,0
385,49,0,0,4169.872,4186.538,4165.897,4183.333,4182.179,4182.436,4191.41,4180.769,4178.59,4184.487,4178.333,4177.821,4179.744000000001,4168.718,0,0
386,50,0,0,4188.462,4200.385,4183.718,4192.821,4184.744000000001,4186.026,4198.846,4194.744000000001,4183.846,4197.179,4192.692,4189.615,4185.897,4185.513,0,0
387,51,0,0,4199.487,4212.308,4196.154,4193.974,4200.0,4196.795,4207.0509999999995,4211.154,4200.255999999999,4208.462,4204.744000000001,4202.9490000000005,4195.0,4198.974,0,0
388,52,0,0,4186.923,4214.231,4180.641,4186.538,4209.872,4191.538,4194.744000000001,4197.179,4191.923,4193.846,4194.615,4195.641,4178.205,4186.41,0,0
389,53,0,0,4183.077,4207.179,4177.436,4189.359,4196.282,4180.897,4192.821,4198.077,4184.231,4187.821,4185.513,4188.718,4170.769,4178.462,0,0
390,54,0,0,4194.615,4205.385,4193.077,4190.128,4186.538,4190.769,4204.359,4206.667,4190.385,4195.385,4193.205,4197.179,4185.385,4188.974,0,0
391,55,0,0,4194.872,4211.026,4194.487,4193.462,4201.667,4203.077,4200.255999999999,4188.974,4189.103,4195.897,4202.179,4204.487,4187.9490000000005,4197.0509999999995,0,0
392,56,0,0,4196.795,4217.9490000000005,4193.462,4202.179,4208.205,4195.385,4191.667,4180.513,4185.513,4198.846,4203.846,4208.462,4182.179,4201.667,0,0
393,57,0,0,4201.538,4216.154,4199.744000000001,4199.103,4191.667,4184.744000000001,4195.769,4190.769,4190.0,4203.59,4200.385,4209.103,4186.538,4202.0509999999995,0,0
394,58,0,0,4195.0,4206.282,4195.255999999999,4196.41,4183.974,4188.333,4192.9490000000005,4174.872,4185.897,4195.0,4189.615,4198.59,4182.821,4189.615,0,0
395,59,0,0,4183.205,4206.923,4178.718,4196.026,4200.0,4193.077,4176.41,4159.744000000001,4178.59,4185.769,4183.718,4187.821,4174.487,4180.385,0,0
396,60,0,0,4180.513,4208.077,4169.487,4184.231,4206.026,4191.282,4170.513,4170.897,4179.872,4187.821,4185.0,4187.0509999999995,4177.692,4177.692,0,0
397,61,0,0,4187.821,4204.487,4180.513,4182.692,4190.641,4192.821,4184.744000000001,4172.564,4179.872,4193.077,4185.769,4193.333,4181.795,4181.923,0,0
398,62,0,0,4192.0509999999995,4209.487,4191.41,4198.462,4185.385,4194.615,4195.385,4164.615,4180.128,4196.154,4187.0509999999995,4197.0509999999995,4183.718,4190.897,0,0
399,63,0,0,4198.974,4217.436,4197.308,4204.615,4201.154,4191.923,4193.846,4173.205,4183.59,4198.205,4195.255999999999,4202.564,4185.897,4198.077,0,0
400,64,0,3233,4205.385,4216.923,4202.436,4207.308,4207.0509999999995,4197.179,4197.0509999999995,4183.846,4187.179,4205.641,4207.0509999999995,4211.026,4189.103,4203.205,0,0
401,65,0,3350,4206.154,4207.0509999999995,4205.0,4210.897,4193.59,4199.615,4194.615,4181.795,4184.744000000001,4205.255999999999,4203.462,4211.667,4191.282,4204.872,0,0
402,66,0,2851,4197.821,4197.179,4195.897,4196.667,4183.974,4182.179,4177.308,4169.872,4174.615,4189.744000000001,4191.538,4199.359,4182.436,4198.077,0,0
403,67,0,3532,4196.667,4196.795,4191.282,4188.718,4185.0,4172.179,4174.103,4161.923,4168.846,4181.538,4190.897,4196.667,4171.41,4195.0,0,0
404,68,0,3459,4196.795,4206.667,4194.103,4202.179,4190.769,4183.974,4182.436,4168.718,4176.154,4191.538,4193.59,4201.538,4176.41,4196.026,0,0
405,69,0,3365,4199.103,4207.179,4193.718,4207.436,4190.128,4191.795,4181.667,4175.769,4179.359,4197.9490000000005,4192.308,4204.872,4183.333,4197.0509999999995,0,0
406,70,0,3375,4197.692,4199.103,4186.41,4191.795,4182.308,4184.487,4176.667,4165.128,4174.487,4194.359,4193.846,4201.538,4180.0,4197.9490000000005,0,0
407,71,0,3441,4198.846,4206.282,4187.9490000000005,4190.769,4187.692,4177.821,4175.641,4163.333,4180.0,4194.744000000001,4197.436,4202.0509999999995,4178.974,4200.128,0,0
408,72,0,3446,4200.897,4218.718,4196.923,4204.744000000001,4201.923,4185.255999999999,4181.538,4176.41,4188.718,4197.692,4196.795,4206.795,4182.9490000000005,4200.128,0,0
409,73,0,3596,4204.359,4217.9490000000005,4201.026,4206.795,4203.205,4191.282,4192.179,4176.026,4184.872,4198.59,4197.436,4208.205,4185.0,4199.744000000001,0,0
410,74,0,3464,4201.667,4217.821,4196.795,4208.205,4201.154,4182.9490000000005,4196.795,4176.667,4183.205,4201.41,4194.103,4203.974,4187.179,4196.923,0,0
411,75,0,3329,4193.077,4217.436,4189.487,4206.795,4199.359,4175.0,4185.641,4177.308,4183.333,4199.103,4186.282,4195.769,4183.462,4189.487,0,0
412,76,0,3062,4189.744000000001,4206.667,4185.897,4196.154,4186.282,4182.9490000000005,4179.615,4167.692,4177.692,4188.846,4180.128,4190.769,4176.795,4180.897,0,0
413,77,0,3267,4187.0509999999995,4200.0,4180.769,4190.0,4184.231,4188.205,4186.154,4168.333,4174.231,4182.179,4171.795,4185.255999999999,4179.103,4173.974,0,0
414,78,0,3464,4182.308,4204.103,4177.0509999999995,4198.077,4197.821,4182.692,4186.154,4176.282,4174.615,4185.0,4172.692,4182.0509999999995,4185.641,4175.128,0,0
415,79,0,3329,4178.59,4201.923,4175.641,4198.205,4203.462,4181.923,4172.564,4160.897,4169.359,4183.718,4174.872,4180.769,4182.9490000000005,4174.359,0,0
416,80,0,3062,4178.205,4198.974,4176.026,4185.255999999999,4199.744000000001,4184.872,4168.718,4145.128,4157.308,4174.744000000001,4168.974,4181.282,4173.077,4168.846,0,0
417,81,0,3267,4171.795,4207.0509999999995,4172.436,4185.385,4191.923,4185.128,4184.231,4163.59,4160.255999999999,4172.9490000000005,4168.846,4178.205,4171.154,4167.436,0,0
418,82,0,3464,4168.846,4208.462,4170.897,4189.872,4179.615,4185.641,4190.385,4174.615,4170.513,4176.282,4172.9490000000005,4170.897,4171.795,4166.41,0,0
419,83,0,3329,4162.308,4192.9490000000005,4162.0509999999995,4172.308,4186.667,4183.974,4181.154,4164.872,4168.974,4174.231,4166.795,4162.821,4166.026,4155.641,0,0
420,84,0,3062,4159.872,4184.872,4157.564,4163.718,4203.718,4184.231,4185.128,4171.667,4167.821,4173.333,4162.692,4160.897,4164.231,4152.564,0,0
421,85,0,3267,4164.359,4196.282,4164.231,4180.897,4197.9490000000005,4188.718,4194.744000000001,4181.026,4171.667,4176.282,4166.795,4161.923,4168.077,4160.897,0,0
422,86,0,3464,4163.333,4195.128,4163.974,4177.308,4192.821,4184.103,4187.9490000000005,4169.359,4167.436,4172.436,4163.077,4160.385,4167.821,4157.9490000000005,0,0
423,87,0,3329,4157.9490000000005,4177.821,4158.974,4164.872,4197.564,4176.026,4180.769,4163.333,4163.462,4167.9490000000005,4157.179,4157.9490000000005,4169.231,4152.692,0,0
424,88,0,3062,4161.026,4178.462,4159.103,4170.255999999999,4190.385,4174.103,4179.615,4173.846,4165.385,4166.282,4154.744000000001,4154.615,4165.385,4154.615,0,0
425,89,0,3267,4153.205,4194.103,4150.769,4164.872,4179.231,4172.436,4168.462,4168.205,4159.744000000001,4161.026,4150.0,4147.9490000000005,4157.9490000000005,4150.255999999999,0,0
426,90,0,3464,4151.538,4202.436,4151.41,4163.077,4179.744000000001,4169.615,4160.769,4155.385,4155.255999999999,4162.692,4155.641,4150.385,4165.255999999999,4151.154,0,0
427,91,0,3329,4168.846,4202.564,4168.846,4180.255999999999,4183.718,4168.333,4165.385,4157.308,4162.9490000000005,4175.385,4165.769,4161.923,4176.026,4163.205,0,0
428,92,0,3062,4169.872,4198.846,4165.513,4175.897,4184.872,4167.9490000000005,4163.59,4157.179,4164.231,4177.9490000000005,4163.718,4162.692,4170.385,4161.154,0,0
429,93,0,3267,4158.462,4193.974,4153.462,4161.154,4187.0509999999995,4172.9490000000005,4159.872,4157.308,4162.821,4169.872,4158.333,4157.821,4164.103,4155.0,0,0
430,94,0,3464,4162.821,4194.103,4161.795,4172.179,4188.077,4185.769,4171.41,4172.436,4175.769,4179.103,4165.0,4163.59,4174.487,4165.513,0,0
431,95,0,3329,4172.564,4191.282,4170.769,4177.308,4186.538,4185.769,4178.59,4176.282,4181.923,4190.897,4167.308,4171.154,4180.897,4170.897,0,0
432,96,0,3062,4169.359,4175.897,4164.872,4172.179,4181.667,4171.026,4163.077,4158.59,4168.718,4183.974,4161.41,4165.641,4171.795,4160.897,0,0
433,97,0,3267,4175.513,4175.897,4171.41,4177.0509999999995,4184.359,4172.821,4158.718,4166.923,4170.641,4180.385,4172.0509999999995,4170.385,4173.077,4169.103,0,0
434,98,0,3464,4178.077,4195.255999999999,4175.641,4182.179,4183.974,4188.205,4175.897,4192.179,4189.615,4191.667,4182.821,4180.385,4186.667,4182.308,0,0
435,99,0,3329,4167.308,4191.538,4158.59,4175.255999999999,4171.538,4181.41,4171.667,4177.0509999999995,4182.308,4184.487,4169.231,4169.615,4179.872,4169.615,0,0
436,100,0,3062,4156.923,4177.436,4146.795,4166.667,4175.641,4166.41,4159.872,4156.667,4168.59,4172.308,4160.255999999999,4157.692,4169.744000000001,4154.359,0,0
437,101,0,3267,4168.462,4184.231,4169.872,4184.615,4190.128,4176.795,4180.128,4180.385,4185.641,4192.436,4176.41,4174.103,4185.255999999999,4168.718,0,0
438,102,0,3464,4176.282,4189.487,4183.462,4195.769,4187.308,4187.179,4189.744000000001,4201.667,4199.615,4209.103,4185.255999999999,4184.487,4194.872,4179.744000000001,0,0
439,103,0,3329,4166.282,4185.513,4163.974,4168.077,4179.615,4176.667,4168.718,4191.795,4193.846,4197.821,4176.667,4174.487,4185.0,4166.795,0,0
440,104,0,3062,4151.41,4180.897,4147.0509999999995,4144.103,4173.077,4169.487,4159.744000000001,4179.744000000001,4185.513,4186.282,4168.846,4163.718,4176.538,4152.436,0,0
441,105,0,3267,4151.667,4172.9490000000005,4149.103,4155.513,4165.769,4170.385,4163.333,4172.436,4173.077,4176.667,4161.795,4156.667,4168.59,4148.974,0,0
442,106,0,3464,4162.0509999999995,4178.462,4158.077,4170.255999999999,4174.487,4170.385,4163.59,4171.667,4169.231,4170.0,4159.487,4157.9490000000005,4165.385,4156.282,0,0
443,107,0,3329,4169.487,4188.59,4168.846,4169.615,4173.462,4174.359,4170.513,4176.538,4180.385,4177.9490000000005,4166.154,4169.359,4172.9490000000005,4163.59,0,0
444,108,0,3062,4167.0509999999995,4180.385,4166.538,4170.513,4154.231,4173.462,4165.385,4170.385,4175.255999999999,4175.769,4163.846,4169.615,4167.9490000000005,4157.9490000000005,0,0
445,109,0,3267,4161.026,4177.9490000000005,4151.667,4169.359,4163.462,4167.821,4151.538,4160.513,4160.0,4160.255999999999,4156.538,4156.795,4157.821,4149.872,0,0
446,110,0,3464,4172.0509999999995,4187.821,4164.487,4180.0,4188.718,4178.718,4166.795,4173.205,4172.692,4171.026,4168.333,4166.667,4170.0,4164.359,0,0
447,111,0,3329,4181.154,4185.385,4182.564,4193.333,4189.359,4187.308,4181.538,4187.179,4195.128,4192.821,4181.282,4182.564,4188.974,4179.231,0,0
448,112,0,3062,4173.846,4184.744000000001,4173.718,4184.744000000001,4180.255999999999,4173.718,4166.538,4178.718,4190.128,4185.897,4172.692,4176.282,4186.538,4172.308,0,0
449,113,0,3267,4168.333,4191.667,4165.513,4172.9490000000005,4176.795,4171.667,4166.41,4177.0509999999995,4180.769,4176.667,4169.103,4168.333,4178.462,4164.359,0,0
450,114,0,3464,4175.0,4183.974,4169.487,4172.821,4170.385,4188.077,4182.692,4189.615,4187.564,4186.667,4175.769,4174.615,4184.872,4165.897,0,0
451,115,0,3329,4165.385,4171.923,4154.872,4167.308,4169.103,4183.974,4177.0509999999995,4188.077,4185.128,4185.641,4165.641,4167.692,4186.026,4159.103,0,0
452,116,0,3062,4157.0509999999995,4170.385,4145.513,4159.103,4170.769,4173.205,4172.0509999999995,4179.487,4174.231,4172.179,4158.205,4157.564,4175.385,4153.333,0,0
453,117,0,3267,4160.769,4174.872,4156.154,4164.359,4170.769,4180.513,4176.795,4184.615,4177.821,4175.641,4163.846,4163.333,4169.359,4157.436,0,0
454,118,0,3464,4162.0509999999995,4171.667,4157.564,4172.564,4175.385,4177.9490000000005,4172.9490000000005,4190.513,4184.103,4182.692,4161.41,4165.641,4170.769,4156.41,0,0
455,119,0,3329,4158.59,4167.436,4153.205,4178.462,4166.41,4168.333,4173.974,4184.744000000001,4180.641,4178.718,4159.103,4161.154,4177.308,4152.308,0,0
456,120,0,3062,4159.487,4178.462,4155.513,4177.564,4162.179,4176.538,4174.744000000001,4174.615,4176.795,4176.026,4166.538,4162.179,4181.538,4154.487,0,0
457,121,0,3267,4157.436,4182.9490000000005,4153.205,4163.077,4183.974,4181.41,4164.487,4167.0509999999995,4177.179,4178.077,4164.487,4159.615,4175.641,4152.9490000000005,0,0
458,122,0,3464,4158.462,4173.59,4153.59,4161.026,4184.744000000001,4176.026,4169.231,4168.59,4176.41,4175.897,4158.205,4154.487,4167.308,4150.255999999999,0,0
459,123,0,3329,4158.59,4174.231,4158.077,4168.462,4161.026,4179.615,4183.59,4176.667,4177.179,4175.128,4161.41,4158.077,4170.769,4150.769,0,0
460,124,0,3062,4153.205,4181.923,4154.744000000001,4160.128,4168.974,4184.231,4177.564,4183.718,4182.436,4181.795,4164.615,4161.795,4180.513,4148.846,0,0
461,125,0,3267,4156.795,4182.564,4157.436,4155.769,4193.846,4178.462,4173.974,4191.923,4188.333,4188.59,4164.872,4164.103,4186.795,4153.205,0,0
462,126,0,3464,4157.564,4177.9490000000005,4163.59,4172.692,4183.718,4173.846,4184.872,4193.718,4184.487,4184.103,4161.282,4164.487,4182.179,4156.795,0,0
463,127,0,55,4152.821,4167.692,4159.231,4171.795,4168.846,4177.692,4188.077,4185.255999999999,4173.718,4172.9490000000005,4156.41,4162.179,4170.897,4149.744000000001,0,0
464,0,0,3244,4148.333,4156.667,4150.385,4150.897,4179.872,4181.026,4183.205,4179.615,4173.462,4171.026,4152.9490000000005,4157.179,4169.103,4143.846,0,0
465,1,0,3382,4161.538,4173.846,4167.179,4161.923,4186.282,4186.154,4192.692,4194.615,4187.308,4186.282,4163.59,4171.667,4183.205,4161.026,0,0
466,2,0,2860,4174.359,4197.9490000000005,4183.974,4186.026,4182.692,4191.795,4207.179,4211.667,4203.462,4204.103,4180.641,4190.128,4197.0509999999995,4179.231,0,0
467,3,0,3541,4171.538,4189.872,4172.9490000000005,4178.462,4187.692,4190.385,4206.795,4213.59,4203.462,4201.154,4181.667,4183.846,4195.385,4175.513,0,0
468,4,0,3474,4160.128,4170.897,4155.0,4159.872,4193.462,4186.154,4198.077,4212.179,4193.59,4188.333,4169.231,4166.667,4184.744000000001,4165.385,0,0
469,5,0,3372,4160.641,4169.487,4160.769,4161.795,4177.9490000000005,4184.615,4195.769,4208.077,4189.359,4188.846,4158.718,4168.462,4176.538,4165.385,0,0
470,6,0,3384,4160.513,4166.923,4167.9490000000005,4172.0509999999995,4161.282,4183.462,4198.333,4196.795,4188.077,4190.128,4156.282,4175.769,4173.846,4165.641,0,0
471,7,0,3437,4155.255999999999,4155.641,4158.462,4165.255999999999,4179.744000000001,4176.538,4190.385,4184.872,4180.255999999999,4176.795,4158.333,4170.897,4170.897,4161.026,0,0
472,8,0,3449,4155.255999999999,4158.077,4155.128,4146.538,4191.923,4177.821,4178.974,4181.795,4177.0509999999995,4172.564,4161.538,4165.513,4168.974,4160.255999999999,0,0
473,9,0,3599,4165.513,4170.641,4167.436,4154.359,4162.436,4186.667,4183.846,4186.154,4182.564,4182.692,4166.41,4172.179,4169.231,4166.026,0,0
474,10,0,3466,4166.923,4178.333,4169.615,4181.154,4152.0509999999995,4183.462,4188.718,4188.59,4185.255999999999,4186.282,4166.923,4176.154,4173.462,4165.255999999999,0,0
475,11,0,3335,4157.436,4174.872,4156.538,4174.359,4183.846,4170.641,4172.564,4178.718,4183.462,4184.103,4163.077,4167.9490000000005,4181.538,4158.333,0,0
476,12,0,3063,4157.436,4169.615,4155.897,4155.128,4194.487,4165.0,4160.0,4174.359,4181.282,4184.231,4162.821,4165.385,4181.026,4160.641,0,0
477,13,0,3271,4170.513,4177.436,4164.231,4164.231,4180.255999999999,4172.0509999999995,4171.026,4183.846,4183.077,4189.231,4172.436,4173.59,4182.0509999999995,4173.462,0,0
478,14,0,3466,4182.0509999999995,4184.872,4170.385,4174.103,4185.513,4180.513,4184.615,4182.308,4188.846,4196.41,4180.769,4182.0509999999995,4195.255999999999,4181.538,0,0
479,15,0,3335,4180.897,4186.282,4172.692,4174.103,4185.255999999999,4188.974,4191.41,4180.513,4195.897,4200.897,4180.255999999999,4183.333,4201.41,4180.385,0,0
480,16,0,0,4177.564,4190.0,4170.255999999999,4177.9490000000005,4173.718,4190.897,4193.718,4185.385,4193.333,4193.462,4175.255999999999,4180.897,4186.026,4176.282,0,0
481,17,0,0,4170.0,4188.59,4167.9490000000005,4176.154,4172.821,4180.641,4186.538,4173.077,4180.897,4181.282,4167.821,4173.205,4172.564,4168.077,0,0
482,18,0,0,4172.308,4180.0,4178.077,4174.615,4173.462,4177.436,4179.615,4157.821,4172.564,4177.0509999999995,4162.9490000000005,4173.462,4175.897,4165.0,0,0
483,19,0,0,4173.846,4180.385,4172.564,4176.154,4175.641,4182.308,4178.205,4164.487,4174.872,4174.615,4157.308,4173.846,4173.59,4164.103,0,0
484,20,0,0,4178.205,4185.255999999999,4167.821,4174.744000000001,4173.205,4184.103,4185.385,4177.0509999999995,4182.308,4172.179,4158.462,4173.974,4167.692,4169.615,0,0
485,21,0,0,4187.0509999999995,4189.103,4183.718,4173.59,4167.564,4184.487,4195.128,4180.897,4187.308,4179.872,4172.0509999999995,4182.9490000000005,4177.179,4181.41,0,0
486,22,0,0,4181.795,4176.923,4178.205,4173.205,4174.231,4179.744000000001,4189.359,4177.308,4180.641,4183.59,4171.923,4179.744000000001,4181.795,4175.128,0,0
487,23,0,0,4158.333,4155.641,4149.744000000001,4165.255999999999,4174.359,4172.179,4179.103,4168.846,4167.436,4175.513,4157.308,4158.846,4167.436,4152.692,0,0
488,24,0,0,4154.744000000001,4161.41,4151.795,4156.282,4162.9490000000005,4180.0,4186.282,4170.255999999999,4167.179,4173.462,4156.41,4158.077,4163.974,4150.0,0,0
489,25,0,0,4169.359,4182.9490000000005,4173.59,4161.282,4174.103,4192.436,4199.231,4179.872,4177.692,4180.641,4166.154,4175.897,4181.923,4165.769,0,0
490,26,0,0,4178.59,4193.205,4179.487,4178.59,4195.128,4188.333,4199.487,4190.513,4184.872,4182.0509999999995,4168.462,4182.308,4188.205,4171.538,0,0
491,27,0,0,4190.255999999999,4200.641,4184.487,4191.667,4182.179,4186.538,4200.897,4196.026,4188.974,4183.718,4164.744000000001,4184.359,4182.9490000000005,4174.744000000001,0,0
492,28,0,0,4193.333,4205.255999999999,4184.231,4179.103,4175.513,4183.974,4196.026,4182.564,4184.872,4181.667,4162.308,4184.103,4178.462,4176.923,0,0
493,29,0,0,4179.487,4200.769,4175.0,4172.179,4196.154,4170.897,4178.59,4168.462,4173.974,4173.205,4165.0,4181.026,4167.564,4172.308,0,0
494,30,0,0,4177.179,4195.513,4184.103,4192.436,4179.359,4181.026,4187.692,4184.615,4182.9490000000005,4185.255999999999,4174.744000000001,4189.103,4173.59,4174.231,0,0
495,31,0,0,4183.333,4193.59,4193.974,4185.897,4149.103,4204.231,4206.026,4202.179,4199.744000000001,4200.128,4179.103,4195.385,4193.205,4179.744000000001,0,0
496,32,0,0,4165.128,4193.205,4168.077,4153.846,4172.9490000000005,4191.282,4184.359,4182.564,4184.231,4182.692,4166.538,4179.103,4186.795,4167.821,0,0
497,33,0,0,4166.923,4197.564,4164.359,4168.974,4201.41,4172.821,4170.513,4165.128,4165.0,4165.513,4159.487,4175.513,4171.538,4163.718,0,0
498,34,0,0,4193.333,4209.615,4195.0,4207.821,4187.308,4192.9490000000005,4199.487,4175.897,4178.718,4179.359,4170.897,4192.308,4182.564,4181.026,0,0
499,35,0,0,4206.154,4222.436,4205.255999999999,4196.282,4183.333,4211.923,4211.026,4184.872,4187.692,4189.615,4181.41,4202.0509999999995,4191.282,4191.538,0,0
500,36,0,0,4198.205,4223.333,4197.0509999999995,4180.385,4196.154,4195.897,4190.513,4177.308,4178.974,4182.0509999999995,4177.179,4199.487,4181.923,4186.795,0,0
501,37,0,0,4190.769,4221.795,4199.103,4192.9490000000005,4194.872,4179.103,4184.615,4178.077,4179.103,4180.641,4174.359,4197.0509999999995,4180.897,4184.231,0,0
502,38,0,0,4184.103,4210.641,4196.667,4185.128,4192.692,4192.564,4192.9490000000005,4194.615,4186.795,4193.077,4182.9490000000005,4197.564,4187.0509999999995,4183.59,0,0
503,39,0,0,4182.0509999999995,4190.897,4191.667,4165.255999999999,4191.538,4204.103,4199.615,4194.103,4185.385,4198.718,4185.128,4197.179,4182.9490000000005,4179.103,0,0
504,40,0,0,4173.333,4201.026,4185.513,4161.538,4185.0,4190.769,4194.872,4180.897,4176.538,4183.077,4172.564,4187.436,4172.821,4169.487,0,0
505,41,0,0,4166.026,4223.205,4173.077,4167.692,4175.128,4179.359,4178.59,4182.179,4167.9490000000005,4166.026,4161.282,4174.872,4163.974,4159.744000000001,0,0
506,42,0,0,4174.872,4217.0509999999995,4174.487,4175.0,4176.667,4183.462,4178.718,4185.769,4164.359,4167.308,4161.923,4173.974,4163.718,4161.282,0,0
507,43,0,0,4182.179,4210.641,4183.205,4177.821,4197.564,4185.0,4186.923,4172.692,4166.667,4173.077,4166.538,4179.487,4170.641,4168.974,0,0
508,44,0,0,4184.744000000001,4221.667,4189.103,4167.436,4198.205,4186.41,4183.718,4170.385,4170.385,4176.026,4171.282,4190.255999999999,4180.385,4176.282,0,0
509,45,0,0,4185.641,4213.462,4192.9490000000005,4157.308,4176.667,4189.231,4180.769,4185.0,4174.615,4178.846,4171.282,4194.103,4181.282,4175.513,0,0
510,46,0,0,4181.154,4198.462,4189.744000000001,4156.667,4179.872,4181.026,4183.077,4183.846,4172.179,4176.923,4166.923,4187.0509999999995,4171.923,4168.974,0,0
511,47,0,0,4176.667,4202.821,4182.564,4165.0,4192.436,4182.9490000000005,4185.255999999999,4173.718,4168.974,4176.282,4167.0509999999995,4181.538,4171.923,4166.282,0,0
512,48,0,0,4182.308,4213.077,4183.718,4184.872,4184.487,4196.41,4188.333,4175.385,4171.41,4178.205,4168.846,4181.923,4177.9490000000005,4168.333,0,0
513,49,0,0,4176.667,4210.128,4176.026,4169.231,4182.179,4191.538,4181.795,4179.744000000001,4168.333,4172.436,4160.513,4173.974,4170.897,4163.846,0,0
514,50,0,0,4176.026,4204.872,4174.744000000001,4136.923,4192.308,4180.769,4174.231,4182.179,4167.308,4169.103,4160.641,4177.564,4162.821,4167.308,0,0
515,51,0,0,4180.513,4208.205,4180.513,4146.026,4196.026,4184.615,4178.59,4185.128,4175.0,4178.718,4171.795,4188.59,4172.692,4176.41,0,0
516,52,0,0,4181.41,4209.744000000001,4184.231,4168.718,4175.897,4190.769,4189.872,4185.128,4178.462,4183.077,4173.59,4189.744000000001,4179.359,4175.897,0,0
517,53,0,0,4172.564,4207.9490000000005,4184.872,4171.154,4158.59,4186.282,4191.282,4183.462,4174.487,4174.487,4165.0,4183.718,4171.667,4167.179,0,0
518,54,0,0,4163.205,4201.154,4181.154,4165.128,4174.359,4181.795,4190.0,4182.436,4172.179,4166.667,4156.923,4175.0,4167.9490000000005,4158.974,0,0
519,55,0,0,4157.436,4198.718,4169.872,4156.41,4192.179,4185.513,4191.538,4179.359,4168.974,4163.718,4152.179,4164.487,4169.231,4155.128,0,0
520,56,0,0,4161.795,4210.0,4164.744000000001,4152.564,4191.026,4184.487,4191.41,4181.795,4166.026,4162.179,4154.103,4161.41,4166.795,4157.9490000000005,0,0
521,57,0,0,4170.385,4216.538,4175.897,4161.282,4198.718,4179.744000000001,4191.154,4192.9490000000005,4173.205,4168.974,4165.255999999999,4175.0,4167.564,4169.615,0,0
522,58,0,0,4176.923,4217.0509999999995,4188.846,4167.436,4207.692,4192.0509999999995,4195.641,4194.615,4184.359,4181.795,4173.974,4191.795,4175.0,4182.564,0,0
523,59,1,357,4177.564,4216.667,4187.0509999999995,4169.744000000001,4206.282,4193.462,4194.487,4193.846,4185.385,4182.436,4173.59,4190.255999999999,4176.538,4182.308,0,0
524,60,1,714,4178.205,4216.282,4185.255999999999,4172.0509999999995,4204.872,4194.872,4193.333,4193.077,4186.41,4183.077,4173.205,4188.718,4178.077,4182.0509999999995,0,0
525,61,1,1071,4178.846,4215.897,4183.462,4174.359,4203.462,4196.282,4192.179,4192.308,4187.436,4183.718,4172.821,4187.179,4179.615,4181.795,0,0
526,62,1,1428,4179.487,4215.513,4181.667,4176.667,4202.0509999999995,4197.692,4191.026,4191.538,4188.462,4184.359,4172.436,4185.641,4181.154,4181.538,0,0
527,63,1,1785,4180.128,4215.128,4179.872,4178.974,4200.641,4199.103,4189.872,4190.769,4189.487,4185.0,4172.0509999999995,4184.103,4182.692,4181.282,0,0
528,64,1,2142,4180.769,4214.744000000001,4178.077,4181.282,4199.231,4200.513,4188.718,4190.0,4190.513,4185.641,4171.667,4182.564,4184.231,4181.026,0,0
529,65,1,2499,4181.41,4214.359,4176.282,4183.59,4197.821,4201.923,4187.564,4189.231,4191.538,4186.282,4171.282,4181.026,4185.769,4180.769,0,0
530,66,0,2858,4182.564,4213.205,4174.359,4186.538,4196.41,4203.974,4186.41,4187.564,4193.077,4187.692,4170.897,4179.103,4187.436,4179.615,0,0
531,67,0,3520,4178.718,4212.436,4175.641,4175.641,4209.231,4200.513,4186.667,4193.718,4189.103,4181.923,4163.846,4171.154,4182.692,4175.513,0,0
532,68,0,3456,4179.744000000001,4217.564,4174.487,4157.564,4201.538,4191.923,4178.59,4185.128,4172.692,4176.667,4162.9490000000005,4170.255999999999,4172.564,4173.077,0,0
533,69,0,3360,4186.41,4210.513,4176.923,4162.564,4178.077,4185.385,4169.615,4163.333,4162.821,4172.821,4167.9490000000005,4174.103,4167.9490000000005,4178.974,0,0
534,70,0,3375,4186.923,4202.692,4182.308,4179.744000000001,4192.821,4185.0,4167.821,4175.255999999999,4171.41,4176.026,4166.538,4179.359,4175.769,4180.897,0,0
535,71,0,3437,4186.282,4214.103,4180.385,4186.154,4216.923,4185.513,4175.128,4192.308,4179.744000000001,4180.641,4170.255999999999,4182.821,4183.205,4178.59,0,0
536,72,0,3445,4191.41,4223.333,4182.308,4185.897,4207.9490000000005,4187.821,4182.308,4175.641,4178.974,4181.923,4183.846,4185.385,4185.513,4183.462,0,0
537,73,0,3593,4193.077,4218.333,4183.462,4186.41,4197.436,4187.436,4180.641,4162.9490000000005,4175.385,4178.205,4175.513,4180.897,4179.744000000001,4186.282,0,0
538,74,0,3463,4183.077,4214.615,4172.9490000000005,4177.692,4199.615,4183.846,4174.103,4169.487,4169.872,4172.0509999999995,4155.0,4172.564,4171.795,4179.359,0,0
539,75,0,3327,4179.615,4211.41,4170.0,4172.821,4201.026,4190.769,4179.744000000001,4172.0509999999995,4168.462,4173.205,4158.59,4173.205,4173.974,4175.769,0,0
540,76,0,3058,4186.026,4207.9490000000005,4181.923,4173.846,4202.436,4201.795,4186.026,4177.9490000000005,4173.462,4181.667,4173.462,4182.436,4179.487,4179.359,0,0
541,77,0,3264,4181.026,4213.077,4180.0,4171.538,4198.718,4203.462,4180.641,4184.872,4174.103,4184.487,4173.59,4179.872,4180.0,4176.923,0,0
542,78,0,3463,4179.103,4210.255999999999,4173.974,4177.308,4191.795,4196.923,4177.0509999999995,4173.205,4168.59,4178.077,4163.718,4173.205,4176.154,4173.846,0,0
543,79,0,3327,4178.462,4192.821,4173.718,4182.0509999999995,4200.897,4187.179,4175.128,4165.769,4174.744000000001,4179.359,4158.333,4170.769,4173.077,4170.769,0,0
544,80,0,3058,4176.538,4200.513,4177.692,4174.615,4207.179,4188.718,4173.846,4177.564,4186.026,4188.077,4169.872,4174.231,4178.205,4174.231,0,0
545,81,0,3264,4177.821,4227.179,4181.923,4180.385,4201.795,4195.897,4178.718,4185.641,4186.41,4191.026,4185.0,4180.0,4189.487,4184.359,0,0
546,82,0,3463,4188.205,4223.59,4186.282,4192.436,4201.026,4188.462,4183.333,4185.385,4185.128,4190.513,4177.179,4185.255999999999,4191.41,4187.564,0,0
547,83,0,3327,4181.667,4199.872,4182.179,4183.846,4194.487,4180.255999999999,4177.308,4189.359,4186.154,4190.897,4166.923,4183.462,4186.026,4181.41,0,0
548,84,0,3058,4170.641,4201.41,4176.795,4177.821,4187.9490000000005,4190.0,4177.0509999999995,4190.128,4182.179,4191.667,4176.026,4181.667,4187.821,4180.128,0,0
549,85,0,3264,4170.0,4206.282,4173.718,4172.179,4193.59,4187.564,4181.538,4173.462,4177.308,4187.0509999999995,4176.154,4177.436,4187.0509999999995,4180.128,0,0
550,86,0,3463,4172.179,4188.718,4170.128,4162.179,4194.103,4170.897,4172.308,4158.718,4172.692,4174.615,4158.59,4166.795,4174.103,4171.41,0,0
551,87,0,3327,4165.385,4184.231,4163.462,4170.641,4183.333,4171.154,4160.641,4159.744000000001,4163.718,4166.923,4150.128,4159.103,4166.41,4165.0,0,0
552,88,0,3058,4168.333,4202.308,4170.0,4181.154,4181.026,4181.026,4167.9490000000005,4168.077,4166.282,4175.385,4161.154,4170.255999999999,4178.718,4172.9490000000005,0,0
553,89,0,3264,4180.897,4209.103,4189.872,4181.538,4184.872,4186.154,4184.744000000001,4176.795,4177.436,4185.385,4170.513,4187.436,4188.718,4183.718,0,0
554,90,0,3463,4180.897,4200.255999999999,4187.436,4185.255999999999,4180.0,4185.897,4182.179,4179.615,4173.718,4180.641,4164.103,4182.179,4180.255999999999,4178.974,0,0
555,91,0,3327,4175.255999999999,4200.513,4172.308,4186.41,4186.923,4184.231,4170.513,4176.923,4169.487,4175.255999999999,4157.436,4170.385,4177.564,4169.615,0,0
556,92,0,3058,4178.59,4202.821,4174.487,4180.0,4196.538,4184.487,4176.026,4173.333,4176.154,4177.692,4161.41,4171.667,4181.282,4170.255999999999,0,0
557,93,0,3264,4188.846,4197.436,4188.077,4185.128,4182.179,4189.103,4183.462,4173.974,4176.667,4180.0,4166.282,4178.718,4180.513,4177.821,0,0
558,94,0,3463,4186.923,4200.769,4183.59,4190.128,4180.897,4191.795,4176.154,4184.872,4173.333,4180.0,4167.564,4175.128,4179.872,4179.744000000001,0,0
559,95,0,3327,4182.564,4202.564,4176.026,4181.538,4193.59,4183.974,4173.718,4185.255999999999,4171.282,4176.538,4162.0509999999995,4170.641,4178.077,4175.641,0,0
560,96,0,3058,4181.795,4189.359,4180.641,4180.513,4172.821,4181.667,4180.385,4170.385,4169.103,4174.744000000001,4153.846,4172.308,4174.231,4171.282,0,0
561,97,0,3264,4187.179,4180.128,4186.41,4194.103,4149.103,4187.821,4185.385,4171.923,4171.795,4176.282,4155.769,4177.308,4177.0509999999995,4175.641,0,0
562,98,0,3463,4178.205,4185.897,4174.872,4189.103,4168.462,4177.821,4183.59,4180.385,4172.179,4171.41,4156.538,4171.538,4178.077,4174.487,0,0
563,99,0,3327,4175.513,4186.538,4172.0509999999995,4169.231,4185.513,4164.231,4181.026,4176.667,4165.897,4167.0509999999995,4157.821,4172.436,4172.0509999999995,4172.821,0,0
564,100,0,3058,4189.487,4184.231,4187.436,4176.282,4173.462,4177.821,4186.282,4187.692,4174.615,4180.255999999999,4170.641,4189.872,4179.359,4184.744000000001,0,0
565,101,0,3264,4191.026,4187.179,4187.564,4190.255999999999,4168.974,4193.077,4189.487,4200.641,4190.769,4189.231,4174.487,4191.026,4190.0,4189.103,0,0
566,102,0,3463,4175.769,4184.744000000001,4177.0509999999995,4182.9490000000005,4167.692,4185.0,4183.718,4187.9490000000005,4184.231,4180.641,4167.692,4175.897,4183.077,4177.179,0,0
567,103,0,3327,4179.359,4182.179,4189.359,4190.897,4154.487,4181.667,4185.513,4180.255999999999,4174.103,4181.026,4171.41,4182.436,4178.846,4177.436,0,0
568,104,0,3058,4188.077,4177.436,4194.744000000001,4196.667,4154.231,4189.231,4193.077,4189.615,4180.0,4187.0509999999995,4171.795,4193.205,4187.821,4183.333,0,0
569,105,0,3264,4178.974,4162.564,4174.744000000001,4173.846,4168.974,4182.564,4182.9490000000005,4185.769,4180.897,4183.333,4162.9490000000005,4183.846,4186.282,4174.103,0,0
570,106,0,3463,4175.769,4160.255999999999,4174.744000000001,4167.436,4170.897,4173.718,4175.897,4179.615,4181.154,4182.564,4168.59,4182.436,4174.872,4173.462,0,0
571,107,0,3327,4183.077,4185.0,4190.385,4189.231,4165.769,4180.385,4186.795,4182.179,4189.615,4190.385,4175.255999999999,4190.513,4180.769,4184.615,0,0
572,108,0,3058,4188.077,4200.641,4188.077,4199.359,4171.538,4187.308,4191.538,4194.487,4194.231,4193.333,4169.744000000001,4188.718,4190.385,4184.487,0,0
573,109,0,3264,4183.718,4186.282,4174.615,4185.897,4169.103,4181.795,4181.923,4206.667,4188.333,4190.641,4167.692,4180.641,4182.308,4173.462,0,0
574,110,0,3463,4184.231,4183.974,4175.255999999999,4182.9490000000005,4165.385,4178.333,4172.0509999999995,4191.41,4177.9490000000005,4187.0509999999995,4172.692,4178.077,4175.255999999999,4174.615,0,0
575,111,0,3327,4192.692,4204.231,4184.487,4205.769,4173.846,4186.026,4172.692,4171.538,4175.769,4185.769,4176.026,4183.077,4183.718,4185.513,0,0
576,112,0,3058,4195.641,4197.0509999999995,4186.026,4204.231,4165.128,4187.308,4176.026,4179.615,4179.872,4183.077,4170.255999999999,4188.59,4182.0509999999995,4186.026,0,0
577,113,0,3264,4176.538,4163.846,4169.615,4168.077,4149.103,4178.846,4168.462,4179.103,4171.026,4170.897,4157.308,4175.0,4165.255999999999,4168.718,0,0
578,114,0,3463,4168.462,4169.231,4164.231,4166.538,4163.205,4179.231,4166.41,4167.9490000000005,4159.103,4167.179,4155.0,4166.154,4164.103,4162.179,0,0
579,115,0,3327,4177.564,4201.538,4178.846,4198.59,4184.103,4185.513,4179.744000000001,4180.385,4171.538,4185.897,4169.872,4180.385,4182.308,4173.59,0,0
580,116,0,3058,4186.154,4201.923,4190.0,4203.462,4179.103,4191.026,4185.128,4187.692,4189.615,4200.128,4183.462,4194.103,4191.667,4184.615,0,0
581,117,0,3264,4186.538,4191.026,4185.641,4190.641,4172.179,4197.436,4177.564,4184.744000000001,4192.821,4198.077,4183.846,4189.744000000001,4189.487,4185.255999999999,0,0
582,118,0,3463,4183.333,4189.103,4178.59,4181.538,4172.436,4195.769,4181.538,4204.487,4191.282,4193.846,4177.308,4181.154,4182.179,4177.0509999999995,0,0
583,119,0,3327,4169.359,4176.282,4164.615,4164.744000000001,4165.513,4180.513,4181.667,4196.923,4177.179,4183.59,4165.769,4170.513,4167.821,4161.026,0,0
584,120,0,3058,4163.59,4167.564,4157.692,4172.564,4165.255999999999,4181.795,4162.436,4181.282,4166.923,4175.128,4160.641,4164.615,4159.615,4156.667,0,0
585,121,0,3264,4167.308,4166.667,4165.385,4195.128,4172.564,4197.436,4168.974,4199.359,4173.462,4174.872,4163.846,4169.359,4159.872,4162.0509999999995,0,0
586,122,0,3463,4168.846,4167.0509999999995,4170.769,4189.487,4171.795,4193.205,4218.59,4199.487,4177.308,4179.103,4168.205,4172.308,4168.077,4161.795,0,0
587,123,0,3327,4183.846,4180.128,4184.872,4187.564,4170.128,4190.255999999999,4239.744000000001,4200.0,4191.026,4202.9490000000005,4182.0509999999995,4188.974,4196.282,4180.0,0,0
588,124,0,3058,4191.538,4180.897,4190.513,4197.821,4173.077,4198.59,4196.026,4210.385,4204.872,4222.9490000000005,4196.026,4204.615,4212.692,4197.308,0,0
589,125,0,3264,4177.436,4163.333,4174.872,4189.487,4173.462,4191.538,4156.154,4173.974,4186.667,4205.513,4183.718,4190.513,4192.179,4179.231,0,0
590,126,0,3463,4168.205,4166.282,4166.154,4179.231,4169.872,4179.872,4166.538,4145.897,4175.769,4197.564,4169.487,4173.205,4181.795,4163.59,0,0
591,127,0,55,4183.333,4174.872,4185.128,4192.564,4165.641,4187.0509999999995,4185.0,4185.0,4198.846,4220.769,4183.333,4185.385,4199.744000000001,4179.487,0,0
592,0,0,3242,4186.538,4170.513,4191.795,4202.9490000000005,4164.872,4195.128,4186.41,4211.282,4209.872,4228.077,4195.255999999999,4194.359,4203.718,4186.667,0,0
593,1,0,3388,4178.462,4169.359,4181.154,4197.564,4168.333,4196.41,4188.333,4196.923,4195.769,4215.385,4185.641,4186.41,4190.769,4177.179,0,0
594,2,0,2853,4172.692,4171.923,4177.179,4194.615,4176.282,4200.128,4190.641,4196.026,4190.385,4208.974,4179.615,4179.487,4183.59,4174.872,0,0
595,3,0,3551,4173.59,4169.359,4174.231,4188.974,4178.974,4189.744000000001,4186.026,4190.128,4183.718,4196.538,4175.769,4175.0,4176.41,4172.821,0,0
596,4,0,3486,4169.872,4164.231,4162.436,4176.41,4177.564,4175.897,4176.026,4180.255999999999,4174.744000000001,4185.255999999999,4170.255999999999,4168.333,4165.641,4164.744000000001,0,0
597,5,0,3363,4169.103,4161.538,4161.41,4176.538,4185.385,4189.359,4176.026,4186.795,4179.744000000001,4194.103,4179.744000000001,4172.564,4166.538,4165.641,0,0
598,6,0,3369,4172.692,4169.231,4171.667,4189.359,4195.255999999999,4204.487,4184.744000000001,4183.462,4187.821,4210.769,4180.897,4177.436,4182.9490000000005,4171.538,0,0
599,7,0,3414,4173.077,4173.333,4171.538,4191.667,4183.718,4193.333,4178.462,4175.128,4183.846,4212.692,4162.564,4171.026,4188.846,4168.974,0,0
600,8,0,3441,4167.692,4157.179,4161.026,4186.538,4168.462,4176.795,4162.821,4181.795,4176.026,4206.154,4160.769,4167.0509999999995,4179.359,4162.692,0,0
601,9,0,3583,4167.308,4147.308,4159.744000000001,4191.538,4176.154,4174.744000000001,4167.0509999999995,4185.641,4177.692,4211.154,4177.564,4170.513,4179.872,4162.564,0,0
602,10,0,3462,4166.538,4152.821,4162.308,4187.821,4179.744000000001,4176.923,4176.538,4173.718,4177.436,4211.538,4168.59,4166.154,4179.872,4158.333,0,0
603,11,0,3327,4153.974,4142.179,4152.821,4169.487,4170.513,4182.308,4167.0509999999995,4159.744000000001,4164.103,4193.333,4149.231,4155.0,4162.821,4147.692,0,0
604,12,0,3067,4155.255999999999,4129.231,4154.615,4172.9490000000005,4170.255999999999,4193.205,4172.308,4161.282,4163.077,4193.59,4170.128,4165.769,4160.641,4156.538,0,0
605,13,0,3267,4162.692,4132.692,4160.769,4188.462,4172.436,4192.692,4183.077,4168.718,4180.128,4222.308,4188.205,4173.974,4180.897,4162.821,0,0
606,14,0,3462,4161.923,4139.872,4158.59,4185.513,4168.718,4185.641,4177.692,4176.282,4184.615,4237.564,4170.385,4165.897,4187.436,4155.513,0,0
607,15,0,3327,4161.41,4140.513,4160.128,4182.692,4173.59,4188.333,4179.872,4186.923,4178.846,4236.923,4161.538,4169.744000000001,4182.9490000000005,4161.282,0,0
608,16,0,0,4172.0509999999995,4136.538,4168.846,4191.282,4177.564,4190.0,4184.231,4182.564,4183.846,4238.333,4176.795,4184.615,4181.795,4174.103,0,0
609,17,0,0,4167.821,4129.103,4161.154,4192.179,4170.641,4181.41,4173.077,4175.641,4187.179,4233.205,4182.179,4181.538,4176.923,4168.718,0,0
610,18,0,0,4160.769,4122.179,4157.436,4185.897,4167.821,4174.359,4170.255999999999,4178.333,4175.641,4221.154,4175.0,4173.974,4170.769,4161.538,0,0
611,19,0,0,4162.564,4125.769,4167.564,4190.769,4171.667,4183.718,4177.179,4174.103,4172.0509999999995,4220.641,4175.385,4176.667,4174.487,4166.282,0,0
612,20,0,0,4164.103,4127.564,4169.359,4200.897,4175.897,4197.821,4180.385,4176.41,4184.103,4223.846,4180.0,4178.846,4179.231,4170.385,0,0
613,21,0,0,4161.795,4122.0509999999995,4163.077,4199.615,4174.744000000001,4199.615,4189.231,4194.359,4187.436,4217.179,4173.077,4177.692,4179.744000000001,4168.59,0,0
614,22,0,0,4163.846,4114.872,4160.513,4193.077,4173.462,4189.744000000001,4190.0,4184.359,4177.179,4211.026,4158.718,4172.821,4183.462,4163.846,0,0
615,23,0,0,4157.436,4107.564,4160.513,4192.436,4177.692,4185.385,4183.718,4158.462,4174.615,4213.462,4162.692,4167.564,4185.897,4158.974,0,0
616,24,0,0,4146.923,4095.513,4158.718,4191.538,4171.923,4186.282,4185.769,4160.897,4176.795,4212.0509999999995,4174.359,4168.205,4177.821,4156.282,0,0
617,25,0,0,4151.41,4085.385,4159.231,4186.282,4157.692,4182.564,4181.795,4171.41,4172.692,4210.641,4165.0,4171.538,4174.103,4159.103,0,0
618,26,0,0,4158.462,4083.333,4157.9490000000005,4186.282,4155.385,4181.026,4170.0,4165.513,4171.923,4209.744000000001,4157.9490000000005,4167.564,4179.103,4160.513,0,0
619,27,0,0,4157.0509999999995,4081.538,4159.744000000001,4193.077,4158.077,4181.923,4173.59,4163.59,4171.538,4204.615,4169.103,4165.255999999999,4175.128,4158.205,0,0
620,28,0,0,4159.103,4079.103,4167.564,4200.255999999999,4151.923,4185.255999999999,4187.564,4180.641,4171.41,4209.231,4180.255999999999,4172.0509999999995,4169.872,4164.231,0,0
621,29,0,0,4172.9490000000005,4094.744,4177.0509999999995,4208.462,4158.333,4192.436,4197.308,4208.462,4184.359,4227.821,4188.974,4183.718,4186.282,4181.026,0,0
622,30,0,0,4171.538,4108.205,4168.205,4203.205,4174.231,4191.923,4199.103,4200.0,4189.872,4228.846,4187.436,4177.564,4202.179,4177.692,0,0
623,31,0,0,4162.821,4095.256,4158.59,4193.718,4171.923,4191.923,4191.795,4164.231,4170.255999999999,4207.9490000000005,4178.077,4167.0509999999995,4183.59,4166.923,0,0
624,32,0,0,4163.59,4094.744,4163.846,4197.821,4170.255999999999,4197.179,4189.359,4170.385,4164.744000000001,4209.487,4182.179,4174.487,4167.564,4177.0509999999995,0,0
625,33,0,0,4177.436,4126.923,4179.359,4212.564,4175.641,4191.667,4194.231,4196.41,4184.744000000001,4231.667,4195.641,4190.513,4190.128,4193.974,0,0
626,34,0,0,4183.974,4147.308,4190.897,4228.333,4169.744000000001,4183.974,4202.308,4211.282,4200.128,4237.179,4202.564,4197.9490000000005,4209.744000000001,4198.718,0,0
627,35,0,0,4180.385,4133.205,4185.0,4214.744000000001,4167.436,4186.667,4200.769,4218.846,4195.0,4220.128,4201.667,4192.436,4194.615,4190.641,0,0
628,36,0,0,4173.077,4127.692,4169.615,4186.41,4183.205,4181.154,4181.795,4202.179,4182.821,4209.359,4195.255999999999,4181.154,4181.154,4183.077,0,0
629,37,0,0,4177.436,4135.0,4176.538,4199.103,4186.795,4176.41,4181.282,4180.513,4185.385,4216.795,4193.718,4185.769,4198.462,4194.487,0,0
630,38,0,0,4177.0509999999995,4128.974,4180.0,4214.615,4177.9490000000005,4184.103,4196.154,4183.462,4190.513,4211.41,4190.0,4189.231,4205.128,4196.41,0,0
631,39,0,0,4172.564,4132.692,4175.641,4195.641,4172.179,4187.308,4197.179,4200.128,4187.308,4197.308,4183.846,4183.462,4188.59,4181.154,0,0
632,40,0,0,4170.255999999999,4145.769,4185.128,4191.923,4157.692,4187.821,4195.255999999999,4198.462,4184.359,4199.615,4190.0,4187.0509999999995,4184.359,4182.821,0,0
633,41,0,0,4173.205,4140.513,4185.385,4208.333,4163.718,4186.538,4196.538,4178.59,4181.41,4199.231,4193.974,4189.744000000001,4187.9490000000005,4191.795,0,0
634,42,0,0,4186.667,4131.795,4181.026,4208.077,4188.846,4181.282,4187.179,4161.538,4169.744000000001,4178.59,4183.59,4187.0509999999995,4178.846,4189.487,0,0
635,43,0,0,4151.667,4141.795,4161.282,4195.513,4188.205,4177.821,4171.538,4156.154,4161.923,4170.897,4176.795,4168.462,4171.154,4173.718,0,0
636,44,0,0,4145.641,4141.923,4161.282,4189.744000000001,4179.359,4180.769,4178.205,4164.359,4172.436,4183.462,4191.282,4174.359,4183.462,4177.9490000000005,0,0
637,45,0,0,4174.231,4133.077,4178.846,4191.667,4183.333,4186.538,4191.667,4181.923,4188.974,4190.641,4197.692,4192.179,4198.333,4188.077,0,0
638,46,0,0,4169.872,4148.077,4173.59,4200.513,4175.513,4185.0,4190.0,4190.0,4186.795,4178.333,4182.0509999999995,4185.255999999999,4193.846,4176.923,0,0
639,47,0,0,4139.231,4167.179,4150.0,4195.385,4168.077,4173.462,4179.103,4176.282,4174.487,4167.0509999999995,4174.744000000001,4170.769,4184.359,4165.513,0,0
640,48,0,0,4153.59,4162.821,4160.128,4191.282,4174.103,4171.795,4185.769,4178.974,4179.487,4172.308,4187.692,4178.846,4186.923,4177.821,0,0
641,49,0,0,4163.846,4150.0,4174.487,4194.615,4166.667,4184.231,4200.128,4195.641,4187.308,4171.41,4183.974,4180.0,4190.641,4178.718,0,0
642,50,0,0,4140.641,4153.462,4153.846,4184.359,4163.718,4184.231,4188.718,4181.538,4177.564,4156.026,4162.692,4159.744000000001,4184.231,4155.897,0,0
643,51,0,0,4159.615,4163.205,4166.026,4190.0,4177.436,4180.0,4181.282,4169.231,4168.59,4157.9490000000005,4170.513,4172.308,4183.59,4169.231,0,0
644,52,0,0,4169.744000000001,4158.974,4178.718,4205.255999999999,4183.077,4184.872,4193.205,4182.0509999999995,4170.641,4177.0509999999995,4191.41,4186.41,4190.255999999999,4188.333,0,0
645,53,0,0,4159.872,4156.282,4170.385,4198.846,4179.872,4187.9490000000005,4203.718,4193.333,4177.436,4175.641,4186.154,4178.974,4184.872,4181.41,0,0
646,54,0,0,4153.718,4164.872,4163.333,4190.385,4185.255999999999,4185.513,4199.615,4183.846,4180.769,4164.359,4172.692,4171.026,4178.59,4173.718,0,0
647,55,0,0,4165.128,4173.974,4173.077,4207.308,4195.0,4186.026,4197.9490000000005,4180.255999999999,4184.231,4174.359,4184.744000000001,4181.154,4187.9490000000005,4183.974,0,0
648,56,0,0,4178.718,4171.538,4185.255999999999,4218.59,4193.077,4188.718,4204.872,4196.282,4193.205,4198.59,4207.179,4200.513,4203.333,4199.615,0,0
649,57,0,0,4180.513,4165.255999999999,4184.744000000001,4208.846,4183.718,4185.769,4200.128,4199.615,4192.179,4201.923,4205.897,4202.436,4201.795,4202.821,0,0
650,58,0,0,4182.692,4171.667,4183.718,4210.128,4183.462,4183.333,4192.0509999999995,4186.026,4184.359,4187.0509999999995,4197.308,4196.026,4192.436,4203.59,0,0
651,59,0,0,4194.615,4179.744000000001,4195.769,4220.897,4189.615,4190.897,4203.077,4190.385,4191.41,4190.897,4208.846,4206.923,4196.282,4214.103,0,0
652,60,0,0,4204.359,4174.615,4207.0509999999995,4221.41,4188.59,4198.59,4220.769,4217.692,4203.59,4207.821,4222.179,4221.41,4205.897,4225.513,0,0
653,61,0,0,4205.641,4165.897,4208.205,4218.59,4182.9490000000005,4198.59,4219.103,4220.513,4202.821,4203.846,4219.744000000001,4221.154,4205.0,4224.872,0,0
654,62,0,0,4209.359,4172.436,4211.282,4229.744000000001,4189.615,4198.846,4206.667,4197.9490000000005,4199.872,4187.821,4215.897,4217.9490000000005,4196.538,4221.538,0,0
655,63,0,0,4217.821,4172.308,4214.359,4236.667,4198.077,4201.154,4201.282,4185.897,4193.974,4182.564,4215.513,4219.359,4194.487,4221.667,0,0
656,64,0,3233,4218.205,4162.692,4211.795,4228.205,4197.692,4205.513,4204.615,4190.769,4185.897,4192.179,4220.513,4221.282,4205.385,4221.282,0,0
657,65,0,3388,4208.59,4149.231,4203.59,4218.718,4185.513,4197.692,4200.641,4190.128,4178.974,4181.923,4215.0,4212.0509999999995,4195.513,4211.667,0,0
658,66,0,2844,4197.821,4128.462,4193.333,4210.513,4174.744000000001,4183.205,4192.692,4182.9490000000005,4176.154,4156.154,4199.615,4200.769,4177.179,4197.9490000000005,0,0
659,67,0,3556,4213.846,4126.795,4206.923,4216.41,4180.385,4191.923,4211.026,4213.462,4204.359,4173.974,4212.692,4218.333,4203.205,4212.0509999999995,0,0
660,68,0,3499,4239.359,4145.769,4230.513,4239.487,4192.692,4200.769,4226.282,4240.255999999999,4227.0509999999995,4202.564,4234.231,4240.128,4224.872,4235.897,0,0
661,69,0,3373,4237.436,4139.103,4229.231,4241.538,4186.667,4184.359,4213.846,4216.923,4205.385,4189.744000000001,4229.615,4235.513,4208.333,4234.359,0,0
662,70,0,3373,4226.026,4094.103,4220.769,4219.103,4171.026,4179.231,4206.154,4199.231,4191.282,4173.974,4220.385,4228.205,4205.897,4223.718,0,0
663,71,0,3423,4223.846,4047.821,4219.744000000001,4209.744000000001,4167.692,4189.744000000001,4207.9490000000005,4205.641,4198.333,4170.897,4212.692,4222.9490000000005,4205.128,4216.538,0,0
664,72,0,3442,4217.308,4022.308,4213.333,4211.923,4163.333,4187.9490000000005,4203.205,4202.0509999999995,4193.205,4160.769,4201.026,4213.974,4185.641,4208.59,0,0
665,73,0,3582,4207.179,4006.538,4202.692,4203.077,4153.205,4179.103,4191.923,4187.308,4179.231,4148.333,4195.641,4205.897,4179.615,4200.255999999999,0,0
666,74,0,3459,4202.564,3986.41,4192.692,4196.538,4152.821,4174.744000000001,4182.564,4181.026,4170.769,4138.846,4185.769,4194.359,4181.154,4189.744000000001,0,0
667,75,0,3321,4199.615,3969.487,4185.128,4202.9490000000005,4158.59,4178.205,4185.255999999999,4191.538,4172.821,4134.872,4176.795,4189.103,4175.385,4187.0509999999995,0,0
668,76,0,3060,4197.564,3957.051,4187.308,4203.974,4158.974,4183.718,4189.744000000001,4194.487,4174.615,4133.462,4183.974,4198.333,4174.744000000001,4196.667,0,0
669,77,0,3259,4188.462,3931.282,4179.231,4195.513,4151.795,4174.231,4177.179,4165.769,4158.846,4114.231,4179.231,4188.205,4168.974,4185.769,0,0
670,78,0,3459,4189.359,3907.821,4175.0,4210.385,4152.308,4170.769,4179.231,4158.333,4155.641,4106.923,4173.205,4177.179,4176.667,4176.41,0,0
671,79,0,3321,4207.179,3903.333,4192.9490000000005,4231.538,4165.385,4183.718,4197.436,4186.923,4176.538,4124.487,4187.308,4194.103,4203.59,4195.897,0,0
672,80,0,3060,4214.615,3885.0,4203.333,4215.641,4172.564,4188.846,4193.077,4194.103,4180.128,4123.846,4194.744000000001,4209.487,4205.0,4207.436,0,0
673,81,0,3259,4199.487,3838.59,4189.231,4198.205,4167.436,4181.41,4183.59,4190.128,4168.59,4105.641,4184.615,4198.462,4186.923,4192.9490000000005,0,0
674,82,0,3459,4191.667,3795.1279999999997,4180.641,4221.154,4167.436,4176.41,4186.538,4185.897,4164.359,4094.2309999999998,4173.205,4180.769,4183.974,4180.128,0,0
675,83,0,3321,4191.41,3774.103,4179.872,4244.359,4171.795,4177.179,4181.667,4167.308,4159.872,4088.462,4166.41,4173.974,4189.103,4174.615,0,0
676,84,0,3060,4190.769,3776.538,4179.231,4253.462,4172.9490000000005,4182.0509999999995,4177.179,4169.487,4158.205,4088.974,4167.0509999999995,4181.923,4186.154,4178.846,0,0
677,85,0,3259,4194.487,3781.1540000000005,4185.769,4271.667,4178.974,4187.692,4188.333,4190.641,4166.41,4096.795,4175.385,4191.41,4188.974,4195.128,0,0
678,86,0,3459,4193.333,3764.8720000000003,4185.641,4283.077,4186.538,4188.846,4195.513,4186.154,4164.359,4094.487,4172.692,4186.667,4195.0,4192.436,0,0
679,87,0,3321,4180.128,3743.462,4171.154,4276.538,4182.692,4178.205,4180.897,4169.359,4147.436,4078.333,4155.255999999999,4171.667,4185.897,4166.667,0,0
680,88,0,3060,4170.769,3735.897,4162.692,4276.154,4173.718,4162.821,4164.615,4164.359,4140.513,4072.5640000000003,4149.487,4165.255999999999,4172.179,4157.564,0,0
681,89,0,3259,4174.103,3728.718,4167.564,4286.154,4170.255999999999,4167.179,4173.846,4169.487,4152.692,4089.744,4165.255999999999,4176.795,4183.846,4173.846,0,0
682,90,0,3459,4178.333,3720.513,4169.487,4294.231,4174.872,4184.103,4188.974,4183.59,4169.359,4109.615,4179.744000000001,4188.974,4212.564,4185.641,0,0
683,91,0,3321,4185.513,3730.513,4171.923,4303.974,4184.359,4185.897,4191.026,4189.615,4173.077,4110.128,4175.385,4190.385,4219.487,4184.487,0,0
684,92,0,3060,4183.462,3734.487,4171.795,4311.41,4185.0,4178.333,4192.436,4181.923,4161.026,4102.9490000000005,4168.462,4182.308,4209.231,4173.462,0,0
685,93,0,3259,4175.385,3727.4359999999997,4168.718,4315.897,4182.821,4180.128,4201.795,4192.308,4158.846,4110.255999999999,4175.255999999999,4179.615,4212.9490000000005,4167.821,0,0
686,94,0,3459,4185.0,3746.1540000000005,4179.103,4332.436,4197.308,4181.923,4204.231,4207.692,4178.077,4126.795,4185.385,4190.128,4228.333,4185.255999999999,0,0
687,95,0,3321,4197.564,3764.103,4186.538,4344.744000000001,4207.692,4172.0509999999995,4190.513,4184.231,4172.692,4117.0509999999995,4174.744000000001,4190.0,4221.667,4190.897,0,0
688,96,0,3060,4186.154,3743.462,4174.487,4333.333,4195.513,4164.872,4180.513,4161.538,4147.564,4103.846,4166.282,4179.359,4208.205,4176.538,0,0
689,97,0,3259,4173.462,3728.59,4167.436,4321.923,4187.9490000000005,4173.205,4184.744000000001,4174.744000000001,4153.718,4121.795,4183.205,4183.205,4220.0,4174.744000000001,0,0
690,98,0,3459,4165.641,3737.821,4161.538,4321.41,4189.615,4183.333,4186.282,4175.897,4162.9490000000005,4128.718,4180.128,4179.744000000001,4223.846,4165.897,0,0
691,99,0,3321,4162.564,3741.41,4149.744000000001,4322.9490000000005,4185.513,4184.615,4179.103,4160.769,4148.59,4119.359,4159.744000000001,4163.718,4209.872,4148.462,0,0
692,100,0,3060,4173.077,3746.026,4157.9490000000005,4329.359,4183.077,4184.744000000001,4183.462,4174.487,4154.359,4140.897,4172.308,4172.564,4219.744000000001,4162.821,0,0
693,101,0,3259,4180.897,3757.179,4177.308,4332.179,4183.846,4175.641,4191.154,4192.564,4172.9490000000005,4162.821,4193.59,4194.359,4237.821,4186.795,0,0
694,102,0,3459,4170.641,3760.0,4169.359,4325.897,4179.103,4156.538,4178.333,4179.487,4160.769,4144.103,4182.564,4185.641,4223.462,4178.846,0,0
695,103,0,3321,4169.103,3776.667,4159.103,4331.538,4178.59,4161.026,4176.282,4173.974,4147.692,4133.974,4169.615,4172.9490000000005,4216.026,4170.0,0,0
696,104,0,3060,4177.564,3804.487,4172.564,4344.744000000001,4187.9490000000005,4169.872,4194.744000000001,4187.436,4158.718,4151.538,4176.282,4182.436,4235.897,4174.103,0,0
697,105,0,3259,4167.821,3798.333,4173.333,4333.974,4189.872,4160.513,4196.538,4192.0509999999995,4164.872,4159.615,4175.513,4181.026,4245.385,4167.692,0,0
698,106,0,3459,4155.128,3782.949,4157.179,4316.667,4179.359,4164.231,4183.462,4182.0509999999995,4154.872,4148.846,4163.077,4165.897,4231.41,4158.59,0,0
699,107,0,3321,4153.59,3787.308,4150.769,4310.0,4164.615,4179.872,4186.026,4172.564,4148.974,4137.308,4149.615,4159.231,4219.872,4153.718,0,0
700,108,0,3060,4152.692,3788.077,4155.769,4301.538,4153.462,4167.436,4186.154,4168.462,4144.359,4131.282,4139.231,4160.641,4217.0509999999995,4149.231,0,0
701,109,0,3259,4148.846,3784.487,4152.0509999999995,4292.436,4147.821,4149.359,4171.41,4165.0,4136.282,4131.154,4136.41,4157.692,4215.255999999999,4146.41,0,0
702,110,0,3459,4157.179,3792.5640000000003,4151.667,4294.103,4150.897,4162.0509999999995,4175.641,4169.359,4141.154,4144.231,4144.103,4160.897,4220.641,4153.846,0,0
703,111,0,3321,4166.795,3805.385,4161.282,4300.128,4153.974,4172.0509999999995,4191.538,4176.282,4155.128,4166.538,4157.692,4169.359,4232.179,4164.872,0,0
704,112,0,3060,4165.513,3812.051,4167.436,4296.667,4144.487,4171.154,4190.897,4175.0,4160.128,4176.41,4163.462,4170.128,4233.205,4167.821,0,0
705,113,0,3259,4160.0,3822.5640000000003,4162.692,4292.9490000000005,4142.436,4184.744000000001,4177.692,4169.359,4151.154,4168.846,4156.026,4165.255999999999,4222.692,4163.718,0,0
706,114,0,3459,4164.359,3836.026,4160.897,4300.641,4158.846,4211.538,4173.974,4168.333,4143.59,4164.231,4153.077,4164.615,4218.462,4163.718,0,0
707,115,0,3321,4163.333,3837.949,4158.333,4299.359,4160.0,4220.769,4176.282,4165.255999999999,4138.974,4160.641,4155.255999999999,4159.359,4209.359,4159.359,0,0
708,116,0,3060,4142.0509999999995,3817.692,4138.333,4273.59,4138.077,4196.282,4157.821,4147.821,4118.077,4139.872,4141.538,4138.077,4185.641,4137.308,0,0
709,117,0,3259,4128.974,3804.3590000000004,4128.974,4259.487,4135.255999999999,4187.692,4146.154,4136.41,4106.026,4133.205,4131.667,4132.436,4185.255999999999,4128.077,0,0
710,118,0,3459,4151.41,3830.256,4155.769,4280.255999999999,4152.692,4213.974,4177.0509999999995,4156.282,4127.436,4161.538,4153.59,4160.769,4212.692,4155.769,0,0
711,119,0,3321,4168.077,3852.949,4172.9490000000005,4286.795,4147.179,4222.564,4199.231,4184.103,4146.795,4180.0,4171.923,4178.846,4225.513,4176.154,0,0
712,120,0,3060,4157.0509999999995,3845.256,4162.0509999999995,4268.846,4130.641,4200.641,4186.41,4176.795,4137.0509999999995,4162.0509999999995,4165.641,4170.0,4214.744000000001,4166.538,0,0
713,121,0,3259,4152.564,3845.6409999999996,4162.436,4268.077,4141.41,4202.0509999999995,4189.487,4166.154,4134.103,4152.821,4160.641,4168.077,4212.9490000000005,4160.128,0,0
714,122,0,3459,4155.128,3853.59,4170.897,4278.077,4156.154,4219.487,4204.615,4203.077,4152.692,4168.846,4163.333,4170.0,4220.128,4158.59,0,0
715,123,0,3321,4140.255999999999,3837.821,4157.564,4262.436,4144.615,4211.41,4190.897,4200.385,4143.846,4163.462,4152.179,4151.154,4207.9490000000005,4142.436,0,0
716,124,0,3060,4121.026,3821.923,4135.128,4233.462,4132.692,4192.692,4164.487,4130.641,4112.179,4134.103,4129.103,4125.128,4188.077,4121.538,0,0
717,125,0,3259,4122.0509999999995,3836.41,4133.846,4228.462,4137.564,4183.205,4156.026,4130.128,4105.769,4127.308,4124.615,4120.385,4179.744000000001,4115.513,0,0
718,126,0,3459,4120.513,3845.7690000000002,4137.436,4234.872,4140.769,4182.692,4150.897,4151.026,4108.974,4136.923,4133.974,4123.333,4183.59,4114.103,0,0
719,127,0,55,4117.308,3840.385,4135.641,4231.026,4137.692,4193.205,4141.538,4111.923,4104.615,4141.154,4134.872,4126.538,4198.718,4115.255999999999,0,0
720,0,0,3235,4128.974,3853.718,4140.0,4234.487,4140.769,4197.436,4151.026,4125.255999999999,4109.872,4145.641,4134.359,4133.205,4191.667,4122.821,0,0
721,1,0,3367,4136.154,3864.2309999999998,4143.718,4240.769,4141.795,4183.846,4158.718,4151.795,4098.205,4144.487,4136.282,4131.41,4165.769,4122.564,0,0
722,2,0,2847,4121.795,3850.7690000000002,4134.103,4225.769,4136.795,4178.462,4134.231,4109.103,4084.615,4141.154,4130.385,4119.872,4176.795,4111.667,0,0
723,3,0,3556,4115.0,3848.462,4128.846,4212.179,4134.103,4184.744000000001,4123.333,4120.255999999999,4107.436,4145.641,4124.872,4120.128,4185.769,4111.923,0,0
724,4,0,3484,4128.59,3871.923,4139.872,4225.513,4134.359,4181.923,4148.974,4164.615,4119.487,4152.9490000000005,4136.282,4137.692,4166.538,4129.744000000001,0,0
725,5,0,3358,4141.282,3892.4359999999997,4149.487,4235.255999999999,4139.359,4181.41,4166.923,4134.744000000001,4112.692,4159.744000000001,4147.436,4151.667,4180.641,4143.974,0,0
726,6,0,3361,4133.077,3894.744,4139.615,4222.308,4135.769,4190.255999999999,4149.487,4120.897,4114.487,4146.538,4138.462,4137.692,4184.231,4132.436,0,0
727,7,0,3431,4118.077,3892.051,4123.077,4210.897,4121.923,4182.0509999999995,4125.128,4144.615,4104.615,4123.462,4126.538,4117.692,4146.154,4114.487,0,0
728,8,0,3442,4123.718,3903.974,4130.128,4217.308,4127.692,4170.0,4134.615,4133.077,4096.538,4135.641,4134.103,4129.231,4154.615,4123.846,0,0
729,9,0,3589,4134.231,3913.8459999999995,4144.744000000001,4223.718,4144.359,4181.923,4178.462,4152.564,4120.769,4156.667,4143.846,4143.718,4179.487,4138.59,0,0
730,10,0,3461,4126.795,3898.462,4138.462,4215.0,4141.026,4191.923,4203.077,4198.462,4136.282,4147.0509999999995,4135.0,4133.333,4154.615,4128.974,0,0
731,11,0,3311,4121.026,3888.205,4131.154,4209.231,4132.0509999999995,4178.974,4193.718,4175.769,4118.462,4142.9490000000005,4125.641,4128.59,4150.255999999999,4120.769,0,0
732,12,0,3044,4128.333,3897.821,4138.462,4212.564,4132.308,4171.667,4179.872,4133.59,4105.128,4151.154,4127.179,4140.128,4172.308,4130.513,0,0
733,13,0,3252,4122.692,3893.8459999999995,4129.872,4200.255999999999,4121.923,4165.769,4126.282,4110.255999999999,4096.795,4136.282,4119.744000000001,4128.205,4150.0,4125.513,0,0
734,14,0,3461,4122.308,3890.513,4119.744000000001,4188.718,4116.282,4154.744000000001,4076.795,4079.103,4085.897,4127.308,4113.718,4114.744000000001,4130.769,4115.641,0,0
735,15,0,3311,4146.667,3920.897,4140.769,4210.385,4132.692,4169.103,4108.846,4083.59,4099.487,4152.821,4131.154,4137.308,4169.487,4135.641,0,0
736,16,0,0,4163.333,3948.59,4158.59,4230.385,4143.974,4190.0,4144.231,4132.308,4136.154,4176.154,4152.564,4160.385,4208.846,4156.282,0,0
737,17,0,0,4148.205,3941.41,4145.255999999999,4214.103,4138.846,4189.744000000001,4132.564,4150.769,4141.41,4172.308,4149.744000000001,4150.769,4195.128,4144.744000000001,0,0
738,18,0,0,4141.667,3942.051,4140.513,4206.538,4130.255999999999,4187.308,4140.0,4142.0509999999995,4121.282,4164.487,4147.308,4145.641,4170.641,4137.692,0,0
739,19,0,0,4154.359,3957.179,4150.769,4216.795,4131.154,4183.333,4163.974,4156.667,4127.821,4164.615,4154.103,4157.436,4166.026,4150.385,0,0
740,20,0,0,4152.9490000000005,3949.8720000000003,4145.769,4206.154,4139.744000000001,4177.692,4151.154,4156.154,4133.333,4157.308,4146.282,4153.59,4158.59,4151.795,0,0
741,21,0,0,4150.128,3946.1540000000005,4152.821,4200.897,4145.255999999999,4191.667,4156.282,4157.308,4131.795,4158.462,4146.41,4156.026,4155.897,4153.974,0,0
742,22,0,0,4161.667,3962.4359999999997,4171.154,4212.179,4142.564,4201.667,4186.538,4177.179,4140.255999999999,4168.59,4156.538,4172.308,4157.821,4165.255999999999,0,0
743,23,0,0,4159.872,3963.205,4162.9490000000005,4208.205,4132.0509999999995,4184.744000000001,4170.0,4156.923,4134.487,4160.513,4146.026,4164.744000000001,4145.897,4161.282,0,0
744,24,0,0,4144.487,3951.667,4149.231,4197.821,4119.615,4176.538,4134.487,4129.359,4117.436,4143.59,4130.897,4146.282,4136.538,4146.923,0,0
745,25,0,0,4142.9490000000005,3956.795,4152.436,4200.255999999999,4117.692,4187.692,4145.513,4150.385,4119.872,4139.103,4135.0,4147.821,4140.769,4145.641,0,0
746,26,0,0,4149.487,3967.4359999999997,4155.769,4204.103,4134.103,4196.795,4175.897,4167.692,4127.821,4148.077,4143.077,4156.026,4149.487,4153.846,0,0
747,27,0,0,4157.436,3971.41,4159.487,4207.9490000000005,4143.974,4198.846,4174.231,4162.564,4134.359,4158.59,4149.615,4162.179,4161.41,4162.692,0,0
748,28,0,0,4161.667,3975.513,4158.846,4208.846,4139.231,4192.179,4166.795,4174.359,4147.308,4156.538,4155.128,4163.462,4162.0509999999995,4163.462,0,0
749,29,0,0,4156.923,3973.8459999999995,4150.641,4199.359,4136.795,4183.718,4177.564,4184.103,4147.179,4149.872,4150.255999999999,4156.667,4160.0,4157.0509999999995,0,0
750,30,0,0,4153.205,3976.026,4151.795,4197.179,4140.641,4185.0,4173.462,4166.282,4143.718,4160.641,4152.179,4157.9490000000005,4178.974,4158.974,0,0
751,31,0,0,4160.513,3983.205,4159.359,4200.128,4141.538,4191.026,4157.564,4156.154,4156.026,4173.333,4162.692,4168.333,4189.231,4169.359,0,0
752,32,0,0,4161.538,3984.487,4155.897,4197.564,4135.897,4191.41,4165.897,4175.513,4165.0,4170.0,4158.59,4166.154,4180.769,4169.231,0,0
753,33,0,0,4161.154,3987.308,4159.615,4202.308,4136.154,4192.692,4185.641,4189.744000000001,4161.026,4167.692,4152.564,4162.564,4182.821,4162.0509999999995,0,0
754,34,0,0,4166.282,3999.2309999999998,4169.615,4211.026,4145.255999999999,4200.769,4192.179,4181.795,4161.282,4176.282,4161.538,4170.385,4190.0,4167.692,0,0
755,35,0,0,4163.333,4000.1279999999997,4163.077,4204.744000000001,4143.846,4196.282,4185.769,4178.59,4162.308,4175.769,4163.718,4170.385,4181.026,4170.385,0,0
756,36,0,0,4157.692,3996.538,4155.385,4196.923,4137.564,4181.923,4179.231,4183.974,4159.487,4167.9490000000005,4154.744000000001,4162.0509999999995,4171.923,4162.179,0,0
757,37,0,0,4171.41,4020.513,4167.436,4209.872,4150.255999999999,4188.333,4182.308,4180.641,4168.205,4179.615,4160.255999999999,4170.0,4182.9490000000005,4171.41,0,0
758,38,0,0,4180.769,4033.077,4172.308,4217.564,4156.538,4202.9490000000005,4188.59,4171.026,4167.0509999999995,4193.718,4172.821,4178.846,4193.462,4185.769,0,0
759,39,0,0,4168.077,4017.179,4156.667,4202.692,4140.513,4195.513,4186.282,4168.077,4148.333,4180.255999999999,4167.692,4166.667,4179.231,4176.795,0,0
760,40,0,0,4168.462,4030.256,4159.872,4198.718,4142.179,4184.744000000001,4180.641,4172.308,4150.641,4175.255999999999,4164.103,4167.308,4175.385,4176.923,0,0
761,41,0,0,4183.462,4065.256,4178.333,4216.282,4157.9490000000005,4196.154,4187.692,4186.282,4174.231,4193.974,4177.564,4187.179,4192.692,4194.615,0,0
762,42,0,0,4183.59,4068.8459999999995,4177.308,4221.154,4155.513,4209.487,4197.821,4195.897,4176.795,4193.718,4187.692,4188.974,4191.282,4194.103,0,0
763,43,0,0,4171.154,4057.051,4163.333,4205.513,4148.333,4207.9490000000005,4197.179,4189.103,4166.667,4179.872,4184.487,4177.436,4185.255999999999,4181.538,0,0
764,44,0,0,4172.0509999999995,4067.821,4164.615,4202.436,4153.59,4202.564,4193.077,4183.077,4175.385,4184.615,4181.923,4183.077,4199.872,4184.231,0,0
765,45,0,0,4177.436,4081.538,4171.41,4212.564,4160.897,4199.359,4193.846,4188.846,4184.103,4195.385,4185.385,4187.564,4205.385,4189.103,0,0
766,46,0,0,4176.026,4085.6409999999996,4171.026,4212.179,4159.744000000001,4201.795,4196.667,4194.359,4176.538,4194.615,4186.026,4182.179,4196.282,4188.205,0,0
767,47,0,0,4173.462,4085.1279999999997,4167.436,4202.308,4155.769,4214.744000000001,4197.821,4188.462,4170.0,4192.692,4185.385,4181.923,4195.255999999999,4184.744000000001,0,0
768,48,0,0,4175.897,4081.41,4167.179,4200.769,4156.282,4222.308,4201.667,4184.615,4175.897,4193.462,4184.872,4183.974,4194.615,4182.692,0,0
769,49,0,0,4173.718,4074.744,4167.564,4201.538,4156.667,4207.308,4197.564,4187.564,4178.333,4186.923,4175.641,4179.103,4186.154,4177.9490000000005,0,0
