,COUNTER, INTERPOLATED, RAW_CQ, AF3, F7, F3, FC5, T7, P7, O1, O2, P8, T8, FC6, F4, F8, AF4, MARKER_HARDWARE, MARKER
0,120,0,3112,4171.538,4187.0509999999995,4169.359,4222.436,4175.0,4205.255999999999,4177.9490000000005,4173.205,4150.385,4154.744000000001,4168.718,4170.897,4180.513,4175.513,0,0
1,121,0,3245,4168.846,4189.231,4159.103,4213.718,4196.41,4203.846,4170.769,4167.564,4155.513,4158.846,4166.795,4167.308,4184.744000000001,4173.718,0,0
2,122,0,3418,4184.872,4208.205,4178.077,4230.255999999999,4176.41,4206.667,4173.333,4170.255999999999,4160.0,4170.385,4178.205,4181.923,4190.255999999999,4184.487,0,0
3,123,0,3288,4185.513,4200.513,4190.641,4229.103,4164.359,4198.974,4168.077,4166.154,4156.282,4164.359,4178.205,4187.0509999999995,4184.359,4185.0,0,0
4,124,0,3112,4165.385,4180.769,4165.769,4203.462,4180.128,4184.359,4147.821,4148.205,4144.359,4146.795,4165.0,4172.308,4168.077,4166.795,0,0
5,125,0,3245,4173.205,4201.795,4166.795,4228.846,4187.692,4192.308,4158.59,4159.615,4151.538,4157.821,4172.0509999999995,4179.615,4178.59,4177.436,0,0
6,126,0,3418,4202.436,4226.667,4200.513,4272.0509999999995,4170.769,4214.872,4193.974,4192.9490000000005,4179.359,4185.128,4193.59,4204.872,4207.179,4205.255999999999,0,0
7,127,0,54,4194.231,4209.359,4192.0509999999995,4244.231,4159.744000000001,4212.436,4188.333,4187.0509999999995,4176.41,4177.308,4188.333,4195.385,4197.179,4193.333,0,0
8,0,0,3155,4178.205,4202.821,4172.308,4219.487,4190.255999999999,4203.205,4165.641,4168.718,4159.872,4162.179,4180.385,4184.872,4177.821,4179.231,0,0
9,1,0,3356,4195.128,4222.564,4193.718,4248.205,4218.077,4217.179,4173.59,4183.718,4177.436,4175.0,4193.846,4203.718,4192.9490000000005,4198.077,0,0
10,2,0,2869,4199.615,4220.0,4202.308,4260.128,4191.667,4227.564,4180.769,4192.821,4189.872,4183.077,4188.718,4202.9490000000005,4203.462,4201.795,0,0
11,3,0,3543,4178.59,4201.667,4176.282,4235.0,4169.872,4218.333,4176.41,4180.769,4175.641,4168.59,4167.9490000000005,4181.026,4186.667,4175.641,0,0
12,4,0,3612,4173.846,4197.692,4168.718,4227.692,4188.462,4218.205,4181.923,4185.385,4175.385,4165.513,4174.103,4183.333,4179.744000000001,4170.255999999999,0,0
13,5,0,2776,4189.359,4206.795,4186.923,4248.333,4195.897,4229.744000000001,4190.769,4204.231,4191.795,4182.9490000000005,4194.615,4202.308,4196.026,4189.872,0,0
14,6,0,3297,4185.0,4205.0,4185.641,4242.308,4184.231,4218.59,4186.538,4205.513,4191.923,4184.615,4190.513,4194.872,4201.795,4189.103,0,0
15,7,0,3408,4162.821,4182.179,4162.308,4216.923,4176.282,4197.436,4172.179,4186.538,4169.359,4159.103,4163.846,4164.487,4180.255999999999,4160.769,0,0
16,8,0,3210,4152.9490000000005,4174.103,4152.179,4215.641,4178.846,4205.769,4170.128,4175.128,4154.231,4143.846,4148.59,4155.897,4168.333,4146.026,0,0
17,9,0,3570,4178.718,4198.333,4181.667,4243.974,4190.128,4231.154,4192.0509999999995,4189.487,4170.255999999999,4165.255999999999,4169.615,4189.487,4189.615,4174.615,0,0
18,10,0,3421,4200.128,4212.821,4200.897,4260.897,4199.231,4229.487,4203.333,4200.897,4189.487,4186.282,4198.205,4212.308,4208.077,4200.128,0,0
19,11,0,3292,4187.308,4198.59,4185.385,4248.718,4193.718,4210.513,4189.359,4192.436,4181.667,4181.41,4195.385,4199.487,4198.333,4191.795,0,0
20,12,0,3129,4170.769,4186.41,4174.359,4233.462,4182.179,4212.821,4181.154,4181.667,4170.0,4176.41,4184.231,4187.692,4186.923,4179.872,0,0
21,13,0,3250,4168.59,4183.462,4174.103,4224.103,4177.821,4224.487,4177.179,4175.0,4172.179,4177.308,4181.667,4186.923,4188.205,4174.744000000001,0,0
22,14,0,3421,4163.205,4173.59,4168.333,4228.462,4170.641,4215.0,4165.0,4170.255999999999,4170.769,4172.0509999999995,4175.255999999999,4183.333,4186.795,4163.333,0,0
23,15,0,3292,4159.615,4166.923,4172.436,4237.9490000000005,4165.255999999999,4201.41,4164.487,4175.897,4163.462,4165.128,4171.538,4181.154,4179.872,4158.846,0,0
24,16,0,0,4177.821,4182.179,4194.231,4250.769,4177.692,4212.564,4189.615,4197.0509999999995,4171.923,4175.641,4182.564,4192.436,4191.667,4182.179,0,0
25,17,0,0,4192.821,4196.41,4195.128,4256.667,4188.077,4224.487,4205.128,4203.205,4183.718,4188.333,4187.9490000000005,4200.513,4209.872,4197.564,0,0
26,18,0,0,4174.103,4174.744000000001,4166.795,4237.308,4172.0509999999995,4210.641,4185.769,4176.026,4165.769,4169.487,4170.385,4183.59,4190.769,4170.513,0,0
27,19,0,0,4150.0,4146.41,4151.154,4221.282,4157.436,4199.487,4168.974,4156.795,4142.179,4148.205,4157.308,4166.154,4164.872,4144.103,0,0
28,20,0,0,4165.0,4156.282,4174.231,4235.255999999999,4170.0,4214.615,4178.205,4172.692,4152.308,4163.846,4170.897,4185.255999999999,4181.923,4164.487,0,0
29,21,0,0,4195.128,4186.41,4201.41,4257.308,4192.9490000000005,4228.718,4192.821,4193.974,4178.846,4190.0,4197.0509999999995,4215.769,4210.641,4199.744000000001,0,0
30,22,0,0,4193.077,4192.436,4194.359,4259.487,4196.154,4223.077,4192.179,4186.667,4176.923,4181.667,4196.41,4208.846,4202.179,4194.872,0,0
31,23,0,0,4165.641,4167.564,4169.615,4232.692,4175.255999999999,4215.513,4176.667,4165.385,4152.692,4159.231,4166.795,4175.769,4176.026,4162.0509999999995,0,0
32,24,0,0,4163.846,4156.154,4172.564,4221.41,4170.385,4225.641,4175.385,4172.9490000000005,4153.462,4165.0,4162.564,4174.231,4176.026,4158.333,0,0
33,25,0,0,4176.282,4170.0,4186.282,4245.897,4179.231,4236.026,4191.923,4192.0509999999995,4169.744000000001,4180.0,4190.0,4192.179,4191.667,4175.641,0,0
34,26,0,0,4165.0,4163.846,4169.359,4246.923,4164.615,4224.615,4183.077,4177.692,4158.205,4167.9490000000005,4187.692,4179.231,4182.9490000000005,4166.667,0,0
35,27,0,0,4153.846,4149.487,4158.462,4225.0,4160.769,4216.923,4174.744000000001,4172.179,4152.564,4157.436,4169.744000000001,4167.0509999999995,4171.923,4153.462,0,0
36,28,0,0,4169.487,4154.872,4177.179,4229.231,4182.692,4229.615,4196.41,4187.0509999999995,4170.255999999999,4167.0509999999995,4183.077,4183.974,4188.974,4167.692,0,0
37,29,0,0,4168.846,4153.077,4172.821,4231.923,4182.179,4225.128,4192.564,4171.41,4165.385,4163.59,4181.41,4178.333,4192.9490000000005,4166.667,0,0
38,30,0,0,4155.385,4150.769,4161.667,4223.59,4173.333,4213.718,4170.769,4164.744000000001,4157.436,4160.769,4163.205,4163.59,4180.0,4156.282,0,0
39,31,0,0,4177.564,4171.923,4189.359,4244.103,4188.333,4232.564,4190.385,4196.667,4182.692,4185.513,4187.436,4191.795,4197.308,4187.821,0,0
40,32,0,0,4199.872,4179.872,4208.333,4261.41,4189.744000000001,4245.769,4212.564,4204.872,4195.255999999999,4205.255999999999,4211.667,4213.59,4213.077,4215.513,0,0
41,33,0,0,4185.0,4165.0,4190.128,4245.385,4178.718,4228.846,4194.872,4187.308,4177.821,4201.538,4189.103,4195.385,4198.718,4195.897,0,0
42,34,0,0,4175.255999999999,4160.769,4182.308,4240.385,4185.255999999999,4223.718,4185.0,4180.641,4167.564,4195.513,4179.103,4184.359,4190.513,4181.154,0,0
43,35,0,0,4191.795,4167.179,4198.59,4251.923,4192.436,4236.923,4199.615,4180.641,4171.667,4199.872,4204.359,4199.615,4195.513,4197.308,0,0
44,36,0,0,4190.0,4157.692,4197.9490000000005,4244.359,4184.231,4230.255999999999,4196.795,4181.154,4172.564,4195.255999999999,4203.846,4201.667,4187.564,4200.769,0,0
45,37,0,0,4175.385,4138.333,4184.615,4225.0,4162.308,4214.359,4181.026,4181.282,4167.179,4179.487,4184.359,4187.564,4177.179,4187.436,0,0
46,38,0,0,4182.308,4143.846,4184.231,4227.179,4161.538,4223.846,4187.9490000000005,4186.795,4176.41,4197.436,4188.59,4187.564,4189.359,4186.795,0,0
47,39,0,0,4199.359,4167.821,4196.667,4243.974,4191.538,4245.513,4204.744000000001,4204.103,4198.333,4240.769,4199.487,4198.333,4204.487,4197.436,0,0
48,40,0,0,4191.538,4163.974,4193.205,4239.487,4193.462,4237.308,4191.154,4204.103,4198.974,4243.462,4190.513,4194.487,4197.821,4193.718,0,0
49,41,0,0,4174.872,4130.897,4178.718,4217.308,4160.513,4216.41,4171.538,4177.692,4177.436,4212.179,4180.0,4181.282,4177.9490000000005,4177.0509999999995,0,0
50,42,0,0,4182.308,4128.077,4183.846,4219.103,4160.513,4226.923,4180.255999999999,4175.513,4177.179,4222.564,4190.255999999999,4187.692,4184.359,4179.615,0,0
51,43,0,0,4193.59,4150.0,4193.205,4236.026,4190.255999999999,4239.487,4190.385,4195.897,4184.615,4249.359,4195.769,4197.692,4201.795,4188.718,0,0
52,44,0,0,4187.9490000000005,4154.615,4192.308,4235.128,4191.282,4229.487,4190.255999999999,4201.667,4177.308,4243.462,4194.872,4193.846,4196.538,4185.513,0,0
53,45,0,0,4190.255999999999,4148.333,4201.538,4233.333,4171.282,4227.436,4200.128,4200.128,4186.923,4242.308,4204.872,4200.385,4193.077,4191.667,0,0
54,46,0,0,4197.436,4145.0,4210.255999999999,4241.154,4179.744000000001,4237.436,4208.59,4206.282,4204.872,4258.846,4213.462,4209.744000000001,4203.333,4200.641,0,0
55,47,0,0,4179.744000000001,4131.795,4188.59,4226.154,4202.9490000000005,4234.103,4194.231,4200.128,4191.795,4249.103,4202.0509999999995,4191.282,4201.026,4182.9490000000005,0,0
56,48,0,0,4160.128,4113.974,4170.255999999999,4213.59,4178.077,4222.692,4181.795,4184.615,4174.359,4222.0509999999995,4177.821,4167.0509999999995,4186.538,4160.897,0,0
57,49,0,0,4162.692,4115.385,4177.692,4231.41,4137.821,4216.282,4186.026,4184.103,4179.615,4218.974,4167.0509999999995,4167.179,4182.564,4157.179,0,0
58,50,0,0,4169.103,4127.0509999999995,4182.308,4236.538,4161.923,4215.641,4191.41,4190.255999999999,4182.692,4224.487,4175.385,4176.282,4186.41,4160.255999999999,0,0
59,51,0,0,4169.615,4131.795,4180.769,4222.821,4201.667,4223.077,4194.615,4194.103,4180.513,4221.923,4184.615,4180.769,4192.692,4167.308,0,0
60,52,0,0,4178.077,4134.359,4187.436,4226.538,4197.564,4227.436,4194.615,4198.974,4186.667,4221.026,4184.615,4186.41,4201.538,4177.179,0,0
61,53,0,0,4186.41,4137.564,4192.9490000000005,4238.718,4183.205,4219.487,4189.231,4199.487,4189.103,4219.359,4183.718,4184.615,4198.205,4177.0509999999995,0,0
62,54,0,0,4184.359,4134.615,4192.9490000000005,4236.795,4169.487,4215.255999999999,4185.255999999999,4190.385,4176.41,4205.0,4178.077,4178.205,4183.846,4169.872,0,0
63,55,0,0,4162.436,4117.9490000000005,4168.333,4214.103,4154.744000000001,4207.692,4177.9490000000005,4171.41,4151.667,4174.103,4154.487,4164.615,4164.359,4150.128,0,0
64,56,0,0,4155.897,4117.308,4156.667,4199.615,4159.359,4202.436,4187.0509999999995,4176.538,4149.487,4166.923,4155.255999999999,4168.333,4162.692,4149.103,0,0
65,57,0,0,4182.692,4153.077,4191.667,4220.0,4186.026,4220.641,4214.744000000001,4208.077,4179.231,4197.692,4190.255999999999,4198.462,4188.077,4185.128,0,0
66,58,0,0,4205.385,4185.0,4210.513,4245.385,4207.564,4238.718,4214.487,4213.846,4188.974,4208.718,4206.795,4211.667,4199.744000000001,4209.231,0,0
67,59,0,0,4209.744000000001,4189.359,4194.103,4245.897,4187.692,4227.436,4195.897,4194.487,4174.103,4193.59,4198.205,4197.9490000000005,4185.255999999999,4205.385,0,0
68,60,0,0,4223.846,4195.0,4203.846,4246.154,4154.872,4211.667,4199.231,4191.41,4173.718,4196.282,4200.897,4199.487,4176.282,4211.154,0,0
69,61,0,0,4231.282,4211.795,4214.359,4247.308,4185.128,4216.154,4195.769,4189.872,4175.255999999999,4196.667,4209.872,4207.692,4177.564,4217.821,0,0
70,62,0,0,4216.026,4215.385,4183.333,4238.205,4211.026,4210.255999999999,4162.0509999999995,4163.718,4152.0509999999995,4164.359,4193.974,4189.744000000001,4161.41,4197.0509999999995,0,0
71,63,0,0,4218.59,4220.641,4182.692,4245.897,4164.487,4193.974,4163.462,4164.359,4149.872,4152.9490000000005,4183.846,4186.154,4155.769,4193.59,0,0
72,64,0,3160,4245.0,4248.333,4223.59,4270.897,4171.795,4210.385,4213.59,4211.795,4191.795,4189.744000000001,4208.718,4220.255999999999,4190.769,4222.436,0,0
73,65,0,3347,4246.282,4256.795,4225.513,4268.718,4245.897,4240.385,4232.9490000000005,4231.795,4208.718,4201.795,4216.923,4230.0,4207.692,4224.231,0,0
74,66,0,2874,4222.436,4231.282,4197.0509999999995,4244.103,4247.692,4242.821,4215.897,4205.513,4181.282,4172.0509999999995,4193.462,4203.59,4187.436,4200.641,0,0
75,67,0,3538,4216.282,4217.179,4201.795,4245.769,4195.385,4231.026,4211.923,4195.128,4170.513,4165.255999999999,4188.462,4200.128,4181.795,4202.692,0,0
76,68,0,3566,4216.538,4218.333,4211.538,4250.0,4183.077,4217.821,4210.255999999999,4200.641,4184.359,4179.872,4203.974,4209.103,4188.718,4213.846,0,0
77,69,0,2774,4204.231,4207.179,4195.897,4223.718,4193.846,4199.359,4195.641,4190.128,4187.0509999999995,4178.846,4201.667,4198.846,4184.103,4205.0,0,0
78,70,0,3294,4198.846,4206.026,4193.462,4218.462,4195.255999999999,4199.103,4196.667,4192.0509999999995,4188.333,4188.974,4201.154,4198.462,4194.359,4201.667,0,0
79,71,0,3398,4193.205,4202.0509999999995,4193.846,4225.641,4179.231,4201.41,4188.718,4192.821,4178.462,4183.333,4197.9490000000005,4198.205,4192.0509999999995,4190.128,0,0
80,72,0,3202,4172.436,4178.205,4168.846,4205.513,4164.231,4183.333,4161.154,4172.179,4153.974,4147.9490000000005,4166.41,4171.923,4162.0509999999995,4158.718,0,0
81,73,0,3574,4181.538,4187.564,4173.59,4209.744000000001,4187.308,4194.487,4172.308,4177.9490000000005,4162.821,4152.179,4168.974,4175.255999999999,4171.538,4164.615,0,0
82,74,0,3417,4211.026,4218.205,4205.513,4244.615,4210.769,4222.436,4202.179,4205.255999999999,4184.231,4176.795,4209.359,4210.0,4198.462,4196.795,0,0
83,75,0,3284,4219.103,4216.795,4215.513,4256.795,4195.897,4218.974,4204.615,4205.513,4178.205,4169.615,4216.667,4221.667,4192.0509999999995,4209.231,0,0
84,76,0,3097,4207.692,4194.615,4203.077,4239.359,4178.846,4202.692,4193.462,4186.41,4165.255999999999,4160.897,4191.282,4209.103,4179.744000000001,4201.41,0,0
85,77,0,3234,4197.308,4180.513,4191.154,4223.846,4185.0,4200.769,4185.897,4182.436,4162.564,4169.487,4181.41,4195.641,4179.487,4191.026,0,0
86,78,0,3417,4191.538,4170.641,4185.385,4218.462,4189.103,4199.487,4182.692,4186.282,4162.564,4167.436,4182.821,4189.615,4177.308,4184.487,0,0
87,79,0,3284,4190.0,4161.923,4187.692,4220.897,4182.821,4194.872,4182.179,4180.255999999999,4162.9490000000005,4167.308,4178.462,4187.9490000000005,4176.154,4182.692,0,0
88,80,0,3097,4195.0,4155.513,4194.359,4224.872,4176.282,4191.667,4183.205,4178.077,4161.154,4170.897,4182.0509999999995,4192.0509999999995,4180.128,4188.846,0,0
89,81,0,3234,4195.385,4151.026,4191.795,4225.255999999999,4169.487,4194.359,4182.564,4182.179,4155.385,4168.205,4188.333,4192.179,4179.487,4193.205,0,0
90,82,0,3417,4184.744000000001,4141.795,4182.692,4220.385,4161.795,4199.615,4181.282,4175.128,4151.538,4172.692,4185.255999999999,4188.077,4170.385,4183.205,0,0
91,83,0,3284,4179.872,4132.436,4180.897,4211.667,4163.333,4197.821,4188.077,4173.718,4157.821,4187.9490000000005,4183.974,4189.103,4171.538,4173.846,0,0
92,84,0,3097,4199.744000000001,4145.255999999999,4200.513,4225.385,4183.462,4206.026,4210.513,4198.462,4174.231,4210.128,4198.333,4204.359,4197.0509999999995,4193.077,0,0
93,85,0,3234,4208.205,4157.308,4209.231,4243.205,4193.333,4224.744000000001,4223.333,4212.308,4178.718,4214.872,4210.128,4209.487,4202.0509999999995,4206.026,0,0
94,86,0,3417,4193.077,4145.769,4193.59,4231.667,4189.231,4227.692,4215.255999999999,4204.744000000001,4163.205,4203.718,4194.487,4197.692,4177.821,4190.255999999999,0,0
95,87,0,3284,4181.282,4131.667,4181.538,4215.0,4184.231,4210.641,4207.9490000000005,4199.359,4155.128,4199.359,4177.179,4189.103,4175.641,4176.41,0,0
96,88,0,3097,4167.564,4106.795,4169.615,4201.795,4152.564,4201.538,4196.923,4180.513,4145.769,4185.897,4162.9490000000005,4169.744000000001,4170.385,4157.9490000000005,0,0
97,89,0,3234,4153.462,4088.974,4157.692,4194.359,4135.128,4209.744000000001,4183.205,4162.564,4138.077,4165.385,4145.641,4154.487,4150.385,4143.205,0,0
98,90,0,3417,4170.255999999999,4111.154,4171.282,4206.282,4165.897,4206.41,4185.513,4177.179,4155.0,4175.641,4158.59,4175.641,4162.436,4163.59,0,0
99,91,0,3284,4195.385,4135.128,4192.436,4231.282,4185.513,4195.255999999999,4199.872,4201.795,4180.513,4210.897,4192.821,4202.821,4191.282,4193.333,0,0
100,92,0,3097,4198.718,4126.282,4192.9490000000005,4233.333,4177.436,4206.154,4201.795,4203.077,4183.846,4219.872,4196.41,4205.255999999999,4191.923,4197.9490000000005,0,0
101,93,0,3234,4194.872,4120.641,4189.744000000001,4218.718,4180.897,4213.077,4189.615,4191.154,4172.436,4212.0509999999995,4183.974,4200.769,4185.255999999999,4194.744000000001,0,0
102,94,0,3417,4192.308,4123.462,4192.692,4219.872,4173.333,4191.923,4185.385,4186.795,4169.487,4212.436,4189.231,4199.487,4185.385,4194.103,0,0
103,95,0,3284,4181.154,4115.897,4182.692,4215.128,4153.974,4182.308,4180.769,4186.795,4169.231,4211.41,4188.59,4190.513,4179.231,4182.9490000000005,0,0
104,96,0,3097,4175.255999999999,4115.641,4174.744000000001,4203.077,4159.487,4191.923,4173.205,4183.59,4168.59,4207.179,4183.59,4186.154,4179.103,4176.538,0,0
105,97,0,3234,4187.821,4123.333,4192.0509999999995,4215.385,4164.231,4196.667,4183.333,4182.821,4173.462,4210.255999999999,4194.615,4194.231,4186.923,4190.513,0,0
106,98,0,3417,4193.462,4124.359,4192.9490000000005,4229.615,4160.128,4198.59,4191.667,4185.513,4176.026,4212.308,4194.744000000001,4190.385,4187.9490000000005,4198.333,0,0
107,99,0,3284,4179.487,4120.385,4164.615,4210.641,4167.821,4196.923,4172.0509999999995,4175.0,4161.538,4196.282,4173.333,4173.333,4175.769,4180.255999999999,0,0
108,100,0,3097,4169.231,4116.667,4155.255999999999,4190.769,4163.718,4184.872,4158.718,4160.255999999999,4148.462,4178.333,4163.846,4168.974,4165.769,4165.769,0,0
109,101,0,3234,4183.462,4126.41,4179.359,4203.205,4154.487,4186.026,4178.333,4174.231,4161.923,4182.692,4177.436,4184.615,4176.667,4179.872,0,0
110,102,0,3417,4192.308,4148.205,4191.667,4220.513,4173.462,4204.744000000001,4193.846,4197.308,4181.282,4199.359,4188.333,4191.538,4191.923,4189.872,0,0
111,103,0,3284,4180.513,4153.974,4181.795,4219.744000000001,4196.538,4206.026,4182.564,4194.359,4178.462,4197.821,4183.59,4185.641,4184.359,4179.231,0,0
112,104,0,3097,4175.897,4151.923,4180.255999999999,4215.0,4184.231,4188.333,4173.333,4178.846,4166.282,4190.128,4181.795,4188.718,4175.0,4177.564,0,0
113,105,0,3234,4188.846,4165.255999999999,4188.205,4222.179,4177.9490000000005,4187.0509999999995,4183.077,4183.333,4168.718,4197.308,4188.718,4197.0509999999995,4184.231,4187.179,0,0
114,106,0,3417,4195.0,4176.538,4190.641,4229.615,4199.103,4201.538,4192.436,4200.385,4179.487,4205.769,4192.179,4196.154,4192.436,4186.026,0,0
115,107,0,3284,4189.872,4174.615,4189.359,4225.385,4190.769,4203.974,4189.872,4193.59,4175.513,4201.41,4189.359,4191.41,4190.128,4183.59,0,0
116,108,0,3097,4181.923,4173.718,4185.255999999999,4216.538,4166.026,4194.231,4182.821,4171.026,4160.769,4188.846,4183.333,4188.205,4185.513,4182.564,0,0
117,109,0,3234,4170.641,4170.0,4171.282,4200.0,4177.692,4185.255999999999,4169.359,4162.0509999999995,4150.128,4173.333,4172.692,4178.462,4176.41,4169.487,0,0
118,110,0,3417,4166.667,4167.0509999999995,4163.59,4192.308,4197.308,4180.769,4161.795,4168.59,4148.462,4165.0,4167.564,4171.154,4171.923,4163.205,0,0
119,111,0,3284,4177.0509999999995,4180.385,4176.026,4203.462,4176.667,4189.744000000001,4174.615,4175.769,4150.385,4165.128,4172.564,4180.255999999999,4175.128,4176.923,0,0
120,112,0,3097,4179.487,4187.9490000000005,4178.59,4200.897,4149.615,4194.359,4169.872,4162.564,4140.0,4149.744000000001,4170.255999999999,4179.872,4161.795,4175.641,0,0
121,113,0,3234,4168.718,4177.179,4165.513,4189.872,4161.667,4181.026,4148.718,4146.923,4128.333,4135.769,4161.538,4162.692,4150.641,4159.103,0,0
122,114,0,3417,4176.923,4184.744000000001,4174.872,4205.897,4189.615,4188.59,4167.308,4168.718,4150.128,4159.615,4173.718,4173.333,4177.692,4170.641,0,0
123,115,0,3284,4189.487,4204.744000000001,4188.974,4223.846,4203.718,4209.615,4193.333,4195.769,4175.255999999999,4185.255999999999,4195.128,4198.59,4200.897,4189.103,0,0
124,116,0,3097,4182.692,4201.538,4183.974,4216.667,4204.103,4205.255999999999,4178.974,4181.282,4163.974,4177.564,4188.718,4195.255999999999,4189.359,4181.923,0,0
125,117,0,3234,4168.846,4183.59,4171.538,4202.692,4200.897,4197.308,4162.9490000000005,4163.462,4146.026,4160.128,4175.128,4176.154,4173.333,4167.436,0,0
126,118,0,3417,4171.923,4188.077,4174.359,4200.513,4188.59,4204.359,4172.308,4175.897,4154.231,4159.744000000001,4182.564,4179.231,4175.769,4172.308,0,0
127,119,0,3284,4174.487,4198.077,4181.41,4208.974,4170.641,4190.641,4173.462,4185.255999999999,4162.564,4160.513,4186.667,4188.333,4179.103,4180.0,0,0
128,120,0,3097,4176.538,4192.821,4187.308,4217.564,4166.538,4176.282,4169.744000000001,4183.333,4157.308,4153.077,4186.923,4189.872,4175.769,4180.897,0,0
129,121,0,3234,4185.769,4195.897,4195.128,4219.744000000001,4182.692,4201.667,4184.359,4190.897,4165.385,4162.821,4198.462,4194.744000000001,4180.897,4187.9490000000005,0,0
130,122,0,3417,4179.744000000001,4191.538,4183.718,4216.154,4189.487,4214.487,4185.897,4185.255999999999,4165.0,4165.385,4188.718,4186.154,4178.846,4179.615,0,0
131,123,0,3284,4165.255999999999,4175.385,4165.128,4212.436,4169.744000000001,4194.359,4175.513,4169.615,4146.667,4146.41,4163.205,4170.0,4164.615,4161.667,0,0
132,124,0,3097,4176.923,4180.128,4178.59,4217.308,4165.897,4193.974,4189.615,4183.718,4151.923,4154.872,4171.667,4181.282,4173.846,4174.103,0,0
133,125,0,3234,4192.179,4184.615,4195.255999999999,4219.359,4183.333,4202.179,4196.795,4195.128,4167.692,4173.718,4188.462,4195.128,4189.103,4191.795,0,0
134,126,0,3417,4184.231,4165.385,4184.487,4218.205,4181.026,4191.923,4179.359,4177.821,4163.333,4163.718,4183.077,4185.0,4176.795,4180.769,0,0
135,127,0,54,4185.513,4164.872,4185.385,4228.462,4181.795,4196.538,4188.462,4197.179,4173.718,4175.385,4189.103,4191.795,4174.872,4179.487,0,0
136,0,0,3165,4194.103,4178.846,4196.923,4233.205,4198.077,4217.308,4210.0,4223.846,4190.128,4209.359,4199.487,4207.308,4194.872,4193.59,0,0
137,1,0,3350,4180.769,4157.179,4181.154,4215.641,4182.564,4201.923,4185.897,4181.154,4163.59,4194.615,4181.154,4187.821,4182.821,4180.769,0,0
138,2,0,2877,4172.564,4139.103,4168.846,4209.872,4153.462,4175.128,4163.718,4148.59,4142.564,4175.385,4165.385,4172.692,4163.205,4171.282,0,0
139,3,0,3545,4186.923,4152.308,4184.872,4225.128,4167.436,4185.0,4181.667,4178.333,4157.564,4196.795,4178.846,4192.564,4177.179,4188.205,0,0
140,4,0,3542,4187.0509999999995,4158.846,4190.385,4228.718,4194.103,4199.487,4186.282,4188.462,4163.718,4208.974,4188.462,4198.974,4186.923,4190.255999999999,0,0
141,5,0,2776,4175.769,4146.41,4181.154,4226.282,4174.103,4191.667,4173.59,4171.282,4156.795,4199.872,4183.974,4182.692,4174.872,4174.872,0,0
142,6,0,3298,4173.077,4135.513,4173.077,4222.0509999999995,4147.0509999999995,4183.205,4168.077,4164.872,4152.692,4192.436,4177.9490000000005,4173.59,4164.872,4169.359,0,0
143,7,0,3396,4176.667,4136.026,4171.667,4214.231,4162.308,4184.744000000001,4167.9490000000005,4161.538,4150.513,4198.718,4171.026,4178.077,4167.821,4175.513,0,0
144,8,0,3205,4177.436,4140.0,4176.154,4222.692,4177.436,4188.205,4177.692,4172.436,4163.205,4219.487,4176.795,4187.9490000000005,4181.795,4179.872,0,0
145,9,0,3565,4181.795,4141.026,4185.513,4236.667,4166.41,4195.255999999999,4188.205,4188.077,4175.0,4229.615,4195.385,4194.744000000001,4191.667,4183.846,0,0
146,10,0,3415,4178.462,4134.487,4180.897,4225.641,4163.333,4189.103,4170.769,4172.564,4158.974,4213.333,4184.615,4182.692,4177.9490000000005,4180.769,0,0
147,11,0,3283,4169.872,4133.59,4166.154,4208.846,4187.0509999999995,4181.026,4151.538,4156.41,4148.462,4204.231,4163.462,4171.538,4167.564,4175.385,0,0
148,12,0,3111,4184.231,4149.103,4186.154,4234.231,4195.385,4200.128,4176.923,4184.744000000001,4175.641,4228.462,4186.282,4195.641,4195.255999999999,4190.0,0,0
149,13,0,3236,4197.436,4157.0509999999995,4206.41,4258.462,4170.0,4203.205,4193.333,4206.282,4189.744000000001,4237.179,4203.846,4209.744000000001,4208.333,4195.128,0,0
150,14,0,3415,4192.821,4154.872,4192.692,4247.308,4157.0509999999995,4184.103,4174.487,4194.231,4175.385,4222.179,4188.718,4196.282,4195.769,4186.026,0,0
151,15,0,3283,4189.359,4152.308,4178.205,4230.897,4180.0,4183.846,4166.538,4182.692,4168.333,4219.103,4185.641,4191.282,4192.564,4188.205,0,0
152,16,0,0,4177.179,4142.564,4171.154,4219.744000000001,4199.487,4184.872,4168.718,4171.795,4159.359,4211.667,4185.255999999999,4182.692,4183.205,4179.872,0,0
153,17,0,0,4160.897,4142.9490000000005,4164.359,4218.718,4176.538,4173.846,4169.359,4162.564,4148.718,4195.385,4170.769,4164.744000000001,4174.231,4157.9490000000005,0,0
154,18,0,0,4166.282,4154.103,4170.385,4219.872,4158.718,4177.564,4175.255999999999,4167.436,4151.026,4191.538,4167.308,4169.744000000001,4182.436,4157.9490000000005,0,0
155,19,0,0,4163.205,4142.9490000000005,4161.154,4208.205,4177.0509999999995,4182.179,4172.821,4170.0,4143.333,4187.692,4162.308,4169.103,4176.538,4160.255999999999,0,0
156,20,0,0,4150.128,4136.154,4142.9490000000005,4205.128,4196.923,4176.667,4167.692,4164.231,4133.462,4179.744000000001,4149.872,4153.077,4162.9490000000005,4150.641,0,0
157,21,0,0,4160.769,4165.128,4156.282,4219.872,4190.255999999999,4181.923,4180.128,4171.795,4148.077,4185.769,4157.692,4160.385,4174.872,4154.231,0,0
158,22,0,0,4160.513,4173.205,4161.282,4209.744000000001,4165.385,4181.154,4177.0509999999995,4169.872,4147.0509999999995,4167.308,4153.846,4158.205,4168.846,4147.436,0,0
159,23,0,0,4133.718,4151.923,4136.41,4180.897,4165.0,4169.487,4158.718,4158.462,4128.333,4137.179,4136.026,4134.103,4147.0509999999995,4128.718,0,0
160,24,0,0,4143.846,4161.154,4146.538,4189.872,4182.564,4174.615,4171.026,4175.255999999999,4145.128,4155.255999999999,4152.821,4150.513,4164.359,4145.513,0,0
161,25,0,0,4170.0,4189.872,4173.462,4207.9490000000005,4196.026,4184.615,4189.615,4191.795,4166.41,4178.974,4177.436,4181.538,4189.231,4169.872,0,0
162,26,0,0,4168.077,4195.0,4173.333,4198.974,4196.667,4183.718,4186.282,4187.308,4158.462,4166.795,4170.641,4179.103,4185.641,4167.0509999999995,0,0
163,27,0,0,4162.9490000000005,4187.564,4169.103,4195.255999999999,4189.359,4180.513,4182.564,4190.513,4158.846,4160.897,4167.692,4172.436,4180.513,4165.385,0,0
164,28,0,0,4170.255999999999,4192.9490000000005,4174.744000000001,4211.026,4183.205,4184.103,4188.333,4199.231,4173.205,4174.872,4186.538,4184.103,4191.026,4176.41,0,0
165,29,0,0,4166.538,4192.436,4170.385,4215.128,4182.564,4184.487,4183.077,4183.718,4165.255999999999,4168.333,4184.615,4185.385,4185.897,4175.897,0,0
166,30,0,0,4156.41,4177.821,4156.795,4197.308,4189.744000000001,4179.615,4166.026,4165.255999999999,4148.462,4148.462,4165.255999999999,4170.128,4170.641,4165.255999999999,0,0
167,31,0,0,4160.255999999999,4179.487,4157.179,4188.718,4188.59,4173.718,4158.846,4174.615,4153.846,4151.667,4168.59,4168.718,4172.9490000000005,4166.282,0,0
168,32,0,0,4151.41,4179.231,4149.359,4181.923,4166.026,4163.846,4147.821,4167.821,4153.462,4147.436,4165.897,4163.462,4163.462,4154.487,0,0
169,33,0,0,4142.692,4166.538,4143.462,4181.795,4151.026,4167.0509999999995,4143.077,4146.538,4146.154,4134.744000000001,4149.615,4154.359,4151.538,4140.769,0,0
170,34,0,0,4168.846,4186.538,4170.897,4211.923,4185.513,4187.821,4175.128,4172.564,4173.333,4165.255999999999,4173.077,4177.308,4182.436,4170.385,0,0
171,35,0,0,4193.974,4216.154,4195.255999999999,4233.333,4210.641,4197.564,4204.231,4210.897,4195.897,4197.821,4210.513,4205.641,4211.923,4203.205,0,0
172,36,0,0,4182.0509999999995,4199.744000000001,4182.692,4218.077,4186.538,4189.103,4196.923,4203.333,4179.615,4179.872,4202.179,4195.128,4196.538,4191.41,0,0
173,37,0,0,4168.205,4170.641,4169.359,4200.769,4178.59,4187.308,4184.103,4181.667,4168.205,4156.282,4182.0509999999995,4179.231,4175.513,4173.462,0,0
174,38,0,0,4163.846,4171.667,4161.282,4198.846,4190.513,4181.154,4172.179,4171.538,4165.641,4152.9490000000005,4171.923,4172.821,4168.205,4167.692,0,0
175,39,0,0,4170.513,4187.436,4159.231,4212.179,4182.692,4174.744000000001,4170.769,4172.436,4160.641,4160.128,4170.897,4167.564,4173.333,4166.154,0,0
176,40,0,0,4191.538,4204.103,4178.205,4236.795,4186.923,4192.436,4194.872,4191.026,4177.821,4183.974,4186.282,4179.103,4199.872,4180.897,0,0
177,41,0,0,4196.923,4206.795,4185.769,4238.974,4206.923,4204.359,4201.923,4201.154,4191.026,4184.872,4184.487,4188.333,4207.436,4189.487,0,0
178,42,0,0,4180.385,4187.564,4163.846,4217.9490000000005,4202.436,4186.41,4176.41,4185.0,4172.436,4154.231,4166.538,4173.59,4179.359,4175.769,0,0
179,43,0,0,4179.744000000001,4173.205,4157.692,4214.359,4185.255999999999,4173.333,4162.564,4169.359,4161.154,4153.077,4165.641,4163.205,4166.41,4170.255999999999,0,0
180,44,0,0,4181.282,4168.846,4163.462,4217.0509999999995,4175.255999999999,4175.897,4159.744000000001,4156.282,4158.333,4166.154,4158.846,4161.41,4171.795,4167.564,0,0
181,45,0,0,4177.9490000000005,4163.59,4161.41,4212.821,4177.308,4172.9490000000005,4155.385,4149.615,4150.897,4165.0,4152.0509999999995,4159.744000000001,4172.308,4163.205,0,0
182,46,0,0,4191.026,4165.128,4170.128,4215.897,4192.821,4172.9490000000005,4167.308,4163.333,4159.615,4176.282,4179.487,4173.333,4171.795,4178.077,0,0
183,47,0,0,4193.59,4164.359,4177.179,4218.205,4181.923,4179.231,4172.436,4166.923,4162.692,4182.0509999999995,4190.0,4181.667,4169.872,4185.255999999999,0,0
184,48,0,0,4181.41,4157.308,4175.0,4216.923,4159.487,4179.103,4167.0509999999995,4158.974,4154.231,4178.077,4166.923,4177.436,4170.255999999999,4175.769,0,0
185,49,0,0,4180.255999999999,4155.897,4174.744000000001,4216.282,4171.41,4175.128,4170.385,4159.744000000001,4158.205,4188.333,4168.462,4178.333,4172.564,4175.641,0,0
186,50,0,0,4175.641,4143.846,4163.59,4203.077,4180.0,4169.359,4165.0,4151.41,4151.923,4175.641,4170.769,4169.744000000001,4161.154,4167.9490000000005,0,0
187,51,0,0,4161.282,4127.692,4148.846,4196.41,4161.538,4167.821,4161.667,4143.077,4143.077,4155.255999999999,4152.436,4156.026,4151.667,4151.923,0,0
188,52,0,0,4167.821,4133.077,4159.744000000001,4208.718,4161.282,4175.128,4175.513,4160.897,4162.9490000000005,4188.205,4156.282,4166.154,4166.667,4160.385,0,0
189,53,0,0,4174.231,4140.385,4165.385,4211.154,4174.744000000001,4177.692,4181.41,4176.538,4174.231,4214.872,4174.615,4171.538,4178.077,4164.487,0,0
190,54,0,0,4158.974,4127.436,4144.872,4197.821,4160.0,4174.359,4166.154,4156.026,4146.667,4179.872,4161.41,4150.513,4161.282,4138.846,0,0
191,55,0,0,4143.333,4114.231,4129.615,4182.0509999999995,4139.103,4167.692,4151.154,4131.41,4127.0509999999995,4155.641,4133.077,4136.154,4142.308,4119.487,0,0
192,56,0,0,4152.0509999999995,4121.026,4142.9490000000005,4184.487,4144.744000000001,4160.769,4159.103,4143.333,4144.744000000001,4173.59,4139.359,4151.026,4153.205,4132.821,0,0
193,57,0,0,4177.692,4142.821,4174.103,4216.282,4170.128,4170.0,4190.769,4182.821,4179.744000000001,4202.692,4177.436,4180.0,4189.872,4164.103,0,0
194,58,0,0,4192.564,4153.077,4192.821,4244.103,4185.897,4189.744000000001,4208.846,4203.205,4198.846,4221.667,4195.0,4195.513,4209.487,4180.769,0,0
195,59,0,0,4176.667,4134.103,4176.282,4228.333,4169.744000000001,4184.103,4186.154,4179.872,4182.436,4208.846,4169.359,4175.897,4188.846,4163.205,0,0
196,60,0,0,4161.282,4114.487,4159.615,4204.744000000001,4154.359,4165.641,4168.718,4154.231,4162.0509999999995,4182.9490000000005,4148.333,4152.9490000000005,4165.255999999999,4144.487,0,0
197,61,0,0,4162.0509999999995,4112.436,4160.897,4200.897,4157.821,4163.846,4168.205,4151.538,4162.308,4176.026,4151.538,4152.692,4161.282,4144.359,0,0
198,62,0,0,4160.641,4113.59,4157.179,4199.359,4162.436,4162.564,4162.564,4156.538,4166.795,4180.255999999999,4150.769,4156.282,4163.59,4146.154,0,0
199,63,0,0,4169.615,4124.872,4164.359,4215.513,4172.821,4160.128,4166.795,4166.154,4173.462,4186.154,4160.255999999999,4166.026,4172.0509999999995,4157.0509999999995,0,0
200,64,0,3170,4178.59,4135.897,4178.974,4238.462,4164.231,4167.436,4177.308,4168.462,4174.487,4190.0,4175.0,4176.026,4175.897,4170.0,0,0
201,65,0,3356,4168.718,4129.103,4169.872,4225.385,4140.769,4161.154,4165.385,4154.487,4158.974,4176.538,4160.897,4168.846,4160.0,4162.0509999999995,0,0
202,66,0,2878,4162.692,4130.769,4155.641,4197.564,4154.359,4143.846,4148.077,4151.41,4153.205,4166.538,4148.205,4164.872,4154.487,4155.897,0,0
203,67,0,3552,4185.0,4156.795,4178.846,4204.231,4185.0,4149.359,4160.769,4171.538,4169.744000000001,4182.0509999999995,4171.41,4183.846,4177.0509999999995,4177.0509999999995,0,0
204,68,0,3586,4205.769,4189.103,4206.41,4244.231,4188.462,4168.333,4192.0509999999995,4194.615,4189.872,4203.846,4196.41,4203.846,4199.359,4202.436,0,0
205,69,0,2785,4198.718,4188.59,4192.308,4260.255999999999,4179.872,4164.487,4190.513,4190.897,4189.872,4195.0,4188.077,4195.769,4188.974,4194.231,0,0
206,70,0,3297,4170.641,4162.821,4152.564,4223.974,4176.41,4141.923,4153.974,4160.128,4167.179,4155.641,4157.436,4164.359,4154.487,4157.436,0,0
207,71,0,3412,4170.513,4165.513,4154.744000000001,4199.872,4176.154,4144.872,4156.154,4158.846,4165.255999999999,4150.0,4153.59,4161.282,4152.436,4155.897,0,0
208,72,0,3211,4198.205,4192.308,4186.282,4218.846,4186.667,4171.026,4191.154,4188.462,4192.692,4181.282,4180.385,4185.0,4182.821,4186.282,0,0
209,73,0,3583,4191.026,4189.359,4174.231,4214.231,4182.0509999999995,4168.462,4179.231,4176.923,4188.59,4168.974,4175.0,4173.974,4177.0509999999995,4175.385,0,0
210,74,0,3422,4166.667,4178.077,4155.641,4195.128,4159.359,4142.179,4152.308,4152.436,4168.718,4139.231,4153.333,4154.744000000001,4156.538,4151.026,0,0
211,75,0,3287,4188.333,4211.026,4181.667,4222.0509999999995,4181.154,4149.231,4174.231,4176.795,4193.846,4164.872,4176.41,4177.564,4184.487,4175.255999999999,0,0
212,76,0,3113,4221.282,4250.641,4207.436,4260.513,4225.897,4177.436,4203.462,4207.308,4228.077,4201.026,4207.821,4205.641,4219.487,4207.692,0,0
213,77,0,3243,4207.821,4238.974,4187.308,4239.487,4219.103,4165.897,4187.0509999999995,4190.0,4211.667,4182.692,4193.462,4193.333,4200.897,4194.231,0,0
214,78,0,3422,4186.154,4216.538,4169.359,4203.205,4187.436,4145.0,4165.897,4168.974,4188.846,4158.205,4177.179,4175.897,4177.564,4177.179,0,0
215,79,0,3287,4192.179,4229.744000000001,4177.564,4205.255999999999,4191.026,4156.667,4170.128,4178.077,4197.692,4165.385,4187.179,4181.538,4190.513,4185.897,0,0
216,80,0,3113,4193.59,4238.718,4179.872,4210.255999999999,4197.308,4163.59,4171.026,4178.974,4197.692,4161.282,4180.769,4180.0,4192.436,4181.795,0,0
217,81,0,3243,4187.692,4230.641,4178.59,4205.897,4191.026,4157.0509999999995,4171.154,4171.923,4189.359,4150.897,4171.026,4173.333,4181.154,4173.462,0,0
218,82,0,3422,4204.872,4248.974,4193.846,4225.769,4207.9490000000005,4170.897,4188.974,4188.462,4206.41,4166.282,4195.385,4195.255999999999,4197.564,4198.077,0,0
219,83,0,3287,4213.077,4263.077,4202.179,4241.026,4219.231,4176.154,4198.846,4201.923,4220.769,4179.359,4209.615,4208.462,4212.179,4215.513,0,0
220,84,0,3113,4190.0,4237.308,4185.128,4221.026,4195.897,4161.41,4186.795,4189.359,4201.795,4163.59,4183.333,4181.41,4191.282,4187.692,0,0
221,85,0,3243,4172.9490000000005,4215.641,4169.615,4212.308,4182.9490000000005,4169.744000000001,4176.923,4179.487,4187.179,4143.205,4166.282,4162.436,4174.103,4163.205,0,0
222,86,0,3422,4171.538,4203.846,4164.744000000001,4207.692,4186.667,4173.974,4170.0,4165.513,4182.179,4127.821,4168.333,4167.0509999999995,4172.692,4163.974,0,0
223,87,0,3287,4172.821,4197.308,4165.769,4200.513,4184.231,4156.41,4166.282,4153.205,4178.718,4134.872,4168.974,4167.308,4175.128,4166.41,0,0
224,88,0,3113,4174.103,4198.462,4167.9490000000005,4211.026,4174.872,4155.769,4164.744000000001,4158.333,4176.154,4147.564,4164.872,4161.154,4174.872,4158.462,0,0
225,89,0,3243,4167.179,4191.282,4161.41,4206.923,4172.179,4162.436,4160.128,4162.179,4172.436,4141.923,4156.667,4155.769,4167.179,4145.641,0,0
226,90,0,3422,4176.41,4196.282,4173.718,4205.128,4183.974,4160.897,4179.103,4177.436,4187.0509999999995,4148.974,4174.103,4177.179,4180.897,4160.769,0,0
227,91,0,3287,4200.897,4218.59,4196.41,4233.077,4198.59,4162.308,4202.308,4201.923,4208.462,4160.513,4206.154,4209.103,4204.231,4192.0509999999995,0,0
228,92,0,3113,4206.667,4218.462,4196.026,4244.487,4204.744000000001,4166.026,4194.359,4198.974,4210.128,4169.359,4199.487,4204.872,4202.564,4195.513,0,0
229,93,0,3243,4203.333,4204.231,4189.231,4230.513,4194.103,4163.333,4187.821,4186.154,4205.128,4192.9490000000005,4177.9490000000005,4189.103,4201.026,4187.308,0,0
230,94,0,3422,4203.846,4199.359,4192.9490000000005,4231.538,4181.795,4157.9490000000005,4200.255999999999,4195.897,4204.231,4195.897,4189.359,4195.641,4202.564,4190.128,0,0
231,95,0,3287,4197.692,4190.128,4194.359,4231.667,4184.359,4158.846,4206.282,4207.179,4200.641,4175.513,4201.154,4201.41,4183.59,4192.436,0,0
232,96,0,3113,4191.667,4179.359,4188.205,4221.282,4188.59,4162.9490000000005,4195.641,4197.9490000000005,4202.436,4192.821,4190.769,4190.255999999999,4176.795,4188.846,0,0
233,97,0,3243,4183.974,4159.872,4170.513,4209.231,4172.821,4151.795,4168.846,4165.385,4190.255999999999,4202.0509999999995,4169.231,4171.41,4177.179,4172.308,0,0
234,98,0,3422,4162.821,4133.205,4148.333,4194.615,4146.923,4139.231,4153.205,4140.769,4161.41,4165.0,4155.255999999999,4156.923,4154.487,4147.436,0,0
235,99,0,3287,4163.974,4137.564,4157.9490000000005,4200.513,4146.282,4151.282,4171.923,4153.205,4163.462,4172.692,4171.538,4168.462,4153.462,4155.385,0,0
236,100,0,3113,4188.205,4166.026,4186.154,4228.718,4169.872,4162.436,4189.359,4179.359,4194.359,4222.821,4196.154,4192.564,4188.974,4184.359,0,0
237,101,0,3243,4210.897,4190.641,4208.59,4253.59,4193.59,4168.462,4198.333,4203.205,4222.179,4248.846,4206.41,4209.744000000001,4216.923,4200.769,0,0
238,102,0,3422,4208.59,4189.872,4206.667,4250.128,4193.718,4171.923,4203.59,4204.231,4220.255999999999,4237.308,4205.0,4210.769,4207.0509999999995,4201.282,0,0
239,103,0,3287,4191.41,4163.205,4183.205,4226.026,4171.795,4156.154,4187.564,4177.564,4193.846,4211.282,4191.026,4196.026,4176.41,4188.846,0,0
240,104,0,3113,4186.282,4155.513,4174.359,4220.255999999999,4170.385,4146.538,4175.641,4171.538,4186.41,4204.872,4184.231,4187.692,4170.385,4181.923,0,0
241,105,0,3243,4192.821,4171.282,4188.333,4235.255999999999,4185.0,4162.692,4189.103,4187.308,4202.564,4215.897,4194.487,4193.718,4183.846,4188.205,0,0
242,106,0,3422,4183.333,4164.231,4183.974,4227.0509999999995,4175.255999999999,4169.103,4191.667,4176.795,4197.308,4210.641,4187.436,4185.385,4177.692,4181.923,0,0
243,107,0,3287,4163.333,4144.487,4153.205,4200.641,4167.564,4158.077,4168.205,4153.974,4172.821,4189.744000000001,4162.692,4160.513,4161.667,4158.718,0,0
244,108,0,3113,4167.179,4146.795,4155.0,4205.128,4168.077,4155.513,4155.513,4160.769,4177.179,4189.615,4164.487,4163.846,4165.385,4156.282,0,0
245,109,0,3243,4188.59,4163.974,4191.795,4245.255999999999,4155.128,4159.487,4163.846,4178.59,4197.564,4206.026,4182.308,4192.0509999999995,4176.026,4179.231,0,0
246,110,0,3422,4205.255999999999,4180.641,4210.513,4265.513,4180.128,4168.077,4176.667,4188.205,4204.615,4218.077,4196.154,4207.9490000000005,4187.436,4206.026,0,0
247,111,0,3287,4216.667,4190.769,4214.487,4238.718,4207.179,4185.255999999999,4196.795,4203.333,4213.077,4234.359,4217.9490000000005,4217.436,4211.795,4225.897,0,0
248,112,0,3113,4216.923,4190.0,4217.564,4218.718,4181.795,4188.462,4208.205,4206.795,4216.026,4236.154,4222.564,4220.897,4216.154,4222.564,0,0
249,113,0,3243,4192.564,4178.077,4189.615,4229.615,4186.026,4167.692,4187.179,4182.821,4196.667,4208.077,4194.744000000001,4197.692,4183.59,4194.487,0,0
250,114,0,3422,4178.077,4171.795,4168.974,4235.0,4221.41,4158.462,4171.667,4166.538,4183.333,4186.538,4176.795,4181.923,4165.385,4181.026,0,0
251,115,0,3287,4181.41,4172.9490000000005,4180.641,4217.692,4185.255999999999,4166.923,4182.564,4163.974,4183.846,4186.923,4175.641,4181.538,4170.255999999999,4177.436,0,0
252,116,0,3113,4173.333,4167.9490000000005,4173.718,4203.077,4137.436,4164.103,4176.282,4148.846,4170.897,4173.974,4164.103,4167.179,4161.282,4158.462,0,0
253,117,0,3243,4171.667,4178.846,4160.385,4201.026,4183.205,4160.897,4160.769,4146.154,4166.154,4165.513,4165.897,4168.205,4157.0509999999995,4158.974,0,0
254,118,0,3422,4203.077,4214.103,4192.436,4214.231,4224.872,4177.436,4179.103,4166.282,4185.513,4192.308,4196.923,4203.974,4186.538,4196.026,0,0
255,119,0,3287,4217.564,4231.795,4215.897,4233.59,4204.872,4182.308,4199.872,4172.692,4192.564,4209.487,4210.0,4217.692,4206.41,4213.333,0,0
256,120,0,3113,4197.564,4224.487,4194.744000000001,4225.0,4197.308,4169.359,4193.333,4169.359,4180.641,4190.641,4194.103,4198.846,4189.359,4193.974,0,0
257,121,0,3243,4185.128,4219.872,4175.769,4199.103,4213.974,4166.41,4175.769,4166.026,4169.744000000001,4169.872,4180.641,4187.436,4168.462,4178.462,0,0
258,122,0,3422,4190.897,4215.641,4182.564,4196.41,4199.231,4167.821,4171.154,4159.231,4163.205,4161.795,4177.436,4189.487,4163.333,4183.59,0,0
259,123,0,3287,4198.974,4222.179,4197.436,4212.0509999999995,4178.333,4170.769,4189.872,4170.513,4172.436,4166.154,4184.487,4198.718,4170.513,4196.795,0,0
260,124,0,3113,4194.231,4235.0,4190.641,4211.795,4197.692,4183.59,4202.821,4182.692,4181.667,4169.615,4186.667,4196.538,4173.718,4192.436,0,0
261,125,0,3243,4174.103,4214.487,4162.564,4188.205,4199.615,4180.513,4186.026,4160.513,4159.872,4146.538,4163.205,4170.385,4155.641,4160.897,0,0
262,126,0,3422,4162.692,4195.255999999999,4152.9490000000005,4178.59,4179.103,4160.128,4169.872,4141.667,4142.564,4126.795,4146.026,4156.795,4142.692,4146.41,0,0
263,127,0,54,4184.872,4222.179,4177.179,4199.744000000001,4198.974,4169.103,4183.718,4169.872,4173.205,4157.308,4173.59,4186.41,4169.103,4179.359,0,0
264,0,0,3147,4201.026,4238.59,4187.821,4221.282,4217.692,4186.282,4192.9490000000005,4190.769,4199.359,4181.538,4201.154,4206.41,4192.179,4202.692,0,0
265,1,0,3318,4190.0,4214.231,4178.59,4217.179,4187.9490000000005,4169.103,4178.462,4173.59,4184.359,4161.282,4187.0509999999995,4191.282,4174.103,4184.487,0,0
266,2,0,2865,4184.103,4211.538,4183.333,4209.872,4171.923,4150.128,4173.846,4169.744000000001,4182.436,4165.128,4177.0509999999995,4192.308,4173.974,4177.821,0,0
267,3,0,3531,4196.026,4233.846,4196.282,4219.359,4199.103,4161.282,4184.103,4190.0,4205.385,4188.205,4200.385,4216.538,4203.077,4200.769,0,0
268,4,0,3581,4207.0509999999995,4238.462,4197.9490000000005,4231.923,4219.231,4175.641,4188.846,4201.282,4215.769,4184.231,4217.692,4226.026,4210.385,4214.359,0,0
269,5,0,2767,4206.154,4227.179,4191.795,4229.359,4207.692,4168.846,4182.564,4186.026,4202.564,4182.436,4198.846,4211.154,4193.846,4202.692,0,0
270,6,0,3289,4202.564,4227.692,4191.923,4216.41,4192.821,4159.487,4178.974,4167.9490000000005,4185.513,4186.667,4196.923,4205.128,4183.846,4196.667,0,0
271,7,0,3403,4210.128,4241.154,4206.667,4222.308,4197.179,4163.974,4183.718,4174.615,4183.59,4168.974,4227.0509999999995,4225.385,4184.359,4212.308,0,0
272,8,0,3204,4212.821,4244.359,4211.795,4241.026,4203.462,4169.103,4185.897,4189.487,4190.769,4161.795,4214.487,4231.795,4188.718,4216.41,0,0
273,9,0,3571,4201.923,4230.255999999999,4194.615,4238.59,4194.744000000001,4166.538,4181.923,4178.462,4184.231,4173.59,4180.385,4208.205,4181.282,4197.436,0,0
274,10,0,3417,4199.744000000001,4220.128,4190.513,4224.231,4179.103,4160.897,4176.154,4161.667,4166.026,4170.513,4187.0509999999995,4198.077,4167.692,4188.59,0,0
275,11,0,3282,4211.026,4228.205,4203.974,4229.487,4183.846,4157.564,4182.0509999999995,4175.255999999999,4168.718,4171.154,4197.9490000000005,4211.667,4174.231,4198.205,0,0
276,12,0,3093,4209.359,4240.641,4196.154,4241.282,4193.462,4159.231,4184.872,4179.103,4175.641,4173.077,4183.718,4207.692,4178.846,4198.077,0,0
277,13,0,3233,4197.436,4228.077,4178.59,4234.359,4184.872,4157.308,4175.769,4164.744000000001,4165.897,4167.179,4180.769,4191.538,4167.436,4188.462,0,0
278,14,0,3417,4195.641,4203.59,4189.359,4224.359,4176.667,4150.769,4173.462,4177.179,4165.255999999999,4182.564,4190.385,4198.333,4165.641,4188.205,0,0
279,15,0,3282,4194.744000000001,4202.308,4198.718,4223.333,4174.103,4155.385,4176.538,4183.59,4171.282,4197.179,4183.462,4205.128,4171.026,4184.615,0,0
280,16,0,0,4180.769,4201.538,4177.564,4217.308,4157.692,4159.487,4165.0,4148.846,4154.872,4176.795,4164.103,4186.282,4158.59,4165.513,0,0
281,17,0,0,4172.0509999999995,4190.641,4162.564,4212.821,4150.255999999999,4153.718,4154.744000000001,4135.513,4145.255999999999,4169.615,4161.923,4170.128,4152.436,4158.205,0,0
282,18,0,0,4192.308,4204.615,4188.462,4226.41,4175.255999999999,4166.026,4174.359,4171.667,4169.359,4202.0509999999995,4188.59,4194.487,4174.231,4182.0509999999995,0,0
283,19,0,0,4207.436,4228.974,4207.564,4239.615,4196.795,4185.385,4195.513,4190.897,4186.41,4220.769,4201.667,4220.769,4190.769,4200.0,0,0
284,20,0,0,4202.692,4221.923,4192.692,4233.846,4200.255999999999,4179.744000000001,4191.154,4180.897,4181.538,4206.538,4197.179,4213.333,4186.923,4196.282,0,0
285,21,0,0,4200.385,4213.59,4180.513,4226.538,4190.385,4167.692,4184.103,4182.692,4185.128,4199.487,4198.205,4198.59,4180.769,4191.538,0,0
286,22,0,0,4200.128,4221.41,4185.128,4223.974,4163.59,4169.872,4189.359,4190.769,4186.795,4206.923,4183.974,4195.0,4180.897,4182.692,0,0
287,23,0,0,4178.205,4209.359,4166.154,4208.718,4158.718,4162.436,4183.718,4183.333,4171.538,4195.255999999999,4163.077,4182.179,4168.333,4159.872,0,0
288,24,0,0,4161.923,4192.9490000000005,4141.154,4192.0509999999995,4178.077,4149.487,4163.974,4166.026,4163.077,4175.897,4165.513,4165.641,4153.59,4149.231,0,0
289,25,0,0,4172.179,4203.974,4153.333,4192.9490000000005,4174.872,4155.513,4165.385,4164.872,4169.359,4178.333,4171.026,4166.282,4161.667,4160.0,0,0
290,26,0,0,4181.538,4217.308,4164.872,4201.667,4166.41,4168.718,4185.769,4174.103,4173.205,4185.0,4161.538,4172.9490000000005,4171.923,4163.718,0,0
291,27,0,0,4170.897,4200.513,4150.0,4199.744000000001,4167.9490000000005,4164.103,4184.103,4168.974,4167.821,4180.897,4157.308,4166.026,4163.718,4151.154,0,0
292,28,0,0,4164.231,4197.0509999999995,4147.0509999999995,4203.718,4163.718,4156.667,4168.974,4160.0,4168.333,4179.103,4162.564,4162.9490000000005,4157.821,4150.128,0,0
293,29,0,0,4172.564,4218.974,4157.692,4207.308,4175.897,4165.0,4169.872,4167.0509999999995,4175.0,4172.436,4172.0509999999995,4173.077,4166.923,4163.077,0,0
294,30,0,0,4165.513,4208.974,4146.154,4187.308,4174.359,4168.077,4171.538,4164.872,4173.205,4167.0509999999995,4169.744000000001,4165.769,4165.641,4156.282,0,0
295,31,0,0,4159.487,4193.846,4147.821,4192.9490000000005,4133.333,4163.718,4174.231,4154.872,4175.0,4188.462,4162.179,4158.077,4166.667,4149.487,0,0
296,32,0,0,4168.59,4208.846,4165.0,4217.436,4147.564,4161.667,4181.282,4159.487,4186.026,4209.231,4167.308,4167.821,4179.615,4159.487,0,0
297,33,0,0,4178.333,4214.231,4170.255999999999,4211.026,4201.154,4165.897,4184.872,4164.744000000001,4193.333,4204.359,4176.41,4176.923,4181.41,4167.692,0,0
298,34,0,0,4173.333,4196.667,4169.744000000001,4197.692,4171.667,4174.615,4183.718,4159.359,4185.513,4197.9490000000005,4176.282,4172.308,4174.487,4164.231,0,0
299,35,0,0,4162.821,4188.205,4157.9490000000005,4201.795,4131.282,4173.462,4176.282,4149.615,4168.846,4193.077,4165.0,4161.923,4166.282,4157.564,0,0
300,36,0,0,4165.513,4194.359,4153.718,4210.128,4179.872,4163.718,4174.744000000001,4154.487,4169.615,4193.333,4169.615,4165.255999999999,4168.333,4163.205,0,0
301,37,0,0,4178.846,4204.615,4172.179,4218.077,4196.795,4173.077,4185.128,4168.333,4183.974,4203.59,4185.897,4176.667,4182.179,4173.718,0,0
302,38,0,0,4176.923,4206.154,4177.179,4213.077,4150.255999999999,4182.821,4186.538,4170.769,4188.718,4208.462,4182.692,4177.0509999999995,4187.436,4169.744000000001,0,0
303,39,0,0,4169.487,4189.744000000001,4171.282,4200.769,4154.615,4161.282,4176.667,4163.205,4183.333,4205.0,4172.179,4172.564,4179.744000000001,4162.821,0,0
304,40,0,0,4163.974,4176.41,4162.0509999999995,4200.0,4186.282,4143.59,4164.231,4145.769,4173.846,4189.744000000001,4162.9490000000005,4162.179,4165.255999999999,4155.769,0,0
305,41,0,0,4158.205,4185.897,4145.769,4195.769,4189.487,4156.538,4155.513,4135.641,4167.436,4171.795,4159.359,4152.308,4159.231,4147.308,0,0
306,42,0,0,4162.0509999999995,4200.128,4146.154,4192.436,4188.077,4163.974,4161.667,4150.385,4174.872,4177.436,4168.718,4160.513,4170.385,4153.205,0,0
307,43,0,0,4170.0,4198.077,4166.154,4199.231,4183.462,4157.692,4176.026,4171.923,4186.795,4192.564,4177.821,4172.9490000000005,4180.641,4164.872,0,0
308,44,0,0,4168.974,4196.538,4172.692,4203.59,4175.769,4161.282,4178.846,4174.103,4189.615,4192.9490000000005,4176.026,4173.846,4181.538,4166.667,0,0
309,45,0,0,4163.59,4197.564,4161.667,4206.41,4178.077,4160.769,4165.769,4163.333,4184.231,4180.513,4170.255999999999,4169.359,4176.923,4160.641,0,0
310,46,0,0,4160.897,4187.821,4153.333,4196.667,4187.179,4151.923,4152.564,4158.077,4176.795,4164.744000000001,4166.154,4168.077,4165.641,4156.41,0,0
311,47,0,0,4175.0,4197.821,4168.718,4194.359,4195.769,4170.641,4168.718,4171.667,4187.692,4176.667,4180.128,4185.897,4176.538,4174.103,0,0
312,48,0,0,4205.255999999999,4226.795,4202.179,4226.282,4184.872,4199.744000000001,4194.615,4193.462,4213.718,4208.846,4205.641,4213.077,4207.436,4202.564,0,0
313,49,0,0,4198.974,4221.41,4189.872,4235.513,4171.282,4187.564,4180.385,4182.436,4210.513,4200.255999999999,4193.718,4200.897,4204.615,4192.0509999999995,0,0
314,50,0,0,4165.897,4185.513,4152.0509999999995,4200.513,4181.282,4160.128,4152.564,4150.513,4180.897,4159.103,4163.59,4168.974,4168.846,4158.846,0,0
315,51,0,0,4166.41,4178.846,4158.205,4196.667,4192.308,4166.923,4160.769,4152.821,4170.513,4153.974,4172.179,4172.179,4161.538,4164.231,0,0
316,52,0,0,4191.667,4199.359,4183.333,4226.41,4188.205,4187.179,4183.077,4172.9490000000005,4185.385,4171.538,4189.487,4194.359,4180.769,4192.692,0,0
317,53,0,0,4193.077,4200.641,4183.974,4231.154,4186.538,4188.846,4185.897,4173.846,4198.205,4172.692,4186.282,4198.462,4189.487,4193.59,0,0
318,54,0,0,4181.538,4187.0509999999995,4178.59,4219.231,4190.513,4190.0,4176.795,4166.154,4195.769,4168.846,4185.255999999999,4191.282,4182.692,4178.462,0,0
319,55,0,0,4175.255999999999,4179.744000000001,4173.205,4214.359,4185.513,4189.487,4171.154,4158.718,4186.667,4167.179,4183.974,4182.9490000000005,4168.974,4171.026,0,0
320,56,0,0,4172.308,4176.923,4164.359,4216.282,4172.692,4175.897,4168.718,4153.846,4184.615,4161.538,4172.821,4176.795,4166.923,4170.0,0,0
321,57,0,0,4177.564,4178.59,4171.923,4223.59,4165.897,4177.179,4171.41,4168.333,4194.231,4162.821,4180.385,4184.615,4185.128,4178.974,0,0
322,58,0,0,4194.359,4190.513,4191.923,4238.333,4171.282,4196.41,4185.128,4185.897,4202.436,4171.795,4204.103,4205.255999999999,4200.255999999999,4198.333,0,0
323,59,0,0,4197.821,4189.615,4195.128,4238.59,4183.077,4195.255999999999,4187.9490000000005,4171.41,4185.769,4152.9490000000005,4200.385,4210.255999999999,4178.462,4198.205,0,0
324,60,0,0,4173.59,4170.128,4171.795,4215.513,4179.744000000001,4176.667,4162.821,4143.59,4156.282,4118.333,4170.128,4186.026,4145.385,4168.718,0,0
325,61,0,0,4162.9490000000005,4168.333,4157.9490000000005,4210.255999999999,4166.41,4173.077,4152.308,4146.282,4158.846,4125.0,4154.615,4169.487,4152.692,4153.846,0,0
326,62,0,0,4176.154,4181.923,4167.821,4224.744000000001,4168.462,4177.308,4176.282,4167.821,4185.255999999999,4155.128,4172.179,4178.846,4173.974,4170.128,0,0
327,63,0,0,4183.077,4182.0509999999995,4176.795,4217.692,4181.154,4179.744000000001,4186.154,4173.718,4192.9490000000005,4156.154,4188.077,4188.974,4171.667,4183.974,0,0
328,64,0,3197,4175.641,4177.9490000000005,4173.974,4212.692,4171.41,4183.718,4166.538,4164.744000000001,4183.077,4143.59,4171.795,4180.255999999999,4161.923,4172.9490000000005,0,0
329,65,0,3368,4176.667,4186.795,4179.103,4228.462,4159.103,4186.923,4165.769,4170.513,4187.308,4149.359,4161.795,4180.513,4166.923,4167.692,0,0
330,66,0,2894,4180.513,4188.077,4186.41,4225.513,4168.333,4187.436,4185.128,4186.41,4201.41,4156.282,4178.205,4194.615,4172.564,4179.872,0,0
331,67,0,3540,4175.0,4168.205,4179.359,4211.923,4151.41,4186.026,4172.308,4170.641,4190.128,4141.154,4174.103,4186.667,4158.59,4176.026,0,0
332,68,0,3571,4179.103,4171.795,4176.538,4228.077,4146.026,4192.9490000000005,4161.026,4160.897,4188.205,4141.538,4165.385,4179.872,4160.385,4173.462,0,0
333,69,0,2807,4197.821,4200.0,4193.333,4245.513,4188.974,4206.667,4190.769,4195.769,4223.205,4178.974,4193.59,4204.103,4193.59,4196.026,0,0
334,70,0,3318,4197.9490000000005,4200.769,4198.333,4229.744000000001,4194.103,4201.667,4200.641,4208.718,4238.205,4199.487,4209.359,4212.0509999999995,4207.0509999999995,4203.077,0,0
335,71,0,3422,4180.769,4178.846,4181.923,4214.872,4161.154,4191.026,4176.538,4180.0,4215.513,4178.462,4187.0509999999995,4188.205,4185.513,4179.744000000001,0,0
336,72,0,3220,4164.359,4167.9490000000005,4161.923,4210.128,4161.795,4192.821,4160.0,4161.923,4196.795,4151.41,4165.769,4170.385,4161.026,4158.077,0,0
337,73,0,3588,4156.795,4162.0509999999995,4157.179,4201.795,4169.487,4187.436,4153.077,4162.436,4194.744000000001,4141.667,4160.769,4170.0,4149.872,4152.564,0,0
338,74,0,3431,4172.9490000000005,4175.255999999999,4180.641,4223.077,4162.564,4187.436,4172.564,4180.128,4212.692,4163.333,4175.255999999999,4187.692,4172.9490000000005,4172.821,0,0
339,75,0,3306,4195.385,4202.692,4203.59,4253.59,4182.308,4206.795,4211.282,4205.128,4236.282,4195.0,4197.564,4211.026,4209.487,4199.872,0,0
340,76,0,3123,4182.9490000000005,4185.255999999999,4188.205,4230.769,4191.795,4202.692,4193.077,4185.513,4215.513,4176.026,4191.154,4198.462,4189.615,4186.41,0,0
341,77,0,3257,4162.179,4155.0,4162.436,4205.0,4172.436,4179.103,4146.795,4151.538,4189.103,4144.359,4173.462,4171.923,4154.615,4161.154,0,0
342,78,0,3431,4186.795,4183.974,4187.308,4239.103,4167.9490000000005,4196.026,4177.179,4180.385,4221.538,4182.0509999999995,4193.462,4199.487,4190.641,4190.255999999999,0,0
343,79,0,3306,4204.872,4205.641,4210.897,4254.487,4170.385,4219.615,4214.103,4216.154,4248.462,4216.282,4217.308,4225.385,4225.255999999999,4216.538,0,0
344,80,0,3123,4181.41,4170.513,4182.308,4216.154,4171.923,4197.9490000000005,4181.923,4198.077,4221.154,4179.359,4198.846,4194.103,4191.667,4185.897,0,0
345,81,0,3257,4169.231,4155.0,4164.615,4208.718,4185.385,4180.128,4176.923,4174.872,4201.282,4154.872,4174.744000000001,4173.077,4168.718,4168.846,0,0
346,82,0,3431,4188.59,4177.179,4189.615,4233.846,4191.41,4195.513,4223.974,4200.641,4216.282,4176.667,4185.513,4198.333,4188.205,4193.462,0,0
347,83,0,3306,4194.744000000001,4183.333,4201.41,4234.872,4183.59,4201.667,4222.308,4229.487,4226.026,4187.821,4203.333,4208.333,4200.513,4199.359,0,0
348,84,0,3123,4189.359,4183.205,4193.974,4229.103,4183.462,4193.462,4187.436,4197.436,4215.513,4178.974,4198.59,4196.538,4196.538,4190.0,0,0
349,85,0,3257,4188.205,4183.59,4193.077,4226.923,4175.255999999999,4186.282,4180.255999999999,4149.744000000001,4200.769,4169.231,4185.769,4196.026,4189.487,4192.821,0,0
350,86,0,3431,4184.744000000001,4172.9490000000005,4190.0,4221.667,4155.385,4176.41,4173.59,4149.872,4189.615,4165.897,4185.128,4195.513,4182.0509999999995,4191.282,0,0
351,87,0,3306,4181.538,4176.923,4183.205,4220.897,4164.487,4178.333,4167.821,4169.744000000001,4186.667,4176.026,4191.154,4192.0509999999995,4185.513,4186.667,0,0
352,88,0,3123,4186.282,4187.9490000000005,4186.41,4217.821,4179.231,4195.0,4179.872,4166.795,4188.462,4176.667,4188.718,4196.795,4187.308,4191.795,0,0
353,89,0,3257,4190.128,4184.744000000001,4193.846,4222.0509999999995,4178.718,4204.359,4187.436,4165.128,4190.0,4165.385,4187.564,4202.821,4179.744000000001,4193.077,0,0
354,90,0,3431,4184.487,4177.821,4188.333,4230.641,4180.128,4206.667,4185.385,4165.769,4185.513,4164.487,4181.41,4194.615,4175.769,4179.487,0,0
355,91,0,3306,4176.154,4174.231,4180.0,4220.641,4180.641,4204.487,4181.667,4155.255999999999,4176.282,4160.0,4170.255999999999,4182.0509999999995,4171.282,4169.487,0,0
356,92,0,3123,4176.795,4177.564,4181.667,4216.41,4174.744000000001,4195.513,4171.538,4150.897,4173.333,4152.0509999999995,4177.436,4180.897,4168.59,4174.103,0,0
357,93,0,3257,4186.795,4184.744000000001,4186.282,4230.0,4164.103,4192.821,4167.0509999999995,4149.359,4172.179,4154.615,4181.538,4187.564,4168.59,4180.769,0,0
358,94,0,3431,4192.436,4186.41,4187.308,4225.128,4161.538,4200.513,4181.538,4158.333,4176.538,4163.718,4174.615,4192.436,4170.385,4184.103,0,0
359,95,0,3306,4189.487,4184.872,4185.385,4214.231,4176.41,4206.667,4190.641,4172.0509999999995,4187.436,4171.41,4179.615,4193.846,4173.846,4186.282,0,0
360,96,0,3123,4180.769,4188.462,4178.846,4217.179,4188.974,4204.872,4181.795,4169.231,4184.487,4169.231,4183.846,4191.154,4172.308,4180.128,0,0
361,97,0,3257,4181.795,4186.026,4182.179,4216.795,4172.179,4204.359,4175.897,4159.872,4173.59,4157.0509999999995,4176.154,4194.231,4167.436,4176.795,0,0
362,98,0,3431,4192.821,4184.231,4198.846,4223.59,4159.231,4204.359,4187.308,4169.103,4185.0,4165.255999999999,4183.718,4204.872,4172.436,4191.026,0,0
363,99,0,3306,4195.385,4186.282,4202.308,4226.41,4173.077,4202.308,4191.667,4176.538,4194.359,4178.974,4192.308,4206.795,4175.255999999999,4194.231,0,0
364,100,0,3123,4184.103,4180.255999999999,4186.538,4203.974,4177.564,4203.974,4177.821,4164.231,4179.103,4168.462,4183.205,4198.077,4163.205,4180.769,0,0
365,101,0,3257,4183.462,4180.0,4187.821,4200.255999999999,4163.462,4202.692,4174.744000000001,4166.282,4176.795,4168.846,4191.923,4206.667,4166.154,4186.41,0,0
366,102,0,3431,4197.0509999999995,4187.821,4205.0,4223.205,4155.385,4198.205,4183.205,4178.462,4189.744000000001,4188.718,4208.077,4223.077,4184.359,4205.255999999999,0,0
367,103,0,3306,4203.077,4193.718,4207.9490000000005,4227.179,4171.667,4209.487,4191.538,4175.513,4187.179,4184.487,4204.615,4221.41,4184.103,4205.513,0,0
368,104,0,3123,4195.769,4187.821,4197.436,4212.0509999999995,4179.487,4218.333,4193.846,4171.154,4177.821,4166.282,4196.41,4210.769,4171.282,4191.795,0,0
369,105,0,3257,4198.974,4170.255999999999,4204.744000000001,4211.282,4154.615,4204.359,4193.205,4183.59,4189.872,4175.385,4200.769,4215.769,4179.615,4196.026,0,0
370,106,0,3431,4207.436,4176.026,4217.0509999999995,4223.205,4155.0,4197.9490000000005,4199.359,4198.333,4205.255999999999,4192.0509999999995,4207.179,4224.103,4202.0509999999995,4211.538,0,0
371,107,0,3306,4203.846,4201.538,4207.308,4227.564,4185.769,4210.897,4207.9490000000005,4204.744000000001,4204.231,4191.41,4205.128,4220.0,4202.692,4210.255999999999,0,0
372,108,0,3123,4198.077,4200.128,4198.974,4217.564,4190.385,4213.59,4205.0,4201.795,4200.255999999999,4186.667,4203.077,4216.795,4191.667,4199.744000000001,0,0
373,109,0,3257,4196.154,4176.795,4203.333,4210.897,4167.308,4210.385,4192.436,4191.795,4198.462,4182.179,4202.692,4216.923,4186.026,4196.795,0,0
374,110,0,3431,4186.154,4160.897,4194.359,4201.795,4138.59,4208.59,4178.077,4177.564,4179.359,4160.385,4186.026,4201.795,4165.385,4187.0509999999995,0,0
375,111,0,3306,4172.179,4153.974,4174.872,4187.692,4134.744000000001,4205.641,4172.821,4169.103,4167.9490000000005,4141.41,4167.9490000000005,4183.205,4150.769,4172.179,0,0
376,112,0,3123,4183.974,4165.385,4186.41,4200.641,4168.846,4216.795,4186.538,4180.641,4192.9490000000005,4160.385,4184.359,4193.59,4175.513,4185.255999999999,0,0
377,113,0,3257,4195.897,4183.462,4201.667,4217.692,4183.077,4220.128,4186.41,4179.872,4203.333,4179.231,4200.255999999999,4207.179,4194.872,4200.255999999999,0,0
378,114,0,3431,4189.359,4174.615,4193.718,4202.564,4161.41,4203.462,4164.615,4156.026,4179.872,4167.0509999999995,4188.462,4200.769,4176.282,4195.385,0,0
379,115,0,3306,4189.487,4177.0509999999995,4195.385,4199.615,4169.231,4206.026,4169.231,4160.0,4180.513,4168.333,4196.538,4205.0,4178.205,4204.487,0,0
380,116,0,3123,4207.0509999999995,4206.923,4213.462,4225.255999999999,4188.718,4227.308,4195.128,4184.103,4208.718,4193.077,4220.255999999999,4222.179,4203.333,4223.59,0,0
381,117,0,3257,4206.923,4205.255999999999,4213.59,4220.641,4178.462,4221.538,4194.872,4180.0,4209.872,4196.154,4211.795,4217.308,4196.538,4216.795,0,0
382,118,0,3431,4189.103,4175.641,4196.795,4195.128,4167.9490000000005,4204.744000000001,4175.641,4161.795,4187.9490000000005,4175.128,4191.667,4201.667,4177.692,4198.462,0,0
383,119,0,3306,4183.205,4171.795,4188.718,4196.667,4175.0,4209.487,4171.41,4162.436,4186.538,4170.128,4197.308,4201.538,4180.769,4199.872,0,0
384,120,0,3123,4185.255999999999,4180.769,4191.282,4206.154,4172.821,4209.615,4180.128,4171.923,4197.692,4177.692,4202.0509999999995,4205.128,4181.795,4203.974,0,0
385,121,0,3257,4185.897,4171.923,4198.333,4209.359,4155.385,4198.333,4180.769,4175.513,4201.026,4176.154,4190.128,4199.487,4178.846,4198.077,0,0
386,122,0,3431,4180.769,4160.0,4188.333,4196.923,4154.615,4195.0,4171.667,4161.41,4191.154,4168.077,4180.641,4184.744000000001,4178.846,4188.846,0,0
387,123,0,3306,4175.255999999999,4165.513,4174.615,4181.667,4171.923,4203.077,4165.897,4152.821,4182.9490000000005,4166.282,4181.667,4179.487,4171.026,4182.692,0,0
388,124,0,3123,4173.205,4165.897,4179.487,4179.744000000001,4175.769,4199.872,4168.462,4167.0509999999995,4186.923,4170.641,4180.0,4182.821,4167.0509999999995,4179.744000000001,0,0
389,125,0,3257,4177.0509999999995,4153.718,4189.359,4180.897,4157.308,4192.308,4178.718,4176.667,4192.308,4173.462,4172.0509999999995,4182.0509999999995,4174.744000000001,4177.308,0,0
390,126,0,3431,4169.103,4156.923,4174.487,4182.0509999999995,4146.282,4201.154,4174.103,4165.897,4182.564,4167.692,4164.872,4167.9490000000005,4171.538,4165.513,0,0
391,127,0,54,4155.641,4169.872,4156.026,4187.564,4155.513,4212.564,4152.564,4156.923,4170.897,4162.692,4166.538,4161.667,4159.103,4156.538,0,0
392,0,0,3161,4172.179,4178.462,4178.077,4202.9490000000005,4165.641,4220.385,4162.308,4174.103,4187.9490000000005,4184.231,4188.846,4186.282,4173.59,4180.769,0,0
393,1,0,3352,4201.923,4183.077,4208.974,4209.744000000001,4171.154,4228.462,4191.154,4190.385,4204.487,4207.564,4206.667,4212.308,4196.282,4210.0,0,0
394,2,0,2872,4191.538,4182.308,4191.154,4191.154,4175.769,4228.59,4180.385,4171.41,4186.795,4189.231,4189.103,4197.308,4187.0509999999995,4193.077,0,0
395,3,0,3527,4174.872,4189.231,4174.872,4187.0509999999995,4182.821,4227.9490000000005,4167.9490000000005,4160.255999999999,4177.179,4175.0,4179.359,4183.846,4175.769,4177.692,0,0
396,4,0,3592,4193.59,4200.513,4201.923,4210.769,4185.0,4234.487,4194.615,4190.128,4203.718,4201.667,4206.538,4208.205,4192.0509999999995,4203.974,0,0
397,5,0,2791,4212.436,4197.308,4222.9490000000005,4216.667,4181.41,4240.385,4212.564,4209.872,4224.872,4218.077,4224.744000000001,4229.359,4208.974,4223.974,0,0
398,6,0,3298,4202.821,4187.692,4209.231,4208.59,4180.128,4237.308,4200.128,4199.359,4215.897,4207.179,4211.795,4220.769,4201.667,4211.41,0,0
399,7,0,3406,4193.846,4191.667,4195.513,4218.846,4182.0509999999995,4236.282,4190.513,4192.821,4203.718,4197.821,4201.538,4206.923,4191.538,4198.333,0,0
400,8,0,3207,4192.0509999999995,4190.513,4192.179,4212.692,4188.718,4240.897,4185.513,4188.59,4196.282,4190.128,4197.9490000000005,4201.667,4187.436,4192.821,0,0
401,9,0,3571,4182.0509999999995,4179.359,4184.744000000001,4186.923,4190.385,4239.359,4172.821,4173.077,4185.128,4175.769,4188.077,4195.0,4177.0509999999995,4182.308,0,0
402,10,0,3424,4177.0509999999995,4173.846,4185.255999999999,4182.692,4172.692,4228.974,4173.333,4169.487,4184.359,4173.974,4186.41,4195.128,4175.769,4180.385,0,0
403,11,0,3284,4189.615,4179.103,4201.41,4201.923,4162.179,4230.255999999999,4195.897,4193.205,4200.641,4188.59,4199.231,4207.9490000000005,4188.333,4195.641,0,0
404,12,0,3107,4199.487,4197.821,4208.974,4212.179,4184.231,4245.769,4206.538,4208.205,4211.923,4195.128,4206.282,4213.462,4194.615,4203.846,0,0
405,13,0,3235,4192.821,4204.615,4197.9490000000005,4198.59,4185.769,4243.59,4191.026,4189.487,4200.385,4180.0,4196.667,4198.846,4184.487,4190.128,0,0
406,14,0,3424,4196.667,4200.897,4200.897,4213.077,4160.255999999999,4232.308,4187.692,4178.077,4186.41,4170.641,4191.538,4194.487,4180.128,4185.641,0,0
407,15,0,3284,4200.385,4211.282,4201.795,4239.615,4191.795,4238.333,4202.821,4197.692,4194.872,4185.255999999999,4200.385,4206.795,4192.9490000000005,4199.615,0,0
408,16,0,0,4187.308,4206.154,4183.333,4209.231,4223.333,4244.487,4198.462,4203.333,4202.179,4190.769,4203.205,4204.103,4196.282,4196.795,0,0
409,17,0,0,4176.667,4183.205,4177.436,4178.205,4178.462,4228.333,4180.513,4187.692,4188.333,4175.769,4192.692,4189.615,4184.744000000001,4181.923,0,0
410,18,0,0,4187.308,4190.897,4191.538,4205.897,4155.385,4221.667,4189.615,4192.179,4178.077,4171.41,4193.077,4193.846,4179.744000000001,4189.872,0,0
411,19,0,0,4192.692,4217.308,4194.359,4211.282,4191.154,4234.615,4203.462,4187.0509999999995,4179.744000000001,4175.769,4199.359,4200.385,4186.154,4200.128,0,0
412,20,0,0,4180.641,4211.282,4187.692,4181.026,4192.308,4230.897,4187.564,4183.077,4179.487,4169.231,4185.641,4188.077,4181.667,4187.308,0,0
413,21,0,0,4180.769,4206.538,4192.821,4202.564,4178.077,4221.795,4196.538,4233.333,4194.872,4181.667,4186.795,4190.0,4182.821,4185.769,0,0
414,22,0,0,4200.255999999999,4223.846,4204.615,4233.846,4208.59,4235.513,4235.641,4247.436,4217.564,4211.41,4212.9490000000005,4212.0509999999995,4206.667,4205.897,0,0
415,23,0,0,4207.821,4228.974,4206.026,4225.513,4216.538,4244.359,4226.667,4187.9490000000005,4211.795,4214.487,4218.974,4216.282,4219.872,4216.026,0,0
416,24,0,0,4197.692,4220.0,4195.255999999999,4210.128,4174.872,4229.103,4183.205,4163.974,4186.154,4194.872,4201.41,4203.462,4201.667,4205.0,0,0
417,25,0,0,4195.255999999999,4215.385,4189.487,4199.103,4170.641,4218.333,4175.641,4192.436,4178.462,4182.9490000000005,4194.872,4198.205,4182.564,4196.667,0,0
418,26,0,0,4210.513,4227.308,4201.41,4210.769,4216.41,4230.385,4193.846,4195.385,4191.795,4192.0509999999995,4205.513,4206.667,4195.641,4206.026,0,0
419,27,0,0,4221.154,4243.333,4216.667,4231.41,4225.255999999999,4245.641,4207.308,4194.103,4199.359,4204.359,4212.179,4220.385,4212.0509999999995,4218.462,0,0
420,28,0,0,4208.333,4230.769,4211.41,4218.974,4189.615,4236.154,4210.897,4217.821,4188.974,4198.718,4207.179,4215.897,4196.41,4211.282,0,0
421,29,0,0,4193.846,4203.205,4194.103,4198.462,4181.667,4223.59,4195.0,4203.59,4168.718,4178.718,4194.872,4196.923,4178.077,4196.282,0,0
422,30,0,0,4194.487,4211.154,4189.231,4216.282,4195.769,4235.769,4180.385,4163.462,4163.077,4177.0509999999995,4189.872,4191.41,4184.615,4195.255999999999,0,0
423,31,0,0,4196.795,4231.538,4192.436,4223.718,4194.103,4235.641,4178.59,4154.872,4167.692,4185.513,4186.667,4191.154,4185.513,4195.769,0,0
424,32,0,0,4195.769,4230.641,4192.436,4207.179,4200.897,4217.436,4185.385,4180.385,4170.128,4186.923,4184.744000000001,4190.0,4181.923,4192.9490000000005,0,0
425,33,0,0,4201.41,4230.897,4196.667,4211.923,4221.282,4221.154,4197.179,4187.564,4169.744000000001,4190.641,4191.282,4200.385,4198.718,4196.795,0,0
426,34,0,0,4197.436,4235.0,4197.0509999999995,4219.103,4211.538,4231.41,4195.513,4175.769,4167.9490000000005,4191.923,4194.615,4203.718,4203.974,4201.282,0,0
427,35,0,0,4195.255999999999,4235.641,4196.538,4214.359,4178.846,4223.333,4181.667,4181.41,4165.641,4187.179,4195.769,4199.744000000001,4187.9490000000005,4204.359,0,0
428,36,0,0,4203.59,4235.513,4202.821,4212.821,4189.744000000001,4215.255999999999,4181.667,4185.769,4165.0,4189.359,4199.615,4205.769,4190.128,4204.103,0,0
429,37,0,0,4201.667,4228.974,4206.026,4220.641,4227.564,4224.359,4197.0509999999995,4187.179,4171.667,4198.333,4201.538,4211.667,4202.9490000000005,4198.205,0,0
430,38,0,0,4187.179,4220.128,4196.795,4225.0,4227.436,4237.0509999999995,4204.359,4193.59,4174.872,4201.41,4199.359,4203.846,4197.436,4190.385,0,0
431,39,0,0,4180.897,4216.667,4186.282,4208.205,4198.718,4232.564,4198.462,4195.0,4163.846,4193.718,4193.974,4194.487,4183.718,4187.9490000000005,0,0
432,40,0,0,4190.897,4224.744000000001,4196.795,4207.308,4190.0,4227.0509999999995,4195.641,4194.103,4160.385,4193.205,4195.128,4205.128,4183.462,4198.974,0,0
433,41,0,0,4202.436,4233.333,4214.231,4233.59,4204.359,4235.897,4197.436,4194.103,4172.308,4200.128,4204.744000000001,4218.205,4193.846,4213.205,0,0
434,42,0,0,4190.897,4215.385,4201.538,4221.667,4201.41,4230.385,4185.385,4177.564,4160.897,4187.564,4199.231,4200.769,4186.41,4198.333,0,0
435,43,0,0,4167.821,4193.59,4170.0,4187.9490000000005,4186.154,4217.179,4172.692,4155.385,4134.359,4175.0,4173.462,4172.9490000000005,4165.897,4170.641,0,0
436,44,0,0,4170.513,4198.077,4171.026,4195.0,4189.615,4223.718,4179.231,4158.59,4139.744000000001,4176.026,4175.897,4179.487,4167.308,4173.462,0,0
437,45,0,0,4193.205,4213.59,4200.255999999999,4220.897,4207.564,4234.231,4191.282,4181.026,4164.487,4188.205,4215.128,4207.436,4193.59,4203.333,0,0
438,46,0,0,4209.103,4227.179,4214.231,4231.282,4210.513,4233.077,4195.897,4194.487,4172.179,4209.231,4225.641,4217.821,4208.462,4222.9490000000005,0,0
439,47,0,0,4204.744000000001,4231.154,4201.923,4225.128,4197.0509999999995,4227.692,4195.897,4191.795,4170.0,4211.026,4200.0,4208.974,4203.077,4216.667,0,0
440,48,0,0,4190.128,4211.667,4190.0,4209.615,4185.128,4227.0509999999995,4191.41,4181.282,4163.59,4191.41,4189.615,4199.872,4191.923,4199.359,0,0
441,49,0,0,4165.385,4179.359,4175.128,4190.769,4174.487,4224.872,4174.487,4160.769,4140.513,4174.615,4176.282,4180.255999999999,4168.59,4170.897,0,0
442,50,0,0,4157.179,4171.538,4166.538,4186.538,4174.744000000001,4219.359,4170.897,4153.974,4127.564,4169.103,4167.692,4167.436,4154.615,4157.308,0,0
443,51,0,0,4181.154,4200.385,4185.385,4203.462,4193.974,4219.872,4195.385,4184.231,4150.513,4179.231,4201.154,4192.179,4179.872,4185.513,0,0
444,52,0,0,4203.462,4222.692,4207.0509999999995,4222.821,4209.231,4226.41,4212.692,4207.179,4176.667,4207.564,4218.718,4215.641,4206.154,4211.923,0,0
445,53,0,0,4195.385,4205.641,4196.923,4214.487,4192.564,4218.59,4190.897,4186.795,4170.385,4212.436,4190.128,4198.846,4192.308,4198.077,0,0
446,54,0,0,4189.103,4190.255999999999,4188.59,4201.026,4173.59,4216.667,4183.462,4178.59,4163.974,4190.769,4185.769,4195.128,4178.846,4194.744000000001,0,0
447,55,0,0,4194.615,4191.923,4199.487,4207.179,4182.0509999999995,4228.333,4199.487,4195.769,4175.0,4196.538,4204.487,4213.462,4190.128,4213.59,0,0
448,56,0,0,4180.513,4167.564,4188.846,4192.436,4172.564,4215.641,4175.0,4172.564,4159.359,4201.282,4191.667,4194.359,4183.462,4197.9490000000005,0,0
449,57,0,0,4177.0509999999995,4158.718,4179.872,4189.744000000001,4162.179,4207.564,4158.974,4150.385,4144.487,4197.436,4180.128,4175.255999999999,4177.0509999999995,4183.333,0,0
450,58,0,0,4194.359,4186.026,4189.872,4222.564,4168.974,4221.026,4181.923,4171.795,4157.0509999999995,4205.641,4191.795,4187.9490000000005,4190.128,4197.0509999999995,0,0
451,59,0,0,4187.692,4180.128,4180.513,4219.359,4163.077,4219.359,4178.974,4172.821,4152.821,4200.128,4186.154,4182.821,4182.179,4189.487,0,0
452,60,0,0,4167.0509999999995,4150.641,4160.641,4181.282,4164.487,4213.974,4159.231,4150.641,4135.385,4188.846,4168.205,4162.9490000000005,4164.487,4168.333,0,0
453,61,0,0,4168.462,4150.769,4166.667,4178.974,4184.744000000001,4223.077,4174.231,4158.077,4144.103,4193.59,4168.718,4169.103,4169.487,4172.436,0,0
454,62,0,0,4173.205,4159.872,4174.487,4195.255999999999,4177.821,4221.538,4190.769,4178.205,4156.154,4202.564,4185.128,4178.718,4177.179,4182.9490000000005,0,0
455,63,0,0,4180.255999999999,4157.436,4178.846,4197.308,4149.615,4220.385,4188.462,4183.077,4158.333,4214.359,4196.667,4181.154,4181.282,4186.41,0,0
456,64,0,3156,4187.821,4159.615,4186.41,4202.0509999999995,4159.615,4230.255999999999,4189.872,4185.769,4163.718,4234.615,4192.179,4187.0509999999995,4190.641,4188.333,0,0
457,65,0,3358,4176.538,4147.0509999999995,4176.795,4189.615,4174.359,4220.128,4175.128,4176.538,4151.026,4222.564,4174.872,4179.744000000001,4177.692,4180.0,0,0
458,66,0,2868,4163.846,4125.385,4160.255999999999,4166.026,4164.103,4203.077,4158.846,4161.667,4137.821,4196.154,4167.0509999999995,4168.205,4155.513,4172.692,0,0
459,67,0,3537,4184.231,4141.282,4180.641,4182.564,4163.59,4216.154,4178.205,4174.487,4158.59,4217.821,4189.103,4187.179,4173.205,4193.205,0,0
460,68,0,3607,4205.128,4171.154,4208.333,4211.667,4173.974,4231.667,4205.897,4198.462,4184.487,4249.103,4210.769,4213.333,4202.436,4217.9490000000005,0,0
461,69,0,2789,4196.667,4170.513,4203.718,4204.615,4170.385,4227.821,4208.974,4207.821,4189.103,4251.026,4210.769,4213.59,4206.795,4216.41,0,0
462,70,0,3303,4181.282,4156.795,4194.744000000001,4189.231,4158.462,4221.923,4197.179,4200.897,4180.513,4243.205,4202.564,4198.718,4198.333,4198.59,0,0
463,71,0,3409,4174.103,4151.923,4189.359,4189.103,4171.923,4221.538,4189.744000000001,4184.231,4166.026,4229.231,4184.744000000001,4182.564,4183.974,4181.538,0,0
464,72,0,3217,4171.538,4151.026,4173.462,4184.615,4192.564,4220.255999999999,4187.436,4174.103,4153.077,4212.179,4170.385,4172.0509999999995,4174.103,4172.821,0,0
465,73,0,3580,4172.692,4155.0,4167.436,4182.308,4183.077,4217.0509999999995,4181.795,4174.744000000001,4153.077,4206.282,4172.308,4172.308,4177.436,4174.231,0,0
466,74,0,3424,4171.282,4154.615,4175.769,4186.41,4167.179,4207.821,4172.9490000000005,4174.487,4153.974,4202.436,4171.667,4175.385,4174.359,4177.9490000000005,0,0
467,75,0,3289,4163.974,4149.615,4172.9490000000005,4182.436,4177.308,4205.0,4175.769,4174.231,4152.564,4200.0,4171.154,4176.41,4170.0,4177.692,0,0
468,76,0,3104,4171.282,4158.205,4177.692,4188.846,4183.333,4225.0,4192.308,4185.641,4161.41,4212.308,4184.487,4186.538,4185.513,4182.821,0,0
469,77,0,3246,4176.282,4166.282,4183.333,4197.179,4165.255999999999,4226.154,4191.667,4186.282,4170.385,4214.487,4182.9490000000005,4186.154,4190.128,4183.077,0,0
470,78,0,3424,4168.205,4167.821,4171.154,4186.923,4159.359,4205.0,4179.359,4175.128,4169.103,4201.41,4167.9490000000005,4175.641,4175.0,4176.41,0,0
471,79,0,3289,4171.282,4177.9490000000005,4171.538,4189.872,4178.974,4206.795,4183.718,4180.128,4174.872,4209.231,4176.41,4184.103,4182.692,4183.718,0,0
472,80,0,3104,4183.59,4180.255999999999,4184.615,4199.231,4190.897,4219.872,4193.974,4191.026,4184.231,4225.128,4191.795,4196.026,4202.821,4191.282,0,0
473,81,0,3246,4182.9490000000005,4177.308,4185.513,4200.0,4187.564,4219.872,4199.872,4196.923,4185.769,4222.9490000000005,4194.359,4192.692,4208.077,4188.974,0,0
474,82,0,3424,4181.026,4186.923,4186.026,4212.692,4186.026,4219.487,4201.795,4193.59,4177.564,4208.205,4193.077,4187.692,4199.744000000001,4188.205,0,0
475,83,0,3289,4175.897,4189.615,4181.282,4211.41,4188.205,4219.359,4194.103,4175.513,4163.59,4188.205,4182.821,4179.359,4183.59,4180.897,0,0
476,84,0,3104,4163.333,4176.41,4165.897,4176.282,4181.41,4212.821,4182.692,4158.974,4155.0,4172.564,4169.744000000001,4164.231,4171.41,4165.385,0,0
477,85,0,3246,4156.154,4165.255999999999,4159.231,4157.308,4161.923,4207.564,4171.667,4154.359,4151.923,4161.282,4166.154,4156.795,4165.385,4157.564,0,0
478,86,0,3424,4160.385,4163.462,4162.0509999999995,4171.026,4168.462,4208.718,4169.487,4150.513,4151.026,4153.333,4166.923,4161.154,4162.0509999999995,4159.487,0,0
479,87,0,3289,4173.077,4177.692,4169.359,4188.077,4200.128,4217.692,4182.0509999999995,4160.641,4160.513,4160.128,4175.128,4175.769,4172.179,4170.255999999999,0,0
480,88,0,3104,4179.744000000001,4188.077,4179.872,4189.359,4201.026,4225.513,4188.205,4177.179,4170.897,4167.692,4182.821,4184.872,4181.282,4177.9490000000005,0,0
481,89,0,3246,4177.179,4180.641,4180.128,4181.795,4177.436,4219.615,4185.0,4181.538,4171.923,4168.077,4181.795,4181.154,4181.282,4175.385,0,0
482,90,0,3424,4190.128,4189.231,4191.667,4202.9490000000005,4173.846,4220.255999999999,4204.744000000001,4201.667,4189.231,4189.872,4197.436,4196.41,4202.179,4192.9490000000005,0,0
483,91,0,3289,4194.487,4190.769,4197.564,4211.795,4185.641,4217.821,4209.744000000001,4203.974,4193.718,4193.846,4205.128,4206.026,4208.462,4200.897,0,0
484,92,0,3104,4171.154,4171.154,4171.538,4179.103,4181.026,4200.513,4178.077,4169.103,4163.718,4160.897,4183.077,4183.077,4178.333,4174.615,0,0
485,93,0,3246,4178.974,4186.026,4174.744000000001,4184.231,4175.897,4208.205,4183.718,4175.255999999999,4166.026,4166.026,4186.026,4186.795,4186.667,4181.026,0,0
486,94,0,3424,4201.795,4207.564,4202.0509999999995,4213.59,4188.333,4225.897,4214.487,4209.103,4194.872,4197.308,4211.026,4209.231,4220.385,4208.59,0,0
487,95,0,3289,4187.436,4183.462,4189.103,4192.821,4195.385,4211.795,4198.718,4192.9490000000005,4180.128,4181.795,4198.205,4192.564,4199.872,4192.821,0,0
488,96,0,3104,4174.231,4176.026,4170.255999999999,4173.205,4186.41,4197.0509999999995,4173.974,4173.077,4158.59,4158.205,4177.436,4173.974,4173.333,4175.255999999999,0,0
489,97,0,3246,4187.821,4193.718,4184.231,4189.615,4176.538,4201.282,4180.897,4185.128,4171.667,4158.974,4183.077,4184.359,4179.744000000001,4186.795,0,0
490,98,0,3424,4183.846,4184.744000000001,4183.333,4191.41,4174.103,4197.0509999999995,4181.026,4186.026,4176.154,4156.667,4181.923,4183.462,4175.385,4183.974,0,0
491,99,0,3289,4176.41,4178.462,4174.615,4180.128,4165.641,4196.667,4176.282,4184.231,4169.359,4156.923,4176.795,4181.667,4170.641,4176.154,0,0
492,100,0,3104,4183.718,4189.359,4186.282,4183.974,4172.564,4213.077,4187.0509999999995,4195.0,4177.436,4165.513,4185.385,4190.513,4182.308,4184.231,0,0
493,101,0,3246,4183.59,4192.692,4189.744000000001,4197.821,4195.769,4218.974,4195.385,4199.615,4186.026,4171.154,4189.487,4189.359,4187.692,4186.795,0,0
494,102,0,3424,4179.231,4193.462,4181.154,4207.179,4194.744000000001,4215.255999999999,4203.333,4201.795,4187.9490000000005,4174.615,4185.385,4185.128,4187.692,4183.205,0,0
495,103,0,3289,4177.692,4187.564,4176.026,4195.513,4176.538,4209.872,4200.0,4196.795,4182.308,4167.436,4181.282,4178.59,4187.821,4177.308,0,0
496,104,0,3104,4175.641,4179.872,4176.41,4182.692,4183.59,4198.718,4184.103,4188.077,4174.487,4161.282,4181.154,4172.436,4182.692,4175.513,0,0
497,105,0,3246,4175.769,4184.744000000001,4176.026,4180.641,4200.513,4193.077,4180.769,4187.0509999999995,4177.692,4169.744000000001,4186.667,4174.487,4186.026,4177.564,0,0
498,106,0,3424,4173.59,4181.154,4168.462,4176.026,4177.9490000000005,4195.513,4182.0509999999995,4177.821,4178.718,4168.333,4182.9490000000005,4173.333,4189.231,4169.615,0,0
499,107,0,3289,4161.282,4162.308,4154.359,4166.154,4145.513,4192.564,4163.462,4159.487,4163.333,4149.615,4165.769,4158.205,4172.0509999999995,4157.692,0,0
500,108,0,3104,4169.487,4168.718,4166.538,4166.154,4165.641,4193.077,4166.026,4169.744000000001,4168.333,4154.615,4171.538,4168.59,4171.026,4172.179,0,0
501,109,0,3246,4193.718,4192.436,4193.59,4184.231,4196.923,4202.821,4198.59,4194.744000000001,4193.205,4179.872,4195.513,4195.513,4190.897,4196.026,0,0
502,110,0,3424,4196.282,4190.897,4197.436,4201.667,4174.744000000001,4208.077,4207.179,4196.026,4194.872,4182.821,4194.744000000001,4195.769,4194.872,4192.692,0,0
503,111,0,3289,4181.282,4178.077,4183.59,4195.513,4157.0509999999995,4206.538,4197.821,4195.897,4191.282,4175.897,4183.718,4187.564,4190.255999999999,4178.718,0,0
504,112,0,3104,4179.487,4182.692,4179.744000000001,4182.179,4190.385,4210.255999999999,4199.103,4202.179,4198.59,4181.538,4187.564,4189.103,4195.641,4178.077,0,0
505,113,0,3246,4180.897,4186.41,4181.667,4184.359,4200.513,4212.9490000000005,4197.9490000000005,4193.59,4192.436,4179.231,4188.077,4185.255999999999,4192.692,4180.385,0,0
506,114,0,3424,4178.462,4174.359,4183.462,4190.128,4161.282,4195.255999999999,4187.692,4182.308,4174.744000000001,4161.282,4180.385,4182.0509999999995,4175.255999999999,4179.103,0,0
507,115,0,3289,4182.564,4172.692,4186.282,4184.615,4154.615,4177.821,4182.0509999999995,4180.513,4169.744000000001,4154.103,4179.872,4186.923,4171.923,4181.154,0,0
508,116,0,3104,4192.179,4187.821,4187.564,4183.59,4191.154,4194.872,4192.821,4185.513,4181.538,4169.231,4188.59,4190.769,4185.769,4190.128,0,0
509,117,0,3246,4193.974,4200.0,4190.513,4198.333,4197.692,4217.692,4209.359,4198.333,4196.282,4185.769,4198.205,4196.282,4197.308,4197.308,0,0
510,118,0,3424,4182.9490000000005,4195.641,4187.0509999999995,4203.718,4176.026,4204.615,4203.205,4193.205,4187.564,4174.744000000001,4188.205,4190.255999999999,4187.308,4186.923,0,0
511,119,0,3289,4174.872,4184.103,4178.59,4188.718,4182.821,4189.872,4183.59,4174.359,4169.615,4152.564,4168.974,4175.641,4169.231,4171.795,0,0
512,120,0,3104,4179.744000000001,4184.359,4179.103,4184.231,4198.974,4203.333,4186.667,4176.923,4175.128,4155.897,4172.564,4179.744000000001,4171.026,4175.128,0,0
513,121,0,3246,4174.231,4178.718,4173.846,4178.974,4177.692,4200.128,4182.308,4179.872,4172.692,4152.821,4172.821,4177.692,4166.923,4171.923,0,0
514,122,0,3424,4172.179,4167.564,4180.641,4176.026,4159.487,4189.231,4174.615,4180.0,4170.0,4147.9490000000005,4169.359,4174.487,4167.308,4168.333,0,0
515,123,0,3289,4196.538,4185.385,4206.795,4203.974,4185.0,4211.282,4198.59,4200.897,4197.179,4177.821,4193.974,4200.897,4197.692,4194.615,0,0
516,124,0,3104,4200.769,4207.692,4196.667,4214.487,4203.333,4216.282,4208.974,4205.897,4208.205,4193.718,4206.923,4205.769,4209.744000000001,4206.538,0,0
517,125,0,3246,4187.0509999999995,4195.513,4177.308,4198.462,4182.179,4190.641,4192.821,4193.077,4187.436,4174.103,4191.667,4184.872,4189.744000000001,4191.667,0,0
518,126,0,3424,4190.641,4181.667,4191.41,4199.487,4167.821,4184.615,4191.154,4195.897,4181.41,4172.0509999999995,4187.179,4187.564,4187.179,4191.154,0,0
519,127,0,54,4193.462,4182.9490000000005,4193.846,4195.769,4179.744000000001,4195.641,4191.795,4194.487,4183.205,4179.359,4189.487,4195.385,4189.744000000001,4197.692,0,0
520,0,0,3178,4184.872,4184.872,4177.9490000000005,4184.872,4192.179,4200.897,4190.641,4192.821,4186.282,4176.154,4189.872,4190.385,4183.205,4194.615,0,0
521,1,0,3381,4194.615,4191.026,4195.0,4200.897,4191.795,4207.308,4211.667,4209.487,4201.154,4183.077,4200.255999999999,4200.385,4193.333,4201.282,0,0
522,2,0,2890,4199.231,4191.538,4205.513,4204.872,4183.205,4198.333,4211.667,4209.872,4197.308,4184.744000000001,4196.282,4203.974,4195.769,4203.974,0,0
523,3,0,3545,4192.308,4185.128,4191.923,4187.9490000000005,4184.744000000001,4184.872,4190.128,4197.0509999999995,4185.255999999999,4174.744000000001,4185.0,4197.564,4184.103,4196.41,0,0
524,4,0,3598,4194.487,4186.282,4193.205,4185.255999999999,4190.513,4189.487,4191.923,4201.026,4188.333,4178.846,4190.897,4201.41,4189.231,4194.872,0,0
525,5,0,2802,4192.436,4186.538,4197.564,4181.795,4179.487,4187.564,4199.103,4203.462,4188.974,4181.026,4192.179,4201.667,4190.641,4192.436,0,0
526,6,0,3324,4189.359,4182.0509999999995,4197.821,4187.436,4167.564,4179.872,4198.974,4199.615,4191.026,4177.9490000000005,4191.795,4200.385,4180.513,4192.821,0,0
527,7,0,3416,4194.744000000001,4187.436,4200.128,4210.255999999999,4181.667,4190.641,4201.538,4202.308,4197.436,4181.026,4199.359,4202.821,4185.0,4195.641,0,0
528,8,0,3215,4194.615,4193.077,4196.795,4203.333,4195.513,4196.41,4199.744000000001,4200.385,4189.359,4180.641,4195.513,4200.0,4189.103,4193.462,0,0
529,9,0,3583,4185.897,4176.154,4188.974,4178.462,4183.205,4182.564,4186.41,4198.205,4179.487,4174.103,4184.744000000001,4191.154,4180.897,4188.846,0,0
530,10,0,3439,4188.462,4162.821,4191.026,4190.769,4170.513,4177.692,4186.026,4199.487,4186.026,4172.0509999999995,4184.744000000001,4190.0,4179.744000000001,4189.487,0,0
531,11,0,3301,4190.0,4176.923,4190.769,4202.308,4171.41,4187.0509999999995,4200.0,4189.487,4191.41,4175.385,4191.026,4193.077,4187.0509999999995,4191.667,0,0
532,12,0,3122,4176.795,4180.769,4179.103,4179.103,4170.255999999999,4188.846,4195.641,4173.205,4185.641,4168.462,4186.667,4186.795,4181.41,4183.205,0,0
533,13,0,3254,4167.564,4167.179,4173.846,4164.872,4173.59,4179.487,4181.282,4174.744000000001,4185.897,4159.359,4178.974,4175.385,4174.615,4171.41,0,0
534,14,0,3439,4182.308,4173.718,4187.9490000000005,4171.41,4178.077,4180.897,4191.538,4195.513,4200.641,4170.513,4187.9490000000005,4182.0509999999995,4193.205,4179.359,0,0
535,15,0,3301,4191.154,4185.513,4195.255999999999,4182.692,4169.231,4184.615,4204.615,4201.923,4206.667,4182.0509999999995,4196.282,4192.436,4198.333,4189.231,0,0
536,16,0,0,4188.974,4191.154,4191.282,4198.59,4174.744000000001,4181.026,4202.564,4200.897,4205.641,4181.667,4194.103,4195.255999999999,4188.205,4192.0509999999995,0,0
537,17,0,0,4201.282,4209.231,4204.615,4212.436,4198.718,4185.769,4215.385,4221.154,4224.487,4196.667,4209.744000000001,4211.795,4206.538,4210.513,0,0
538,18,0,0,4210.0,4209.872,4216.795,4206.282,4190.385,4191.795,4223.205,4228.59,4228.333,4207.9490000000005,4222.0509999999995,4221.923,4216.41,4218.846,0,0
539,19,0,0,4195.769,4192.0509999999995,4201.667,4195.513,4177.436,4188.718,4203.205,4202.9490000000005,4204.872,4186.923,4203.333,4203.718,4193.205,4198.974,0,0
540,20,0,0,4188.59,4195.513,4195.385,4194.744000000001,4193.59,4182.308,4193.718,4195.128,4202.9490000000005,4177.0509999999995,4194.359,4193.974,4186.282,4192.9490000000005,0,0
541,21,0,0,4196.667,4205.0,4212.179,4201.026,4194.615,4185.897,4212.179,4220.255999999999,4222.179,4197.9490000000005,4207.436,4210.769,4204.103,4207.436,0,0
542,22,0,0,4196.154,4198.846,4207.692,4203.462,4182.308,4186.923,4217.436,4221.282,4219.231,4197.692,4204.359,4213.205,4197.564,4203.846,0,0
543,23,0,0,4198.718,4198.718,4199.231,4194.872,4198.077,4184.615,4209.744000000001,4206.667,4212.179,4183.59,4201.923,4204.615,4190.255999999999,4202.436,0,0
544,24,0,0,4214.744000000001,4203.205,4220.513,4203.077,4203.077,4187.0509999999995,4219.744000000001,4217.436,4224.231,4198.718,4218.846,4216.538,4208.077,4220.513,0,0
545,25,0,0,4215.897,4204.872,4227.436,4217.564,4183.846,4185.128,4220.385,4223.974,4225.641,4211.154,4222.821,4225.641,4212.821,4223.077,0,0
546,26,0,0,4202.692,4210.255999999999,4205.128,4210.897,4195.641,4180.0,4201.154,4210.897,4215.385,4199.231,4212.179,4213.846,4199.359,4208.846,0,0
547,27,0,0,4202.692,4207.436,4202.821,4202.564,4213.077,4176.41,4201.795,4210.641,4216.795,4198.205,4213.077,4209.487,4198.333,4206.795,0,0
548,28,0,0,4200.255999999999,4200.385,4204.487,4206.667,4190.769,4173.974,4211.026,4216.538,4221.41,4211.41,4214.487,4213.59,4210.0,4211.154,0,0
549,29,0,0,4189.359,4200.385,4192.821,4203.077,4163.974,4172.9490000000005,4193.205,4203.462,4203.59,4201.923,4203.59,4207.821,4199.872,4202.179,0,0
550,30,0,0,4184.615,4199.615,4193.974,4188.974,4173.59,4174.615,4182.308,4193.333,4185.513,4187.9490000000005,4196.667,4199.359,4185.769,4190.641,0,0
551,31,0,0,4179.231,4188.077,4187.564,4180.255999999999,4192.436,4172.0509999999995,4188.846,4186.923,4186.41,4182.564,4187.564,4187.821,4182.692,4180.0,0,0
552,32,0,0,4162.821,4177.0509999999995,4163.59,4176.282,4185.255999999999,4162.179,4179.487,4166.154,4181.538,4169.103,4172.564,4172.179,4176.538,4166.282,0,0
553,33,0,0,4174.103,4188.077,4176.923,4188.974,4177.9490000000005,4165.385,4180.385,4166.923,4182.564,4171.667,4181.026,4184.744000000001,4182.179,4177.564,0,0
554,34,0,0,4211.41,4214.103,4216.538,4214.744000000001,4199.487,4180.255999999999,4207.179,4202.9490000000005,4208.974,4203.333,4212.692,4215.769,4203.718,4214.872,0,0
555,35,0,0,4218.974,4222.436,4218.205,4217.436,4210.897,4189.359,4215.641,4218.59,4223.462,4215.897,4222.0509999999995,4222.821,4211.154,4229.615,0,0
556,36,0,0,4192.179,4202.692,4191.667,4202.0509999999995,4184.487,4175.897,4188.077,4192.308,4200.641,4190.769,4200.641,4200.0,4190.769,4203.205,0,0
557,37,0,0,4182.179,4193.59,4187.0509999999995,4197.9490000000005,4181.154,4164.359,4171.667,4176.667,4182.436,4180.769,4190.897,4187.179,4178.59,4186.923,0,0
558,38,0,0,4197.436,4208.462,4197.179,4202.308,4208.333,4175.128,4184.872,4191.154,4189.615,4197.564,4202.179,4198.974,4193.205,4204.615,0,0
559,39,0,0,4201.667,4211.795,4194.744000000001,4202.564,4206.538,4179.487,4192.821,4195.128,4194.487,4202.0509999999995,4205.513,4205.255999999999,4201.026,4212.564,0,0
560,40,0,0,4193.718,4200.513,4188.333,4201.41,4191.282,4169.615,4187.0509999999995,4183.205,4187.436,4190.255999999999,4196.923,4197.308,4189.744000000001,4200.513,0,0
561,41,0,0,4192.0509999999995,4199.615,4189.487,4196.026,4192.9490000000005,4168.205,4184.103,4178.974,4177.821,4184.615,4197.0509999999995,4194.231,4181.667,4196.282,0,0
562,42,0,0,4197.692,4203.077,4197.0509999999995,4197.436,4197.308,4178.205,4183.846,4180.385,4171.41,4185.769,4199.359,4201.41,4181.026,4204.359,0,0
563,43,0,0,4201.923,4202.821,4201.41,4206.795,4194.744000000001,4176.154,4186.154,4182.692,4170.513,4183.077,4192.692,4202.692,4176.026,4205.385,0,0
564,44,0,0,4197.821,4199.872,4197.436,4190.769,4190.769,4163.333,4186.923,4185.897,4169.487,4175.0,4184.487,4197.179,4169.231,4198.462,0,0
565,45,0,0,4189.615,4195.0,4188.846,4177.821,4182.308,4164.615,4178.462,4180.255999999999,4165.385,4171.923,4183.205,4192.692,4170.385,4195.128,0,0
566,46,0,0,4199.744000000001,4203.846,4197.692,4207.0509999999995,4182.821,4176.026,4176.41,4181.795,4169.872,4186.282,4197.179,4203.974,4184.231,4207.692,0,0
567,47,0,0,4207.0509999999995,4222.179,4202.692,4221.41,4199.103,4168.077,4179.231,4189.615,4177.692,4198.59,4208.077,4213.59,4191.795,4218.205,0,0
568,48,0,0,4196.795,4220.128,4186.538,4192.692,4200.513,4154.103,4170.769,4178.718,4170.0,4187.308,4194.872,4198.974,4176.41,4206.538,0,0
569,49,0,0,4188.718,4206.923,4175.769,4175.769,4188.59,4161.026,4164.231,4172.821,4163.333,4176.667,4180.897,4183.462,4168.333,4192.692,0,0
570,50,0,0,4194.231,4210.641,4183.077,4194.872,4194.487,4169.359,4173.333,4185.897,4168.59,4183.846,4189.615,4189.872,4180.769,4193.718,0,0
571,51,0,0,4197.436,4219.103,4193.205,4205.255999999999,4206.923,4169.872,4187.179,4194.103,4173.462,4191.795,4202.179,4203.846,4189.103,4197.436,0,0
572,52,0,0,4193.205,4209.744000000001,4194.744000000001,4193.333,4199.487,4171.154,4187.821,4186.923,4172.436,4187.9490000000005,4197.692,4199.231,4184.359,4195.128,0,0
573,53,0,0,4180.513,4189.231,4179.231,4182.821,4184.615,4168.974,4168.077,4168.462,4161.154,4173.974,4179.487,4177.436,4166.282,4183.462,0,0
574,54,0,0,4164.615,4177.179,4154.359,4173.333,4178.333,4164.615,4150.385,4153.077,4146.282,4158.846,4163.077,4160.513,4151.667,4168.077,0,0
575,55,0,0,4172.692,4187.0509999999995,4163.077,4170.0,4175.128,4166.282,4168.205,4168.077,4160.255999999999,4170.255999999999,4171.667,4175.128,4169.359,4178.205,0,0
576,56,0,0,4196.026,4202.308,4199.744000000001,4188.718,4183.974,4172.436,4198.077,4196.41,4192.436,4201.154,4195.769,4202.179,4197.436,4208.333,0,0
577,57,0,0,4193.846,4194.487,4196.41,4204.231,4192.308,4172.0509999999995,4187.564,4183.846,4180.641,4193.846,4189.615,4195.0,4184.872,4204.872,0,0
578,58,0,0,4171.923,4174.231,4159.872,4184.487,4186.667,4161.154,4156.795,4153.718,4143.205,4157.9490000000005,4161.41,4169.487,4153.205,4176.154,0,0
579,59,0,0,4184.744000000001,4185.769,4177.0509999999995,4181.538,4193.59,4161.41,4175.513,4171.795,4157.179,4167.308,4173.077,4185.128,4167.9490000000005,4190.128,0,0
580,60,0,0,4209.615,4211.667,4215.641,4211.154,4210.513,4174.103,4214.103,4207.564,4194.744000000001,4205.385,4205.255999999999,4212.0509999999995,4204.744000000001,4221.41,0,0
581,61,0,0,4193.462,4196.026,4195.0,4200.128,4198.333,4169.615,4195.513,4193.462,4185.385,4194.103,4188.205,4190.513,4192.436,4202.564,0,0
582,62,0,0,4167.564,4166.026,4159.359,4168.333,4174.744000000001,4153.718,4159.103,4161.923,4152.0509999999995,4156.282,4158.59,4161.41,4155.385,4171.282,0,0
583,63,0,0,4187.436,4178.846,4180.897,4188.205,4184.744000000001,4158.077,4178.077,4180.385,4160.0,4169.231,4183.205,4186.154,4167.9490000000005,4193.077,0,0
584,64,0,3172,4214.615,4209.872,4212.564,4219.359,4212.308,4172.692,4212.0509999999995,4212.0509999999995,4190.128,4207.179,4214.231,4218.077,4203.462,4227.821,0,0
585,65,0,3381,4195.641,4197.0509999999995,4189.872,4193.974,4204.487,4166.538,4188.718,4190.641,4173.205,4188.205,4189.103,4193.462,4185.769,4207.692,0,0
586,66,0,2879,4164.231,4166.923,4152.9490000000005,4159.103,4173.974,4140.641,4146.795,4155.128,4135.897,4149.872,4157.308,4157.692,4152.308,4168.462,0,0
587,67,0,3549,4178.205,4176.667,4165.0,4176.026,4176.154,4136.795,4159.872,4168.462,4150.769,4172.692,4170.255999999999,4173.077,4172.564,4177.9490000000005,0,0
588,68,0,3581,4211.282,4206.923,4200.897,4207.692,4207.564,4160.128,4199.231,4203.462,4193.077,4211.923,4202.308,4210.769,4207.821,4215.769,0,0
589,69,0,2792,4212.821,4208.333,4206.026,4206.538,4215.897,4173.59,4201.026,4209.615,4194.744000000001,4200.897,4211.795,4220.0,4203.462,4226.795,0,0
590,70,0,3309,4196.538,4189.103,4191.026,4194.231,4191.667,4162.436,4180.255999999999,4192.9490000000005,4173.205,4182.821,4189.615,4202.308,4185.897,4207.9490000000005,0,0
591,71,0,3409,4185.385,4176.667,4176.795,4182.564,4170.897,4149.103,4169.872,4171.538,4163.077,4184.487,4166.154,4181.538,4176.667,4187.821,0,0
592,72,0,3208,4182.9490000000005,4167.564,4172.436,4169.872,4175.0,4146.923,4166.282,4161.795,4161.026,4177.692,4170.255999999999,4176.026,4170.641,4183.59,0,0
593,73,0,3574,4188.205,4167.692,4179.872,4175.128,4187.436,4147.821,4166.667,4173.718,4165.255999999999,4172.179,4182.821,4184.615,4175.385,4192.9490000000005,0,0
594,74,0,3428,4192.9490000000005,4170.641,4185.0,4187.436,4179.615,4145.385,4171.667,4183.462,4166.41,4179.744000000001,4186.026,4191.026,4181.026,4199.744000000001,0,0
595,75,0,3290,4191.538,4168.077,4183.718,4184.231,4170.769,4148.205,4180.513,4187.0509999999995,4172.821,4202.564,4194.615,4196.923,4182.692,4203.462,0,0
596,76,0,3112,4202.0509999999995,4172.308,4197.692,4193.462,4189.744000000001,4167.0509999999995,4195.128,4201.282,4188.59,4231.026,4209.487,4211.667,4192.692,4213.974,0,0
597,77,0,3245,4204.359,4168.462,4200.641,4205.255999999999,4203.077,4176.154,4196.41,4201.282,4184.615,4236.667,4205.128,4206.923,4192.821,4211.923,0,0
598,78,0,3428,4193.462,4149.359,4186.923,4188.333,4183.718,4162.692,4184.744000000001,4186.282,4167.821,4228.718,4191.538,4192.821,4179.744000000001,4201.923,0,0
599,79,0,3290,4193.59,4140.769,4187.436,4177.308,4165.0,4152.9490000000005,4184.231,4190.255999999999,4174.744000000001,4240.255999999999,4196.154,4198.718,4184.744000000001,4204.615,0,0
600,80,0,3112,4198.205,4140.513,4194.487,4186.538,4170.385,4161.41,4188.846,4199.487,4186.538,4252.308,4206.923,4206.154,4196.026,4207.692,0,0
601,81,0,3245,4185.0,4126.282,4182.436,4176.538,4176.41,4166.282,4180.897,4189.615,4175.255999999999,4242.0509999999995,4198.846,4192.821,4187.9490000000005,4196.026,0,0
602,82,0,3428,4174.231,4110.0,4172.0509999999995,4156.41,4153.718,4159.359,4168.59,4170.513,4158.333,4227.0509999999995,4181.154,4179.231,4171.41,4184.231,0,0
603,83,0,3290,4177.179,4107.9490000000005,4179.103,4159.615,4136.282,4160.513,4167.308,4162.9490000000005,4155.0,4218.333,4176.923,4182.9490000000005,4163.077,4185.255999999999,0,0
604,84,0,3112,4187.436,4122.308,4189.744000000001,4178.205,4175.385,4175.769,4185.769,4184.487,4175.385,4233.333,4194.359,4195.513,4179.103,4197.308,0,0
605,85,0,3245,4196.282,4140.385,4193.846,4184.231,4218.077,4184.231,4205.513,4206.923,4198.974,4255.769,4209.872,4204.744000000001,4203.077,4207.308,0,0
606,86,0,3428,4194.231,4134.103,4193.462,4176.795,4197.0509999999995,4179.359,4199.744000000001,4198.846,4192.0509999999995,4246.026,4203.205,4200.0,4198.718,4200.255999999999,0,0
607,87,0,3290,4186.026,4110.0,4190.0,4168.077,4164.872,4172.692,4185.513,4186.026,4171.795,4221.538,4187.308,4189.103,4174.487,4189.103,0,0
608,88,0,3112,4168.333,4098.077,4172.9490000000005,4156.538,4165.513,4164.615,4179.231,4176.923,4163.333,4205.897,4172.821,4173.077,4161.026,4175.513,0,0
609,89,0,3245,4166.667,4111.026,4172.436,4155.385,4173.59,4167.0509999999995,4188.333,4176.282,4169.487,4203.846,4172.9490000000005,4171.795,4168.846,4170.769,0,0
610,90,0,3428,4187.692,4131.154,4193.59,4175.769,4184.872,4177.564,4202.179,4198.333,4183.205,4215.385,4192.0509999999995,4191.795,4184.744000000001,4187.821,0,0
611,91,0,3290,4187.9490000000005,4127.564,4186.667,4178.205,4185.0,4171.667,4188.59,4195.385,4176.41,4210.385,4191.923,4189.231,4180.385,4192.692,0,0
612,92,0,3112,4159.487,4105.641,4159.615,4152.0509999999995,4164.744000000001,4155.897,4164.359,4161.154,4158.59,4181.667,4167.0509999999995,4161.154,4161.41,4170.641,0,0
613,93,0,3245,4164.872,4112.436,4173.462,4154.744000000001,4161.923,4154.487,4176.923,4172.564,4172.179,4180.641,4171.538,4167.9490000000005,4168.333,4169.744000000001,0,0
614,94,0,3428,4186.026,4138.974,4190.769,4174.103,4185.255999999999,4157.179,4196.41,4205.0,4193.974,4204.103,4193.333,4190.255999999999,4188.846,4187.179,0,0
615,95,0,3290,4177.564,4143.718,4173.205,4170.897,4193.462,4154.359,4186.538,4192.564,4184.103,4197.9490000000005,4187.179,4181.667,4185.385,4184.487,0,0
616,96,0,3112,4172.564,4142.9490000000005,4170.769,4175.641,4188.077,4155.385,4185.641,4183.462,4178.718,4183.333,4182.436,4175.385,4178.077,4181.667,0,0
617,97,0,3245,4178.718,4143.974,4177.9490000000005,4172.179,4189.103,4150.0,4185.255999999999,4193.846,4188.205,4181.538,4182.0509999999995,4177.564,4173.205,4184.487,0,0
618,98,0,3428,4172.308,4136.923,4169.103,4148.974,4178.333,4144.103,4172.308,4187.9490000000005,4185.0,4173.462,4170.128,4166.795,4169.231,4176.026,0,0
619,99,0,3290,4170.897,4134.615,4175.769,4156.154,4157.9490000000005,4157.308,4180.255999999999,4183.974,4182.9490000000005,4167.436,4168.077,4164.359,4181.282,4174.231,0,0
620,100,0,3112,4171.538,4137.692,4179.615,4170.0,4163.462,4164.231,4184.615,4182.308,4185.513,4171.282,4172.0509999999995,4168.205,4186.41,4177.9490000000005,0,0
621,101,0,3245,4166.41,4145.385,4162.308,4154.231,4188.333,4156.154,4170.255999999999,4171.923,4184.231,4169.231,4168.333,4161.538,4175.128,4173.462,0,0
622,102,0,3428,4170.897,4159.744000000001,4168.718,4151.667,4190.897,4160.641,4175.255999999999,4178.333,4186.667,4162.821,4170.641,4164.231,4172.9490000000005,4172.436,0,0
623,103,0,3290,4165.641,4156.154,4174.231,4160.385,4183.205,4158.718,4180.897,4181.795,4178.846,4153.077,4164.231,4162.564,4168.077,4163.974,0,0
624,104,0,3112,4152.308,4145.385,4154.487,4151.923,4188.333,4143.974,4167.436,4166.282,4167.308,4145.513,4149.231,4151.795,4159.231,4154.487,0,0
625,105,0,3245,4162.9490000000005,4163.333,4162.0509999999995,4154.615,4184.359,4153.846,4178.205,4174.872,4183.974,4161.923,4162.308,4165.255999999999,4180.128,4170.641,0,0
626,106,0,3428,4170.513,4173.333,4178.718,4156.923,4177.179,4164.103,4191.538,4191.795,4197.308,4171.538,4178.462,4178.205,4188.462,4177.0509999999995,0,0
627,107,0,3290,4155.513,4162.821,4166.923,4150.897,4191.154,4144.103,4175.0,4181.538,4182.821,4158.462,4168.974,4162.436,4166.026,4159.744000000001,0,0
628,108,0,3112,4163.333,4170.769,4166.795,4161.282,4199.744000000001,4142.9490000000005,4173.205,4174.872,4180.255999999999,4161.282,4164.615,4161.026,4171.795,4165.0,0,0
629,109,0,3245,4180.513,4175.641,4178.846,4162.0509999999995,4181.923,4161.538,4189.359,4183.846,4192.9490000000005,4172.564,4173.846,4176.923,4191.538,4183.077,0,0
630,110,0,3428,4178.462,4165.769,4178.718,4154.359,4172.692,4157.0509999999995,4186.282,4184.231,4189.872,4163.974,4174.615,4177.564,4187.179,4180.641,0,0
631,111,0,3290,4172.692,4175.641,4177.564,4165.641,4184.615,4148.205,4175.641,4183.59,4184.359,4161.41,4172.308,4173.205,4180.897,4175.385,0,0
632,112,0,3112,4168.846,4186.795,4173.077,4172.179,4186.41,4152.179,4176.667,4183.205,4188.974,4165.641,4171.41,4174.872,4176.667,4174.103,0,0
633,113,0,3245,4172.564,4187.436,4173.462,4173.974,4177.0509999999995,4155.0,4187.692,4182.692,4192.9490000000005,4162.821,4172.179,4180.513,4173.846,4177.821,0,0
634,114,0,3428,4195.255999999999,4202.9490000000005,4198.333,4187.179,4186.923,4158.846,4203.462,4196.795,4200.769,4176.538,4188.846,4199.359,4194.487,4199.487,0,0
635,115,0,3290,4202.821,4217.564,4207.9490000000005,4192.0509999999995,4212.436,4166.667,4208.846,4212.436,4210.128,4196.154,4204.487,4212.436,4212.0509999999995,4211.026,0,0
636,116,0,3112,4176.795,4193.846,4180.513,4171.667,4197.821,4158.846,4190.128,4197.564,4198.718,4177.179,4188.077,4192.436,4187.0509999999995,4186.923,0,0
637,117,0,3245,4157.436,4167.821,4160.513,4148.077,4157.564,4139.872,4171.026,4170.769,4177.0509999999995,4143.333,4160.769,4166.538,4161.026,4159.744000000001,0,0
638,118,0,3428,4175.128,4193.205,4175.769,4163.077,4171.667,4146.667,4185.0,4182.821,4187.9490000000005,4158.462,4174.231,4179.615,4183.718,4173.077,0,0
639,119,0,3290,4201.41,4225.769,4202.0509999999995,4199.744000000001,4207.179,4166.026,4208.974,4211.154,4216.282,4192.436,4204.872,4207.179,4215.128,4204.744000000001,0,0
640,120,0,3112,4187.564,4207.692,4186.795,4189.359,4189.487,4159.744000000001,4196.923,4196.795,4204.359,4176.154,4188.846,4188.462,4195.0,4191.41,0,0
641,121,0,3245,4165.255999999999,4178.462,4158.846,4158.205,4165.513,4148.077,4174.359,4174.615,4178.462,4148.846,4158.974,4157.179,4166.667,4163.846,0,0
642,122,0,3428,4180.128,4192.308,4174.231,4177.308,4180.897,4160.0,4184.872,4193.077,4190.128,4168.333,4176.282,4171.026,4184.615,4179.872,0,0
643,123,0,3290,4192.821,4204.487,4192.308,4193.974,4182.564,4163.333,4190.0,4200.0,4197.9490000000005,4181.667,4192.179,4188.974,4197.436,4196.667,0,0
644,124,0,3112,4175.641,4194.615,4171.667,4170.641,4169.359,4148.462,4171.667,4179.103,4181.154,4164.744000000001,4175.769,4173.462,4182.564,4180.385,0,0
645,125,0,3245,4179.231,4199.744000000001,4168.333,4171.795,4185.641,4153.846,4175.513,4183.846,4182.692,4166.026,4177.0509999999995,4170.385,4183.59,4177.179,0,0
646,126,0,3428,4188.974,4204.744000000001,4181.923,4182.9490000000005,4190.641,4161.154,4185.769,4190.128,4188.205,4167.692,4180.897,4177.179,4186.154,4182.9490000000005,0,0
647,127,0,54,4181.667,4198.077,4180.385,4172.179,4171.026,4156.667,4179.231,4172.0509999999995,4175.255999999999,4156.154,4172.692,4174.359,4178.077,4181.795,0,0
648,0,0,3165,4183.462,4198.59,4183.974,4176.282,4168.974,4166.026,4183.718,4171.538,4171.667,4161.026,4182.0509999999995,4179.744000000001,4176.667,4188.462,0,0
649,1,0,3363,4191.923,4203.077,4189.872,4195.128,4180.128,4176.923,4192.9490000000005,4187.179,4179.231,4169.744000000001,4187.436,4187.436,4176.282,4192.436,0,0
650,2,0,2872,4185.513,4192.9490000000005,4179.744000000001,4181.795,4184.359,4164.744000000001,4183.846,4183.333,4180.128,4163.974,4177.308,4181.026,4177.179,4183.974,0,0
651,3,0,3537,4189.487,4189.872,4187.0509999999995,4168.718,4176.923,4158.205,4182.0509999999995,4185.128,4190.385,4172.436,4187.821,4184.103,4191.538,4191.667,0,0
652,4,0,3605,4202.436,4212.179,4203.205,4196.923,4176.026,4167.9490000000005,4192.821,4202.308,4206.538,4191.026,4202.0509999999995,4199.744000000001,4204.231,4209.103,0,0
653,5,0,2789,4194.103,4218.077,4192.308,4208.333,4194.615,4164.359,4189.103,4199.487,4203.333,4187.308,4192.821,4195.897,4197.821,4202.179,0,0
654,6,0,3303,4181.538,4194.359,4177.308,4184.103,4204.615,4155.641,4180.513,4184.231,4190.385,4174.359,4185.641,4180.0,4186.923,4183.077,0,0
655,7,0,3405,4175.255999999999,4178.974,4171.923,4167.436,4177.564,4158.077,4178.462,4180.769,4183.974,4166.795,4180.513,4169.487,4180.513,4171.538,0,0
656,8,0,3204,4173.718,4183.718,4173.462,4168.718,4162.564,4161.026,4177.692,4183.846,4182.821,4164.487,4174.103,4168.333,4182.436,4174.487,0,0
657,9,0,3575,4180.641,4188.333,4180.641,4179.103,4183.846,4158.718,4182.179,4188.205,4186.667,4175.769,4186.667,4179.744000000001,4193.333,4187.821,0,0
658,10,0,3425,4182.179,4184.231,4179.359,4183.077,4170.897,4156.026,4179.744000000001,4185.0,4182.9490000000005,4180.385,4195.0,4186.154,4190.255999999999,4187.308,0,0
659,11,0,3289,4175.255999999999,4181.026,4170.128,4171.795,4155.513,4153.59,4171.41,4177.692,4176.282,4172.0509999999995,4187.9490000000005,4179.615,4180.255999999999,4176.41,0,0
660,12,0,3112,4186.538,4184.231,4181.41,4176.026,4186.538,4160.255999999999,4179.103,4188.974,4185.385,4179.103,4190.385,4185.0,4188.718,4185.513,0,0
661,13,0,3241,4189.615,4186.026,4187.692,4187.821,4192.821,4164.615,4188.205,4203.718,4194.231,4187.179,4191.41,4190.385,4193.974,4193.333,0,0
662,14,0,3425,4172.9490000000005,4184.231,4174.744000000001,4175.641,4166.41,4156.795,4185.385,4199.872,4188.205,4175.769,4186.795,4184.615,4184.744000000001,4180.513,0,0
663,15,0,3289,4176.026,4185.897,4180.128,4166.154,4171.026,4150.128,4182.9490000000005,4198.333,4185.513,4177.564,4194.359,4189.359,4192.179,4180.897,0,0
664,16,0,0,4187.179,4176.538,4188.205,4168.974,4173.974,4150.513,4178.333,4197.436,4183.205,4180.513,4195.769,4192.0509999999995,4196.41,4186.923,0,0
665,17,0,0,4171.41,4161.154,4171.667,4164.231,4155.513,4151.923,4166.41,4184.872,4171.923,4157.9490000000005,4179.744000000001,4176.154,4172.9490000000005,4176.154,0,0
666,18,0,0,4167.179,4171.154,4166.026,4167.9490000000005,4166.923,4157.692,4167.9490000000005,4183.846,4172.436,4151.538,4177.692,4174.487,4168.846,4175.897,0,0
667,19,0,0,4193.974,4195.255999999999,4191.667,4182.821,4189.103,4170.0,4192.179,4206.282,4192.179,4182.436,4196.795,4197.308,4198.974,4198.718,0,0
668,20,0,0,4205.769,4199.744000000001,4209.103,4192.564,4181.41,4180.513,4208.974,4217.564,4202.179,4200.897,4208.846,4211.026,4208.846,4212.0509999999995,0,0
669,21,0,0,4190.513,4188.846,4199.359,4191.795,4170.513,4181.795,4199.744000000001,4203.974,4190.641,4186.667,4198.333,4202.821,4190.513,4197.9490000000005,0,0
670,22,0,0,4175.641,4177.9490000000005,4180.255999999999,4175.897,4176.41,4168.718,4175.255999999999,4183.974,4175.897,4166.538,4178.974,4183.333,4177.0509999999995,4181.026,0,0
671,23,0,0,4177.9490000000005,4176.282,4177.436,4170.0,4178.205,4155.0,4162.692,4168.974,4166.282,4154.231,4186.282,4179.744000000001,4172.179,4183.846,0,0
672,24,0,0,4184.615,4183.077,4191.538,4184.487,4172.821,4165.513,4171.538,4168.846,4167.692,4159.359,4203.59,4194.487,4175.769,4193.718,0,0
673,25,0,0,4186.282,4181.667,4192.692,4185.255999999999,4172.436,4179.744000000001,4181.795,4176.538,4176.026,4168.718,4187.436,4196.795,4180.255999999999,4190.0,0,0
674,26,0,0,4188.205,4184.359,4182.821,4183.205,4178.333,4171.026,4185.385,4185.897,4187.0509999999995,4171.667,4176.795,4192.692,4185.128,4189.103,0,0
675,27,0,0,4193.59,4187.564,4186.923,4185.385,4178.333,4159.487,4183.974,4190.255999999999,4190.641,4172.179,4203.077,4200.769,4186.538,4197.564,0,0
676,28,0,0,4191.538,4174.487,4188.205,4173.59,4166.795,4165.0,4181.795,4177.821,4177.0509999999995,4169.872,4207.179,4198.974,4180.255999999999,4193.333,0,0
677,29,0,0,4193.846,4172.0509999999995,4190.128,4178.462,4167.692,4181.923,4187.9490000000005,4172.564,4171.923,4169.487,4189.231,4195.513,4181.282,4191.538,0,0
678,30,0,0,4193.59,4187.692,4197.308,4196.154,4182.9490000000005,4185.0,4190.769,4182.692,4181.667,4177.308,4195.128,4203.077,4185.128,4195.513,0,0
679,31,0,0,4188.077,4185.385,4195.0,4189.231,4178.974,4167.821,4179.231,4179.615,4179.231,4182.692,4197.9490000000005,4201.154,4177.564,4187.436,0,0
680,32,0,0,4190.0,4169.487,4188.846,4182.179,4166.282,4161.795,4173.846,4165.897,4171.154,4179.103,4183.333,4189.872,4169.231,4177.9490000000005,0,0
681,33,0,0,4191.154,4170.255999999999,4190.255999999999,4184.359,4175.641,4179.872,4184.744000000001,4170.128,4177.308,4178.846,4182.436,4189.615,4171.923,4179.359,0,0
682,34,0,0,4177.692,4171.282,4184.487,4175.128,4178.077,4181.41,4182.9490000000005,4172.308,4175.255999999999,4180.385,4182.564,4185.385,4169.487,4174.359,0,0
683,35,0,0,4173.718,4165.255999999999,4182.308,4175.385,4163.974,4160.513,4172.9490000000005,4165.128,4162.564,4183.333,4180.513,4180.255999999999,4169.872,4170.128,0,0
684,36,0,0,4191.667,4173.077,4197.821,4191.41,4166.923,4161.538,4183.333,4178.205,4175.513,4201.026,4196.923,4197.9490000000005,4187.821,4189.231,0,0
685,37,0,0,4191.026,4172.564,4192.821,4186.667,4169.872,4172.692,4189.744000000001,4182.692,4183.205,4208.077,4195.769,4200.0,4187.564,4194.359,0,0
686,38,0,0,4180.897,4159.615,4183.718,4177.564,4168.077,4170.897,4180.385,4171.538,4169.103,4200.385,4179.744000000001,4185.128,4176.154,4183.077,0,0
687,39,0,0,4185.128,4162.308,4195.385,4185.513,4183.974,4175.513,4183.846,4180.641,4170.769,4205.128,4190.641,4190.641,4184.744000000001,4184.872,0,0
688,40,0,0,4188.077,4171.026,4200.0,4191.282,4179.103,4184.359,4195.385,4193.59,4179.872,4212.0509999999995,4199.359,4200.513,4187.0509999999995,4188.59,0,0
689,41,0,0,4177.9490000000005,4154.744000000001,4187.179,4180.128,4153.974,4170.128,4183.59,4180.0,4173.205,4204.872,4184.615,4189.103,4166.282,4181.282,0,0
690,42,0,0,4175.769,4135.385,4182.9490000000005,4165.255999999999,4160.897,4151.282,4168.974,4167.9490000000005,4168.462,4201.667,4180.255999999999,4182.436,4163.462,4177.308,0,0
691,43,0,0,4185.897,4147.436,4186.538,4174.487,4182.692,4156.667,4178.462,4181.026,4180.897,4214.872,4196.282,4190.513,4188.462,4186.026,0,0
692,44,0,0,4192.436,4161.923,4192.436,4189.487,4170.128,4168.333,4190.769,4190.128,4188.59,4218.59,4200.513,4194.744000000001,4194.231,4193.59,0,0
693,45,0,0,4185.897,4150.513,4196.795,4177.436,4149.487,4171.41,4188.462,4185.385,4186.282,4204.487,4190.385,4190.769,4178.846,4191.282,0,0
694,46,0,0,4178.974,4137.692,4190.255999999999,4169.872,4170.128,4175.897,4183.718,4182.308,4181.538,4198.718,4185.255999999999,4185.641,4178.718,4187.9490000000005,0,0
695,47,0,0,4179.487,4142.821,4183.333,4175.0,4199.744000000001,4179.231,4182.9490000000005,4182.9490000000005,4176.795,4202.0509999999995,4186.41,4188.59,4185.769,4189.615,0,0
696,48,0,0,4188.077,4149.487,4191.538,4174.615,4198.462,4180.255999999999,4183.205,4184.615,4178.974,4198.205,4188.462,4196.282,4181.154,4193.333,0,0
697,49,0,0,4192.179,4155.255999999999,4196.154,4176.795,4172.179,4183.077,4188.59,4189.103,4186.538,4195.385,4191.923,4196.026,4180.255999999999,4195.255999999999,0,0
698,50,0,0,4183.59,4153.462,4184.103,4176.154,4151.026,4180.641,4183.333,4183.077,4181.538,4193.974,4190.0,4186.923,4178.846,4192.179,0,0
699,51,0,0,4175.769,4134.231,4176.923,4163.077,4163.205,4170.255999999999,4171.154,4174.359,4171.026,4185.513,4181.154,4182.0509999999995,4169.103,4182.564,0,0
700,52,0,0,4187.179,4143.205,4187.0509999999995,4171.282,4191.667,4172.9490000000005,4179.487,4183.333,4181.154,4189.103,4189.231,4192.308,4176.923,4190.0,0,0
701,53,0,0,4200.128,4180.128,4199.359,4188.846,4190.641,4182.436,4189.615,4190.513,4190.385,4200.255999999999,4201.795,4202.0509999999995,4189.744000000001,4206.795,0,0
702,54,0,0,4201.154,4188.333,4203.333,4182.564,4176.154,4183.333,4187.692,4185.641,4184.359,4197.821,4200.641,4203.205,4186.026,4211.538,0,0
703,55,0,0,4201.667,4173.205,4200.641,4174.615,4186.282,4186.923,4190.513,4185.513,4183.077,4191.026,4200.513,4204.615,4186.538,4211.667,0,0
704,56,0,0,4195.0,4165.513,4189.487,4171.026,4184.872,4189.744000000001,4188.462,4184.744000000001,4181.795,4185.128,4196.538,4198.462,4191.667,4205.641,0,0
705,57,0,0,4195.769,4169.744000000001,4191.795,4168.077,4162.436,4187.179,4174.744000000001,4180.641,4176.282,4181.667,4191.154,4194.744000000001,4185.385,4201.154,0,0
706,58,0,0,4209.359,4184.615,4207.564,4180.897,4175.255999999999,4193.718,4181.667,4191.026,4185.0,4192.9490000000005,4200.897,4206.154,4188.205,4208.59,0,0
707,59,0,0,4210.769,4190.641,4210.385,4192.308,4199.359,4206.282,4199.872,4199.487,4195.385,4199.103,4210.513,4213.077,4195.641,4216.795,0,0
708,60,0,0,4193.718,4167.436,4192.564,4175.769,4189.103,4201.026,4187.0509999999995,4182.0509999999995,4182.308,4180.897,4196.026,4197.821,4180.641,4204.487,0,0
709,61,0,0,4193.974,4163.205,4187.308,4165.769,4176.154,4196.795,4170.641,4172.179,4172.179,4173.077,4183.59,4188.718,4172.692,4190.897,0,0
710,62,0,0,4205.128,4186.41,4200.513,4186.795,4187.564,4206.538,4182.564,4190.897,4183.462,4190.769,4195.897,4197.564,4188.077,4196.667,0,0
711,63,0,0,4202.9490000000005,4178.846,4206.795,4188.333,4189.872,4205.0,4196.026,4199.744000000001,4191.795,4193.462,4203.974,4202.564,4193.077,4204.231,0,0
712,64,0,3171,4188.462,4159.487,4196.282,4166.41,4180.641,4191.538,4185.513,4183.846,4184.487,4175.385,4193.974,4198.205,4181.538,4199.872,0,0
713,65,0,3369,4180.385,4166.538,4185.897,4163.846,4184.872,4189.744000000001,4174.359,4179.103,4181.154,4171.795,4186.026,4194.487,4181.923,4189.359,0,0
714,66,0,2877,4183.718,4176.923,4186.282,4179.231,4184.103,4197.564,4179.615,4186.667,4189.231,4179.359,4189.872,4194.231,4190.0,4184.487,0,0
715,67,0,3543,4176.026,4163.846,4179.872,4176.026,4160.128,4188.462,4173.205,4174.744000000001,4181.667,4165.641,4186.923,4182.308,4179.615,4173.59,0,0
716,68,0,3577,4167.9490000000005,4155.769,4171.923,4160.897,4160.0,4181.282,4161.41,4162.692,4169.103,4154.103,4179.487,4173.718,4170.128,4166.41,0,0
717,69,0,2789,4186.41,4178.333,4186.795,4168.077,4195.641,4203.077,4171.667,4178.205,4183.718,4174.872,4190.641,4190.385,4185.641,4186.923,0,0
718,70,0,3311,4210.255999999999,4187.564,4212.692,4195.769,4198.974,4218.333,4188.333,4198.59,4206.667,4200.255999999999,4210.513,4212.564,4205.513,4210.128,0,0
719,71,0,3413,4200.897,4173.974,4209.487,4201.667,4176.282,4202.179,4188.333,4199.487,4205.0,4201.795,4211.538,4208.333,4201.795,4197.9490000000005,0,0
720,72,0,3211,4186.282,4178.333,4194.872,4176.667,4188.59,4192.436,4185.255999999999,4190.385,4191.026,4188.846,4195.0,4192.9490000000005,4191.795,4178.59,0,0
721,73,0,3581,4184.744000000001,4189.231,4190.0,4164.487,4203.59,4197.179,4180.255999999999,4179.744000000001,4184.744000000001,4175.769,4188.333,4186.667,4186.795,4179.103,0,0
722,74,0,3431,4176.154,4173.846,4179.103,4170.769,4180.641,4193.718,4166.538,4166.282,4173.718,4161.41,4183.333,4178.59,4171.282,4169.487,0,0
723,75,0,3294,4171.667,4171.667,4176.538,4180.769,4167.9490000000005,4194.231,4174.744000000001,4171.154,4171.795,4167.179,4176.282,4177.0509999999995,4171.923,4162.308,0,0
724,76,0,3125,4180.641,4193.59,4186.667,4187.564,4187.179,4204.103,4192.692,4188.333,4185.897,4183.846,4182.436,4186.154,4187.308,4175.255999999999,0,0
725,77,0,3249,4176.667,4190.128,4178.205,4171.667,4187.0509999999995,4199.615,4181.026,4182.564,4183.974,4176.282,4182.0509999999995,4178.205,4178.077,4172.821,0,0
726,78,0,3431,4175.513,4175.385,4173.59,4168.333,4170.897,4197.436,4170.513,4170.769,4174.487,4164.872,4173.333,4167.9490000000005,4166.923,4165.897,0,0
727,79,0,3294,4186.282,4179.744000000001,4187.9490000000005,4190.641,4177.692,4206.538,4178.077,4175.385,4183.205,4175.513,4179.103,4178.846,4181.026,4179.744000000001,0,0
728,80,0,3125,4186.923,4187.692,4188.846,4191.538,4183.718,4206.154,4175.128,4176.154,4186.795,4181.795,4190.897,4190.897,4186.795,4187.821,0,0
729,81,0,3249,4175.897,4190.128,4177.436,4168.333,4174.103,4200.255999999999,4166.026,4170.769,4172.821,4171.154,4185.641,4186.538,4179.487,4174.487,0,0
730,82,0,3431,4170.897,4181.282,4172.564,4156.538,4175.769,4200.385,4167.436,4171.154,4167.9490000000005,4167.692,4172.9490000000005,4173.974,4180.385,4161.282,0,0
731,83,0,3294,4171.923,4168.333,4168.718,4156.923,4180.641,4201.667,4170.641,4173.205,4169.359,4169.744000000001,4170.255999999999,4164.615,4179.103,4160.0,0,0
732,84,0,3125,4176.538,4173.974,4169.744000000001,4163.59,4171.282,4199.872,4171.282,4178.59,4169.231,4173.333,4175.385,4169.872,4181.154,4172.179,0,0
733,85,0,3249,4178.462,4189.359,4173.846,4171.282,4168.333,4204.615,4172.0509999999995,4179.103,4171.795,4174.359,4176.282,4177.0509999999995,4182.436,4179.615,0,0
734,86,0,3431,4169.487,4183.846,4166.667,4168.718,4172.9490000000005,4205.897,4172.308,4163.974,4165.255999999999,4165.385,4168.462,4168.718,4171.667,4164.872,0,0
735,87,0,3294,4168.077,4168.333,4162.564,4168.462,4166.154,4199.231,4165.641,4157.564,4153.974,4161.538,4166.667,4166.154,4165.641,4156.795,0,0
736,88,0,3125,4173.077,4168.205,4164.487,4171.154,4168.846,4197.436,4155.255999999999,4163.846,4151.795,4163.974,4170.513,4170.385,4168.974,4164.872,0,0
737,89,0,3249,4183.59,4185.769,4174.487,4174.359,4186.795,4205.385,4167.0509999999995,4169.231,4160.513,4170.255999999999,4177.308,4176.026,4178.077,4177.9490000000005,0,0
738,90,0,3431,4194.744000000001,4203.077,4190.128,4188.718,4192.0509999999995,4211.923,4188.974,4175.641,4170.385,4183.974,4188.718,4185.641,4190.255999999999,4186.923,0,0
739,91,0,3294,4192.436,4190.0,4189.615,4186.795,4171.923,4200.641,4175.513,4173.077,4163.59,4180.128,4183.974,4186.154,4182.692,4182.564,0,0
740,92,0,3125,4175.0,4173.205,4170.0,4170.0,4149.103,4182.436,4149.487,4161.923,4150.0,4158.59,4168.462,4172.0509999999995,4163.077,4166.026,0,0
741,93,0,3249,4175.0,4187.0509999999995,4170.769,4174.359,4163.59,4186.538,4158.974,4167.436,4158.462,4161.923,4172.436,4171.795,4169.103,4160.385,0,0
742,94,0,3431,4188.974,4187.9490000000005,4184.103,4186.667,4191.154,4201.667,4175.513,4178.846,4173.462,4175.255999999999,4180.641,4180.0,4176.667,4170.385,0,0
743,95,0,3294,4177.564,4164.872,4172.0509999999995,4172.692,4183.462,4196.538,4163.205,4167.564,4160.385,4156.538,4169.231,4166.538,4158.462,4161.41,0,0
744,96,0,3125,4160.255999999999,4170.769,4157.308,4160.769,4165.0,4185.769,4149.872,4156.154,4146.026,4143.333,4160.641,4155.0,4154.615,4145.769,0,0
745,97,0,3249,4174.103,4195.769,4171.538,4180.128,4167.564,4192.179,4154.872,4165.385,4154.359,4159.103,4170.255999999999,4167.179,4171.667,4159.615,0,0
746,98,0,3431,4192.308,4201.667,4186.41,4191.154,4181.667,4199.231,4165.641,4179.615,4166.026,4174.231,4179.744000000001,4179.744000000001,4182.692,4179.744000000001,0,0
747,99,0,3294,4192.436,4208.59,4187.0509999999995,4182.692,4188.846,4204.231,4177.9490000000005,4188.974,4178.077,4185.769,4189.872,4186.154,4193.718,4186.026,0,0
748,100,0,3125,4196.923,4212.692,4195.513,4193.846,4192.692,4209.872,4186.538,4193.974,4188.974,4197.179,4200.0,4199.231,4207.436,4193.974,0,0
749,101,0,3249,4196.154,4205.128,4194.872,4208.462,4185.641,4199.744000000001,4173.59,4187.179,4184.359,4189.487,4191.795,4195.513,4198.718,4187.9490000000005,0,0
750,102,0,3431,4187.821,4201.41,4188.974,4188.462,4168.59,4188.333,4166.667,4182.308,4182.0509999999995,4176.41,4182.0509999999995,4183.59,4181.795,4170.769,0,0
751,103,0,3294,4186.923,4187.9490000000005,4196.026,4172.821,4166.154,4199.872,4176.41,4186.923,4189.872,4177.436,4184.615,4187.308,4178.846,4173.462,0,0
752,104,0,3125,4168.59,4160.897,4176.667,4178.077,4162.179,4200.641,4157.0509999999995,4164.615,4165.769,4157.564,4165.769,4171.538,4159.103,4162.436,0,0
753,105,0,3249,4156.667,4169.231,4152.179,4183.205,4168.333,4190.641,4145.897,4150.255999999999,4145.641,4141.282,4151.667,4154.872,4148.205,4148.974,0,0
754,106,0,3431,4196.923,4219.359,4190.513,4194.744000000001,4201.282,4214.872,4188.718,4189.103,4184.872,4179.103,4188.974,4190.255999999999,4185.769,4188.462,0,0
755,107,0,3294,4223.718,4226.026,4227.821,4215.641,4207.0509999999995,4232.9490000000005,4210.385,4212.179,4210.769,4208.846,4212.9490000000005,4215.385,4209.872,4217.564,0,0
756,108,0,3125,4206.282,4191.538,4208.974,4218.974,4182.564,4211.923,4184.872,4188.333,4187.0509999999995,4187.179,4190.385,4194.615,4192.0509999999995,4195.128,0,0
757,109,0,3249,4194.744000000001,4192.436,4188.333,4195.255999999999,4187.0509999999995,4199.231,4174.872,4177.436,4179.103,4169.487,4181.667,4183.077,4181.538,4179.744000000001,0,0
758,110,0,3431,4196.667,4208.333,4190.385,4177.821,4202.821,4210.128,4180.0,4181.795,4186.41,4172.564,4186.154,4186.41,4180.255999999999,4181.026,0,0
759,111,0,3294,4186.154,4190.128,4187.821,4184.615,4171.667,4207.821,4163.462,4170.641,4172.9490000000005,4162.308,4173.077,4175.128,4167.308,4172.692,0,0
760,112,0,3125,4181.282,4170.513,4183.974,4184.872,4142.308,4199.487,4149.359,4158.846,4162.0509999999995,4149.359,4163.59,4166.026,4162.564,4166.667,0,0
761,113,0,3249,4181.538,4184.872,4178.846,4168.462,4168.333,4205.128,4155.385,4157.308,4163.333,4151.026,4163.077,4164.872,4161.282,4163.333,0,0
762,114,0,3431,4172.308,4187.564,4163.846,4164.872,4192.0509999999995,4211.026,4155.255999999999,4155.255999999999,4156.667,4148.333,4154.615,4155.769,4151.795,4155.513,0,0
763,115,0,3294,4165.769,4167.821,4158.59,4170.0,4178.462,4213.974,4145.897,4148.462,4149.359,4138.974,4151.923,4149.231,4150.255999999999,4154.744000000001,0,0
764,116,0,3125,4175.385,4175.128,4173.077,4174.103,4170.128,4215.641,4155.769,4155.0,4156.282,4147.308,4165.385,4160.385,4163.077,4166.026,0,0
765,117,0,3249,4202.308,4208.462,4205.641,4205.385,4184.231,4222.0509999999995,4188.846,4185.513,4179.487,4172.436,4188.077,4190.641,4184.359,4190.769,0,0
766,118,0,3431,4199.872,4208.205,4205.0,4209.872,4194.872,4223.333,4192.308,4191.026,4186.923,4176.795,4190.897,4195.255999999999,4189.487,4192.692,0,0
767,119,0,3294,4173.59,4171.538,4171.154,4178.205,4186.538,4214.744000000001,4164.872,4166.282,4167.564,4156.667,4171.154,4168.974,4169.872,4165.513,0,0
768,120,0,3125,4176.538,4164.231,4172.0509999999995,4178.462,4169.744000000001,4214.359,4162.692,4167.564,4163.462,4157.0509999999995,4170.641,4164.872,4163.974,4162.436,0,0
