,COUNTER, INTERPOLATED, RAW_CQ, AF3, F7, F3, FC5, T7, P7, O1, O2, P8, T8, FC6, F4, F8, AF4, MARKER_HARDWARE, MARKER
0,52,0,0,4197.179,4009.615,4203.077,3650.256,4181.538,4293.077,4201.026,4215.385,4108.205,4313.205,4205.255999999999,4201.026,4189.872,4198.462,0,0
1,53,0,0,4202.692,4002.692,4210.0,3666.41,4153.205,4308.462,4204.103,4216.41,4120.255999999999,4318.205,4213.718,4207.179,4200.769,4205.897,0,0
2,54,0,0,4199.359,3987.051,4197.179,3664.487,4152.821,4300.769,4192.179,4204.615,4120.128,4312.564,4205.641,4196.923,4198.462,4200.0,0,0
3,55,0,0,4195.641,3987.051,4185.769,3668.718,4181.667,4297.0509999999995,4179.359,4203.205,4114.231,4296.282,4198.718,4193.59,4187.564,4191.667,0,0
4,56,0,0,4192.821,3988.205,4188.462,3675.897,4186.026,4300.128,4174.359,4198.846,4108.59,4277.9490000000005,4199.744000000001,4195.769,4181.282,4193.846,0,0
5,57,0,0,4197.179,3992.179,4201.026,3686.1540000000005,4155.897,4299.744000000001,4188.462,4199.744000000001,4114.872,4274.615,4200.255999999999,4200.128,4190.769,4202.9490000000005,0,0
6,58,0,0,4213.462,4006.282,4219.359,3723.718,4141.026,4304.487,4209.231,4210.641,4131.538,4283.205,4207.821,4216.795,4205.769,4213.718,0,0
7,59,0,0,4208.333,3996.1540000000005,4213.462,3729.2309999999998,4148.846,4303.846,4200.255999999999,4196.667,4124.487,4270.769,4213.205,4211.154,4202.564,4205.641,0,0
8,60,0,0,4182.821,3980.897,4183.974,3695.7690000000002,4178.59,4296.538,4180.513,4171.026,4107.692,4239.231,4197.564,4184.487,4194.487,4183.974,0,0
9,61,0,0,4184.359,4004.103,4182.9490000000005,3720.6409999999996,4216.154,4301.41,4196.538,4195.513,4139.487,4230.0,4193.333,4190.128,4206.154,4189.487,0,0
10,62,0,0,4215.255999999999,4034.103,4223.077,3786.667,4209.103,4320.769,4225.385,4231.282,4180.513,4245.128,4216.795,4222.564,4222.308,4219.744000000001,0,0
11,63,0,0,4214.744000000001,4037.949,4231.923,3783.974,4190.255999999999,4321.026,4218.974,4220.513,4169.487,4238.077,4220.385,4223.718,4219.359,4221.026,0,0
12,64,0,3155,4189.744000000001,4045.7690000000002,4198.846,3760.256,4210.255999999999,4301.41,4202.9490000000005,4210.0,4148.974,4208.462,4201.282,4204.615,4207.9490000000005,4198.077,0,0
13,65,0,3409,4181.667,4076.41,4183.59,3788.333,4227.692,4295.128,4203.59,4221.026,4154.744000000001,4198.462,4195.641,4201.923,4200.769,4191.795,0,0
14,66,0,2874,4184.103,4104.103,4189.872,3784.615,4209.615,4301.923,4201.282,4212.564,4154.103,4190.0,4191.41,4198.718,4191.026,4193.077,0,0
15,67,0,3549,4180.897,4124.615,4187.308,3755.897,4191.282,4292.308,4194.487,4191.538,4135.513,4167.436,4182.564,4191.026,4187.692,4187.0509999999995,0,0
16,68,0,3531,4190.513,4167.179,4192.308,3811.1540000000005,4203.718,4285.897,4202.9490000000005,4200.255999999999,4134.231,4166.667,4188.846,4199.487,4199.103,4196.282,0,0
17,69,0,2252,4199.615,4226.282,4202.436,3885.385,4236.923,4309.487,4219.487,4230.769,4154.487,4184.744000000001,4202.179,4209.744000000001,4207.436,4211.282,0,0
18,70,0,3313,4187.821,4259.231,4190.897,3892.949,4254.359,4323.718,4212.0509999999995,4230.769,4156.795,4182.436,4202.179,4201.538,4204.231,4200.513,0,0
19,71,0,3416,4184.744000000001,4270.0,4185.255999999999,3881.667,4238.974,4312.692,4193.205,4204.103,4146.282,4169.487,4196.282,4195.769,4206.026,4190.769,0,0
20,72,0,3200,4191.282,4289.231,4192.821,3897.821,4233.205,4325.385,4188.718,4196.026,4146.282,4164.231,4189.103,4198.333,4200.897,4196.41,0,0
21,73,0,3574,4190.128,4316.282,4195.128,4002.308,4233.974,4371.154,4196.41,4203.333,4148.59,4158.718,4186.282,4197.308,4188.333,4197.692,0,0
22,74,0,3424,4188.333,4346.41,4189.487,4167.436,4222.692,4397.179,4197.564,4192.179,4143.59,4152.564,4191.282,4195.0,4193.205,4195.128,0,0
23,75,0,3280,4181.795,4355.513,4180.0,4237.436,4205.385,4381.41,4176.026,4170.513,4132.308,4136.41,4180.641,4186.026,4188.333,4189.359,0,0
24,76,0,3100,4174.615,4350.641,4182.0509999999995,4231.154,4192.9490000000005,4369.615,4166.923,4171.538,4128.718,4125.513,4164.487,4179.487,4173.077,4182.9490000000005,0,0
25,77,0,3250,4189.615,4369.744000000001,4200.128,4272.0509999999995,4221.282,4389.744000000001,4186.282,4188.205,4142.821,4142.436,4185.385,4195.385,4189.487,4195.255999999999,0,0
26,78,0,3424,4200.897,4385.0,4199.103,4298.333,4260.0,4410.385,4195.385,4195.769,4149.744000000001,4158.077,4210.641,4206.667,4210.128,4206.538,0,0
27,79,0,3280,4195.641,4372.308,4187.821,4278.205,4251.667,4423.205,4193.077,4203.974,4144.872,4163.205,4198.718,4199.872,4205.769,4197.0509999999995,0,0
28,80,0,3100,4198.333,4370.0,4200.641,4292.564,4237.436,4432.308,4196.795,4214.744000000001,4155.0,4177.179,4189.103,4201.282,4210.641,4198.333,0,0
29,81,0,3250,4206.026,4365.128,4210.641,4309.103,4239.487,4431.282,4191.795,4206.154,4157.692,4173.077,4197.821,4208.974,4211.667,4209.359,0,0
30,82,0,3424,4197.821,4334.744000000001,4197.179,4293.59,4227.308,4423.205,4178.333,4191.795,4135.128,4153.59,4201.282,4203.974,4189.487,4201.154,0,0
31,83,0,3280,4190.641,4308.59,4190.255999999999,4283.205,4220.385,4425.513,4183.205,4200.0,4132.179,4160.641,4203.846,4200.0,4181.026,4191.538,0,0
32,84,0,3100,4188.205,4290.128,4189.359,4284.103,4223.718,4435.513,4194.615,4206.41,4152.179,4175.769,4199.744000000001,4200.0,4184.359,4189.359,0,0
33,85,0,3250,4182.436,4263.846,4185.897,4275.513,4210.385,4440.897,4189.615,4193.077,4153.205,4168.846,4181.538,4192.0509999999995,4179.872,4180.0,0,0
34,86,0,3424,4179.615,4238.205,4187.821,4256.41,4204.359,4440.769,4186.154,4188.333,4142.692,4166.795,4177.179,4188.718,4179.231,4174.231,0,0
35,87,0,3280,4186.026,4216.154,4190.513,4248.205,4211.41,4447.564,4200.385,4203.205,4149.615,4183.077,4189.103,4194.872,4185.128,4181.154,0,0
36,88,0,3100,4188.333,4187.821,4186.795,4250.255999999999,4208.205,4458.462,4210.641,4207.179,4161.026,4189.359,4187.0509999999995,4195.513,4186.154,4183.205,0,0
37,89,0,3250,4179.744000000001,4154.872,4180.897,4237.9490000000005,4194.103,4448.846,4193.718,4186.41,4152.692,4183.718,4181.282,4187.0509999999995,4181.026,4174.744000000001,0,0
38,90,0,3424,4183.462,4130.641,4184.231,4213.077,4186.282,4439.872,4184.359,4175.385,4139.103,4185.897,4191.026,4191.41,4178.974,4176.282,0,0
39,91,0,3280,4194.615,4118.846,4191.538,4181.41,4190.128,4460.897,4200.0,4188.205,4146.795,4195.897,4206.026,4202.692,4186.538,4190.513,0,0
40,92,0,3100,4195.128,4103.974,4193.077,4168.462,4187.0509999999995,4467.564,4205.513,4198.59,4158.333,4206.154,4208.846,4203.205,4192.9490000000005,4196.026,0,0
41,93,0,3250,4188.59,4082.4359999999997,4184.487,4165.641,4179.103,4434.487,4196.154,4202.821,4155.897,4211.41,4194.231,4193.718,4189.103,4183.974,0,0
42,94,0,3424,4191.154,4069.3590000000004,4185.513,4082.5640000000003,4175.513,4417.692,4197.179,4200.641,4151.795,4208.59,4188.205,4189.103,4186.667,4176.923,0,0
43,95,0,3280,4189.231,4058.077,4191.538,3949.744,4171.41,4413.846,4201.154,4190.255999999999,4154.103,4206.795,4195.255999999999,4189.487,4185.128,4177.179,0,0
44,96,0,3100,4184.103,4036.795,4185.128,3889.103,4166.282,4390.641,4191.538,4183.205,4156.923,4212.692,4191.795,4188.462,4178.974,4176.41,0,0
45,97,0,3250,4184.615,4018.59,4174.744000000001,3867.949,4164.231,4371.923,4183.077,4186.282,4159.487,4217.692,4184.872,4184.103,4179.615,4178.462,0,0
46,98,0,3424,4186.154,4009.8720000000003,4174.615,3822.051,4161.026,4368.974,4191.41,4187.692,4155.897,4214.103,4187.821,4182.564,4184.487,4176.026,0,0
47,99,0,3280,4179.615,4004.3590000000004,4175.385,3801.282,4153.974,4358.59,4194.487,4183.718,4147.179,4204.103,4186.41,4182.308,4179.103,4165.897,0,0
48,100,0,3100,4177.692,3998.718,4176.667,3826.1540000000005,4150.641,4351.154,4188.846,4186.282,4147.179,4197.0509999999995,4181.795,4183.077,4170.513,4165.255999999999,0,0
49,101,0,3250,4187.0509999999995,4000.6409999999996,4181.795,3838.333,4153.718,4364.615,4193.205,4194.103,4157.308,4203.59,4190.385,4188.846,4177.436,4176.538,0,0
50,102,0,3424,4185.128,4007.4359999999997,4174.359,3830.6409999999996,4171.923,4360.897,4196.154,4192.0509999999995,4153.077,4202.692,4192.821,4184.872,4180.385,4174.359,0,0
51,103,0,3280,4171.923,4012.051,4164.359,3831.282,4177.308,4335.385,4188.59,4186.538,4144.103,4190.513,4178.205,4172.692,4172.9490000000005,4162.692,0,0
52,104,0,3100,4181.026,4011.667,4187.692,3848.974,4135.385,4339.872,4202.9490000000005,4201.923,4161.282,4201.795,4180.641,4184.872,4184.359,4172.821,0,0
53,105,0,3250,4194.744000000001,4003.333,4208.462,3853.718,4128.205,4335.128,4217.0509999999995,4214.231,4174.103,4217.692,4193.205,4202.564,4195.385,4186.538,0,0
54,106,0,3424,4175.641,4002.692,4172.9490000000005,3842.5640000000003,4187.179,4274.103,4191.154,4190.513,4156.154,4199.103,4182.0509999999995,4180.897,4181.41,4171.538,0,0
55,107,0,3280,4169.103,4025.256,4159.487,3864.2309999999998,4200.897,4243.205,4181.538,4178.205,4148.205,4185.641,4173.846,4168.205,4179.231,4163.974,0,0
56,108,0,3100,4187.436,4028.077,4198.333,3877.308,4153.077,4270.255999999999,4202.179,4188.718,4159.103,4198.59,4182.9490000000005,4188.846,4189.872,4178.974,0,0
57,109,0,3250,4183.333,4003.974,4193.974,3856.282,4147.0509999999995,4269.744000000001,4186.923,4176.795,4152.179,4187.821,4172.0509999999995,4181.41,4174.231,4170.0,0,0
58,110,0,3424,4168.718,4038.077,4155.769,3883.8459999999995,4188.077,4255.513,4166.538,4167.0509999999995,4151.41,4174.615,4160.641,4161.538,4170.513,4155.897,0,0
59,111,0,3280,4187.308,4116.282,4177.692,3939.103,4215.769,4278.846,4188.077,4185.385,4171.795,4198.846,4186.667,4187.692,4200.128,4183.205,0,0
60,112,0,3100,4204.615,4146.154,4210.769,3929.3590000000004,4230.0,4286.154,4199.615,4193.333,4175.255999999999,4213.333,4206.41,4214.487,4209.615,4207.564,0,0
61,113,0,3250,4199.487,4157.0509999999995,4198.718,3894.744,4230.769,4267.821,4178.974,4179.872,4163.718,4193.846,4191.41,4203.974,4190.128,4198.59,0,0
62,114,0,3424,4193.333,4189.744000000001,4189.615,3929.615,4196.538,4260.128,4179.231,4179.744000000001,4167.308,4183.846,4184.487,4199.103,4183.462,4190.255999999999,0,0
63,115,0,3280,4186.795,4207.564,4184.872,3974.2309999999998,4173.333,4260.641,4189.103,4186.282,4171.538,4184.872,4186.026,4200.897,4189.872,4187.179,0,0
64,116,0,3100,4172.436,4232.821,4165.513,3965.256,4200.769,4268.718,4179.744000000001,4181.026,4159.231,4173.718,4175.897,4187.564,4185.385,4172.9490000000005,0,0
65,117,0,3250,4165.0,4282.179,4163.077,3968.205,4229.359,4289.615,4173.846,4175.385,4151.41,4161.282,4169.231,4178.846,4181.026,4162.436,0,0
66,118,0,3424,4167.821,4302.9490000000005,4173.462,4014.8720000000003,4216.154,4306.41,4180.255999999999,4177.564,4157.308,4158.077,4169.872,4180.385,4182.692,4164.231,0,0
67,119,0,3280,4170.641,4304.103,4165.513,4017.308,4208.974,4305.128,4184.103,4181.026,4157.0509999999995,4165.769,4165.769,4174.872,4183.59,4164.615,0,0
68,120,0,3100,4169.872,4316.026,4155.385,4017.308,4225.513,4300.128,4180.513,4175.255999999999,4147.821,4162.308,4170.128,4172.0509999999995,4183.205,4163.974,0,0
69,121,0,3250,4167.692,4319.615,4162.692,4162.436,4222.692,4298.59,4171.41,4169.103,4145.897,4138.462,4178.718,4178.974,4176.154,4171.026,0,0
70,122,0,3424,4170.385,4310.0,4171.41,4335.641,4209.231,4294.231,4165.385,4167.9490000000005,4143.59,4141.795,4159.872,4180.769,4169.487,4176.795,0,0
71,123,0,3280,4172.436,4304.615,4168.974,4364.872,4210.255999999999,4291.923,4167.9490000000005,4165.641,4132.0509999999995,4174.103,4160.641,4177.9490000000005,4172.821,4176.154,0,0
72,124,0,3100,4176.923,4301.41,4172.564,4345.128,4216.667,4300.128,4173.077,4173.462,4139.872,4161.795,4203.462,4185.769,4176.795,4185.255999999999,0,0
73,125,0,3250,4181.154,4298.974,4181.026,4368.974,4219.231,4304.872,4171.41,4180.385,4159.744000000001,4139.359,4201.538,4190.513,4177.436,4192.308,0,0
74,126,0,3424,4185.0,4291.923,4183.974,4376.026,4217.564,4302.821,4170.641,4171.41,4160.385,4183.718,4157.692,4183.077,4186.923,4183.077,0,0
75,127,0,54,4182.436,4276.667,4176.795,4352.564,4219.103,4304.231,4171.667,4165.513,4154.231,4220.255999999999,4161.026,4175.513,4192.179,4176.538,0,0
76,0,0,3148,4180.769,4259.744000000001,4179.231,4346.282,4202.0509999999995,4313.846,4177.179,4176.154,4160.385,4192.0509999999995,4193.462,4183.205,4177.821,4183.974,0,0
77,1,0,3351,4178.59,4244.872,4181.795,4339.103,4193.333,4320.385,4184.744000000001,4180.385,4165.769,4188.974,4188.205,4185.769,4170.0,4185.385,0,0
78,2,0,2865,4179.231,4235.769,4174.487,4324.615,4205.513,4326.282,4185.255999999999,4173.974,4163.718,4229.231,4171.923,4177.0509999999995,4179.872,4179.103,0,0
79,3,0,3534,4189.359,4230.641,4179.359,4330.255999999999,4203.462,4329.744000000001,4181.154,4177.179,4166.41,4244.872,4180.769,4182.9490000000005,4190.641,4183.846,0,0
80,4,0,3591,4198.077,4217.0509999999995,4192.179,4341.154,4187.9490000000005,4326.923,4181.282,4179.744000000001,4166.795,4245.641,4195.513,4197.821,4191.154,4198.077,0,0
81,5,0,2213,4199.487,4199.103,4195.641,4329.744000000001,4193.718,4321.923,4180.513,4177.564,4166.41,4253.846,4196.538,4200.255999999999,4187.179,4208.462,0,0
82,6,0,3285,4199.615,4191.667,4188.077,4330.897,4199.359,4318.077,4171.795,4168.205,4162.564,4250.255999999999,4186.154,4193.59,4180.769,4206.282,0,0
83,7,0,3406,4205.513,4189.744000000001,4188.077,4350.897,4188.718,4318.462,4171.667,4162.179,4157.308,4247.821,4188.718,4196.667,4172.436,4207.0509999999995,0,0
84,8,0,3186,4214.872,4179.231,4197.436,4339.744000000001,4183.846,4321.282,4184.359,4174.872,4166.667,4256.795,4201.41,4203.846,4177.0509999999995,4215.897,0,0
85,9,0,3550,4223.333,4179.359,4206.41,4326.282,4175.0,4319.487,4186.154,4181.538,4170.513,4257.308,4204.359,4209.359,4189.359,4223.846,0,0
86,10,0,3413,4232.179,4204.744000000001,4210.897,4345.769,4178.205,4316.923,4183.974,4178.59,4160.641,4254.744000000001,4206.154,4214.231,4192.436,4233.846,0,0
87,11,0,3268,4239.487,4219.231,4212.692,4345.897,4199.744000000001,4327.0509999999995,4193.846,4181.795,4152.9490000000005,4252.9490000000005,4205.641,4214.487,4184.744000000001,4240.128,0,0
88,12,0,3096,4238.333,4223.974,4208.077,4338.718,4222.179,4330.513,4194.359,4185.769,4159.103,4245.385,4200.255999999999,4210.641,4182.179,4235.769,0,0
89,13,0,3240,4243.974,4243.333,4213.077,4359.359,4236.667,4320.897,4188.974,4186.41,4168.333,4246.538,4208.077,4215.641,4187.179,4239.103,0,0
90,14,0,3413,4259.872,4257.821,4232.9490000000005,4375.128,4232.9490000000005,4335.513,4206.282,4197.0509999999995,4171.795,4253.462,4225.128,4230.0,4189.744000000001,4253.462,0,0
91,15,0,3268,4257.436,4251.41,4224.487,4361.795,4234.231,4360.897,4204.231,4192.179,4161.282,4234.872,4216.41,4224.359,4178.846,4248.974,0,0
92,16,0,0,4238.333,4254.872,4197.179,4345.641,4236.282,4351.667,4179.103,4173.077,4150.641,4214.615,4197.308,4205.255999999999,4168.718,4233.718,0,0
93,17,0,0,4246.667,4280.897,4215.385,4365.255999999999,4222.308,4340.128,4198.59,4192.179,4166.667,4231.923,4210.769,4218.333,4184.615,4242.308,0,0
94,18,0,0,4255.255999999999,4291.923,4234.359,4382.179,4225.0,4349.615,4223.462,4212.821,4179.231,4241.667,4227.564,4236.41,4199.744000000001,4249.359,0,0
95,19,0,0,4232.0509999999995,4276.026,4205.897,4365.255999999999,4264.615,4350.128,4195.513,4188.974,4165.385,4217.308,4211.282,4217.692,4191.41,4229.103,0,0
96,20,0,0,4211.41,4262.436,4188.333,4375.897,4245.255999999999,4339.487,4176.154,4171.795,4158.59,4211.026,4190.897,4196.41,4184.615,4212.179,0,0
97,21,0,0,4208.462,4255.641,4190.385,4425.897,4184.872,4330.128,4186.795,4179.744000000001,4165.897,4202.9490000000005,4199.615,4195.897,4180.897,4207.308,0,0
98,22,0,0,4203.846,4246.795,4185.641,4478.205,4196.282,4320.255999999999,4187.564,4177.179,4165.255999999999,4169.744000000001,4208.974,4197.9490000000005,4179.615,4200.255999999999,0,0
99,23,0,0,4191.795,4234.872,4181.795,4533.59,4218.077,4322.9490000000005,4183.205,4163.718,4154.615,4170.255999999999,4179.103,4188.333,4180.255999999999,4187.564,0,0
100,24,0,0,4182.564,4228.974,4178.974,4578.59,4201.282,4327.9490000000005,4179.103,4162.564,4149.231,4192.0509999999995,4164.744000000001,4182.179,4169.103,4180.513,0,0
101,25,0,0,4184.231,4242.179,4175.385,4598.846,4209.872,4325.897,4176.795,4178.718,4156.538,4196.154,4192.564,4188.974,4172.564,4185.255999999999,0,0
102,26,0,0,4200.641,4257.9490000000005,4188.59,4627.308,4222.179,4321.026,4194.487,4199.872,4170.385,4218.718,4193.846,4201.667,4201.795,4198.333,0,0
103,27,0,0,4197.179,4248.462,4190.385,4630.641,4198.59,4272.0509999999995,4200.0,4197.308,4169.359,4239.103,4161.795,4194.872,4203.205,4196.538,0,0
104,28,0,0,4190.0,4252.0509999999995,4185.897,4609.744000000001,4189.615,4213.333,4195.897,4189.615,4166.41,4230.255999999999,4172.9490000000005,4191.41,4191.154,4193.462,0,0
105,29,0,0,4197.436,4279.615,4187.179,4612.692,4215.897,4207.821,4201.41,4197.9490000000005,4175.255999999999,4239.359,4205.0,4202.436,4203.077,4201.667,0,0
106,30,0,0,4192.308,4272.308,4175.897,4608.974,4228.077,4217.179,4191.923,4190.128,4166.154,4240.897,4187.564,4194.744000000001,4195.769,4189.744000000001,0,0
107,31,0,0,4183.718,4258.718,4179.359,4597.564,4214.615,4208.974,4186.795,4177.0509999999995,4153.077,4225.0,4169.744000000001,4188.718,4182.179,4180.0,0,0
108,32,0,0,4197.821,4279.103,4201.154,4610.513,4195.513,4213.59,4204.744000000001,4188.974,4164.103,4236.41,4188.846,4204.744000000001,4195.897,4195.897,0,0
109,33,0,0,4195.0,4281.923,4186.923,4607.0509999999995,4205.769,4205.0,4199.231,4191.538,4163.846,4232.692,4188.205,4199.231,4193.59,4190.255999999999,0,0
110,34,0,0,4174.744000000001,4263.333,4166.026,4593.205,4214.359,4182.692,4185.255999999999,4179.744000000001,4143.077,4209.872,4159.615,4177.821,4178.205,4169.231,0,0
111,35,0,0,4177.692,4262.821,4179.872,4605.513,4193.59,4189.744000000001,4198.462,4186.923,4142.821,4214.359,4158.462,4182.436,4185.128,4174.231,0,0
112,36,0,0,4182.564,4268.462,4183.59,4601.795,4192.821,4198.974,4197.179,4195.128,4149.103,4213.974,4170.897,4186.41,4188.974,4178.333,0,0
113,37,0,0,4170.769,4253.333,4172.436,4580.513,4197.308,4191.026,4181.538,4188.333,4137.436,4198.462,4159.744000000001,4170.769,4180.0,4161.026,0,0
114,38,0,0,4170.128,4229.615,4176.282,4586.538,4180.128,4202.179,4187.308,4186.923,4134.231,4202.0509999999995,4152.692,4167.821,4175.769,4156.538,0,0
115,39,0,0,4167.564,4227.564,4164.103,4591.154,4191.795,4217.308,4184.103,4185.128,4137.821,4191.538,4154.359,4167.692,4165.897,4159.487,0,0
116,40,0,0,4158.462,4246.538,4147.692,4585.0,4219.872,4202.436,4174.744000000001,4176.923,4136.41,4181.667,4152.821,4164.744000000001,4166.538,4157.821,0,0
117,41,0,0,4168.205,4259.103,4170.641,4586.667,4207.179,4198.846,4187.821,4178.077,4139.103,4201.41,4159.103,4178.59,4184.103,4165.897,0,0
118,42,0,0,4175.513,4252.0509999999995,4184.231,4583.974,4195.0,4222.564,4190.255999999999,4176.154,4137.821,4195.897,4165.255999999999,4183.59,4178.333,4170.897,0,0
119,43,0,0,4179.872,4254.615,4176.154,4584.231,4219.359,4243.205,4187.9490000000005,4176.923,4141.154,4187.9490000000005,4170.897,4185.897,4175.897,4179.359,0,0
120,44,0,0,4193.59,4271.026,4185.255999999999,4593.718,4223.59,4249.103,4202.9490000000005,4196.923,4159.615,4217.564,4187.0509999999995,4204.615,4203.59,4196.026,0,0
121,45,0,0,4199.744000000001,4271.923,4198.974,4602.564,4220.641,4254.359,4201.795,4204.615,4164.103,4224.744000000001,4195.385,4211.795,4212.564,4198.205,0,0
122,46,0,0,4185.641,4258.974,4183.718,4601.154,4231.795,4252.821,4181.923,4185.0,4149.615,4198.333,4184.359,4192.692,4192.821,4182.564,0,0
123,47,0,0,4180.255999999999,4247.308,4175.128,4589.103,4188.077,4245.385,4184.487,4175.128,4148.974,4191.538,4176.795,4184.103,4185.897,4176.923,0,0
124,48,0,0,4182.821,4247.0509999999995,4185.385,4595.513,4147.0509999999995,4240.513,4193.462,4180.385,4154.487,4197.0509999999995,4177.436,4189.103,4191.026,4184.103,0,0
125,49,0,0,4175.513,4248.077,4176.026,4616.154,4206.026,4231.026,4169.359,4166.41,4140.641,4183.333,4167.9490000000005,4176.795,4181.41,4176.667,0,0
126,50,0,0,4163.718,4241.795,4152.692,4608.462,4257.0509999999995,4226.026,4147.308,4148.462,4129.103,4169.231,4152.9490000000005,4154.872,4168.333,4156.41,0,0
127,51,0,0,4161.795,4231.667,4153.462,4593.077,4217.0509999999995,4235.128,4159.615,4150.0,4130.385,4163.846,4149.231,4152.179,4166.538,4151.923,0,0
128,52,0,0,4166.923,4226.795,4170.897,4603.718,4180.513,4233.205,4169.231,4161.923,4128.077,4165.128,4152.564,4166.41,4168.205,4163.846,0,0
129,53,0,0,4167.0509999999995,4230.0,4172.0509999999995,4599.615,4188.718,4219.231,4159.103,4167.564,4122.436,4167.821,4152.179,4172.179,4164.872,4168.077,0,0
130,54,0,0,4172.436,4234.231,4173.333,4590.128,4199.744000000001,4223.333,4165.513,4167.436,4129.615,4165.128,4162.308,4177.308,4168.462,4173.718,0,0
131,55,0,0,4178.205,4232.564,4179.615,4601.538,4200.641,4239.615,4184.487,4172.179,4138.205,4166.795,4170.641,4182.308,4176.282,4178.205,0,0
132,56,0,0,4163.59,4218.718,4162.436,4588.077,4192.564,4234.615,4168.846,4168.077,4123.333,4158.462,4151.538,4163.846,4160.0,4157.564,0,0
133,57,0,0,4158.077,4216.538,4153.846,4569.359,4192.692,4222.179,4158.846,4165.255999999999,4120.513,4149.231,4151.282,4156.154,4157.436,4151.538,0,0
134,58,0,0,4175.897,4226.026,4171.923,4581.026,4199.103,4218.205,4176.282,4171.795,4137.308,4164.744000000001,4176.795,4173.462,4184.615,4172.692,0,0
135,59,0,0,4178.718,4218.974,4175.641,4585.128,4186.282,4216.795,4179.359,4171.282,4140.897,4183.974,4168.077,4172.308,4191.026,4173.333,0,0
136,60,0,0,4174.615,4212.564,4170.385,4572.0509999999995,4182.9490000000005,4225.128,4177.564,4176.282,4144.744000000001,4178.077,4158.846,4170.128,4183.718,4167.564,0,0
137,61,0,0,4178.974,4217.436,4174.231,4565.513,4199.487,4228.59,4184.487,4187.0509999999995,4157.179,4167.564,4187.692,4186.795,4190.641,4177.692,0,0
138,62,0,0,4178.59,4204.615,4176.026,4557.9490000000005,4200.128,4224.487,4181.795,4178.974,4154.487,4181.538,4183.077,4185.769,4194.103,4179.103,0,0
139,63,0,0,4170.897,4180.641,4172.9490000000005,4542.436,4187.0509999999995,4227.9490000000005,4177.436,4168.846,4145.513,4175.513,4162.692,4175.513,4184.487,4171.154,0,0
140,64,0,3136,4171.41,4180.513,4173.59,4529.744000000001,4180.641,4235.128,4182.436,4182.179,4146.923,4139.359,4190.513,4187.692,4174.744000000001,4176.538,0,0
141,65,0,3325,4170.897,4190.641,4169.103,4521.41,4183.718,4228.333,4180.385,4185.0,4147.9490000000005,4151.154,4194.103,4185.641,4173.718,4178.59,0,0
142,66,0,2865,4172.9490000000005,4171.282,4173.077,4506.41,4183.205,4222.564,4178.59,4175.0,4153.974,4192.564,4158.846,4171.41,4184.231,4173.59,0,0
143,67,0,3555,4177.821,4152.9490000000005,4180.0,4492.692,4179.487,4220.385,4181.026,4181.154,4159.487,4195.513,4162.9490000000005,4179.872,4195.128,4177.564,0,0
144,68,0,3589,4178.333,4165.0,4173.333,4487.9490000000005,4180.641,4214.872,4175.769,4187.0509999999995,4152.821,4189.231,4194.744000000001,4193.462,4192.821,4185.385,0,0
145,69,0,2198,4192.564,4156.667,4192.0509999999995,4491.667,4173.077,4229.615,4188.333,4193.462,4160.0,4216.154,4206.282,4204.744000000001,4196.923,4197.0509999999995,0,0
146,70,0,3271,4199.744000000001,4128.59,4207.308,4494.872,4170.255999999999,4246.41,4204.744000000001,4196.667,4172.564,4230.385,4196.154,4204.103,4203.718,4195.255999999999,0,0
147,71,0,3402,4179.103,4139.615,4180.0,4484.744000000001,4186.026,4236.282,4188.59,4182.821,4161.41,4215.128,4185.385,4183.59,4193.077,4173.333,0,0
148,72,0,3197,4161.667,4164.872,4156.282,4463.718,4190.128,4228.59,4165.128,4174.487,4146.154,4204.103,4180.128,4167.821,4179.359,4156.154,0,0
149,73,0,3543,4175.769,4146.282,4180.769,4455.128,4174.359,4242.821,4178.077,4185.385,4153.462,4207.308,4182.179,4183.974,4181.41,4167.564,0,0
150,74,0,3409,4185.385,4131.795,4197.564,4460.385,4166.026,4241.795,4197.692,4190.641,4165.513,4222.308,4187.308,4196.282,4191.667,4182.692,0,0
151,75,0,3268,4179.103,4162.179,4182.692,4450.897,4163.846,4233.205,4188.462,4183.718,4161.923,4226.41,4180.897,4183.846,4190.255999999999,4176.154,0,0
152,76,0,3103,4183.333,4188.59,4183.077,4447.179,4156.154,4242.564,4180.0,4184.487,4154.615,4219.359,4171.795,4177.0509999999995,4184.359,4171.795,0,0
153,77,0,3240,4194.231,4188.59,4194.615,4461.026,4165.897,4247.436,4189.231,4186.667,4158.59,4215.513,4182.692,4187.821,4185.0,4180.513,0,0
154,78,0,3409,4194.359,4191.538,4194.615,4451.667,4187.692,4245.255999999999,4193.718,4187.821,4171.923,4223.846,4196.923,4199.359,4194.744000000001,4189.231,0,0
155,79,0,3268,4192.308,4208.974,4191.41,4439.744000000001,4181.667,4256.538,4192.9490000000005,4187.564,4175.385,4238.205,4187.0509999999995,4197.436,4202.0509999999995,4193.462,0,0
156,80,0,3103,4195.385,4206.41,4192.179,4435.385,4162.436,4260.513,4194.231,4184.872,4162.179,4236.154,4181.282,4188.205,4194.231,4190.0,0,0
157,81,0,3240,4197.692,4194.872,4194.615,4411.538,4151.667,4252.821,4189.487,4184.359,4153.462,4224.103,4186.41,4184.615,4184.487,4181.282,0,0
158,82,0,3409,4191.282,4211.538,4189.872,4401.795,4158.462,4252.0509999999995,4188.205,4187.179,4163.974,4228.718,4181.923,4188.333,4186.667,4178.333,0,0
159,83,0,3268,4181.667,4224.231,4182.308,4422.692,4174.487,4248.846,4189.744000000001,4185.128,4166.667,4233.077,4175.769,4186.667,4188.59,4175.641,0,0
160,84,0,3103,4170.897,4218.462,4170.897,4413.077,4175.385,4241.026,4176.154,4175.128,4150.769,4208.974,4164.872,4173.846,4180.0,4165.513,0,0
161,85,0,3240,4175.0,4224.744000000001,4172.821,4393.846,4168.205,4248.846,4171.538,4172.9490000000005,4148.59,4198.462,4165.255999999999,4173.462,4181.538,4168.462,0,0
162,86,0,3409,4190.0,4237.0509999999995,4185.385,4407.0509999999995,4173.205,4255.897,4182.564,4180.0,4159.487,4217.308,4180.769,4185.0,4190.513,4179.744000000001,0,0
163,87,0,3268,4189.359,4229.103,4184.615,4400.769,4178.333,4251.538,4181.923,4181.41,4159.359,4216.923,4180.255999999999,4185.255999999999,4187.0509999999995,4177.179,0,0
164,88,0,3103,4189.615,4228.077,4189.231,4387.436,4170.641,4262.0509999999995,4186.538,4186.538,4160.513,4210.641,4188.846,4192.564,4188.462,4183.077,0,0
165,89,0,3240,4200.385,4238.077,4199.359,4400.385,4170.255999999999,4271.667,4202.308,4200.128,4173.846,4226.538,4212.436,4205.769,4196.538,4197.0509999999995,0,0
166,90,0,3409,4200.897,4223.333,4192.821,4396.154,4171.41,4258.462,4197.308,4197.692,4171.923,4221.795,4188.205,4193.333,4191.795,4187.308,0,0
167,91,0,3268,4186.154,4205.0,4176.41,4377.564,4163.462,4245.513,4178.462,4178.462,4156.154,4187.0509999999995,4157.692,4174.615,4178.077,4170.385,0,0
168,92,0,3103,4186.923,4200.641,4181.154,4381.026,4163.205,4249.359,4179.103,4174.487,4152.564,4186.538,4193.462,4185.641,4179.744000000001,4180.255999999999,0,0
169,93,0,3240,4195.255999999999,4191.41,4186.282,4381.026,4164.487,4249.487,4188.846,4182.179,4156.026,4228.077,4208.205,4190.0,4194.103,4188.846,0,0
170,94,0,3409,4197.692,4176.923,4182.436,4367.9490000000005,4161.41,4243.077,4187.9490000000005,4190.897,4159.359,4226.667,4172.9490000000005,4181.026,4195.769,4181.154,0,0
171,95,0,3268,4192.564,4169.487,4184.359,4366.282,4159.231,4236.538,4180.128,4199.872,4163.974,4198.974,4178.846,4187.0509999999995,4189.872,4177.564,0,0
172,96,0,3103,4190.769,4152.692,4192.821,4366.923,4162.564,4239.744000000001,4186.282,4201.795,4165.513,4234.487,4207.436,4195.255999999999,4200.897,4180.769,0,0
173,97,0,3240,4193.974,4127.0509999999995,4195.128,4357.179,4171.026,4249.872,4197.308,4196.795,4164.231,4274.359,4197.9490000000005,4187.436,4215.0,4180.0,0,0
174,98,0,3409,4193.718,4115.255999999999,4185.385,4344.872,4164.487,4252.821,4191.923,4191.923,4161.667,4241.667,4186.795,4181.667,4204.103,4179.231,0,0
175,99,0,3268,4190.897,4100.255999999999,4180.128,4331.41,4142.564,4244.103,4183.205,4188.205,4160.641,4225.0,4185.513,4186.282,4192.692,4179.744000000001,0,0
176,100,0,3103,4187.179,4067.692,4182.436,4308.974,4144.615,4230.769,4177.179,4181.795,4160.128,4249.487,4172.9490000000005,4179.872,4194.615,4170.385,0,0
177,101,0,3240,4181.795,4047.308,4176.667,4277.179,4163.59,4229.103,4171.41,4177.564,4158.333,4232.179,4173.205,4168.077,4186.923,4161.41,0,0
178,102,0,3409,4187.436,4052.179,4177.0509999999995,4261.923,4157.436,4231.41,4181.41,4180.513,4156.795,4226.026,4183.59,4174.744000000001,4184.231,4169.744000000001,0,0
179,103,0,3268,4211.282,4062.949,4202.436,4264.487,4154.359,4230.128,4206.154,4198.333,4163.718,4271.282,4198.205,4201.667,4202.9490000000005,4196.41,0,0
180,104,0,3103,4211.282,4055.7690000000002,4202.308,4230.0,4173.205,4264.487,4206.923,4206.282,4161.026,4279.615,4207.692,4205.769,4208.974,4201.154,0,0
181,105,0,3240,4179.231,4020.513,4167.9490000000005,4162.692,4164.615,4319.615,4173.718,4173.846,4125.769,4235.128,4181.923,4172.436,4176.795,4166.282,0,0
182,106,0,3409,4175.513,4006.667,4171.154,4137.692,4144.103,4333.974,4170.769,4165.0,4122.9490000000005,4229.103,4162.0509999999995,4165.641,4169.615,4159.359,0,0
183,107,0,3268,4205.255999999999,4035.256,4203.59,4134.615,4168.974,4329.359,4209.872,4207.9490000000005,4168.974,4273.718,4191.282,4198.846,4210.513,4194.359,0,0
184,108,0,3103,4206.538,4050.513,4199.872,4113.59,4193.718,4339.359,4222.821,4227.0509999999995,4178.077,4293.077,4214.872,4209.872,4226.538,4203.59,0,0
185,109,0,3240,4191.538,4038.974,4188.59,4107.564,4173.974,4332.0509999999995,4188.077,4201.41,4148.205,4265.128,4191.923,4197.179,4201.282,4182.692,0,0
186,110,0,3409,4192.308,4036.282,4196.667,4099.615,4157.692,4309.872,4167.821,4187.179,4142.0509999999995,4242.9490000000005,4177.9490000000005,4191.667,4192.179,4178.718,0,0
187,111,0,3268,4200.897,4044.744,4198.205,4061.026,4159.872,4312.436,4191.154,4195.513,4151.026,4252.436,4196.282,4193.846,4205.897,4192.564,0,0
188,112,0,3103,4192.821,4040.6409999999996,4178.846,4038.974,4170.513,4306.282,4197.821,4189.872,4142.436,4250.641,4199.872,4188.59,4203.333,4189.231,0,0
189,113,0,3240,4178.077,4027.051,4167.436,4048.333,4152.179,4303.333,4178.974,4175.641,4132.0509999999995,4235.0,4182.0509999999995,4179.872,4194.359,4172.692,0,0
190,114,0,3409,4169.872,4025.7690000000002,4169.487,4040.7690000000002,4122.179,4318.846,4167.9490000000005,4173.205,4130.513,4225.769,4170.769,4172.308,4192.9490000000005,4158.333,0,0
191,115,0,3268,4171.795,4042.4359999999997,4169.487,4035.6409999999996,4156.026,4314.103,4170.897,4177.564,4139.103,4219.615,4176.795,4171.154,4191.154,4160.255999999999,0,0
192,116,0,3103,4196.41,4059.2309999999998,4189.744000000001,4058.077,4173.718,4317.821,4190.769,4191.282,4162.308,4233.718,4196.923,4192.436,4203.974,4189.231,0,0
193,117,0,3240,4213.333,4065.7690000000002,4203.718,4064.3590000000004,4138.846,4340.128,4206.026,4199.359,4172.0509999999995,4245.897,4206.538,4205.128,4213.718,4207.179,0,0
194,118,0,3409,4191.026,4071.667,4172.9490000000005,4055.6409999999996,4170.641,4328.333,4187.0509999999995,4183.59,4157.0509999999995,4217.564,4189.744000000001,4185.255999999999,4194.615,4185.385,0,0
195,119,0,3268,4170.0,4083.205,4155.897,4072.949,4216.026,4297.821,4169.872,4171.795,4150.769,4193.974,4177.179,4172.308,4182.0509999999995,4163.846,0,0
196,120,0,3103,4188.59,4093.59,4191.538,4101.154,4151.026,4309.872,4191.667,4186.538,4167.9490000000005,4210.897,4188.974,4189.231,4201.282,4178.974,0,0
197,121,0,3240,4190.255999999999,4092.051,4191.41,4103.462,4118.974,4328.462,4192.564,4185.255999999999,4179.487,4207.0509999999995,4188.333,4185.0,4206.282,4180.641,0,0
198,122,0,3409,4159.872,4086.795,4146.667,4108.333,4184.744000000001,4317.9490000000005,4162.179,4156.923,4166.795,4168.59,4164.359,4154.487,4180.513,4152.692,0,0
199,123,0,3268,4158.59,4109.872,4151.538,4140.0,4192.308,4304.487,4173.205,4159.872,4169.615,4160.385,4163.462,4158.718,4181.026,4152.436,0,0
200,124,0,3103,4176.538,4142.9490000000005,4178.462,4161.154,4162.9490000000005,4296.282,4195.128,4183.333,4185.769,4174.231,4181.282,4179.103,4202.436,4171.41,0,0
201,125,0,3240,4167.179,4162.179,4160.128,4168.59,4171.282,4290.897,4178.333,4182.308,4185.255999999999,4168.462,4176.923,4168.846,4202.308,4164.103,0,0
202,126,0,3409,4163.718,4186.923,4154.744000000001,4193.077,4176.667,4295.641,4172.436,4180.255999999999,4189.231,4160.128,4170.255999999999,4164.103,4196.667,4157.0509999999995,0,0
203,127,0,54,4181.282,4208.718,4190.0,4214.872,4171.282,4302.564,4193.333,4194.872,4202.9490000000005,4164.487,4183.59,4183.077,4209.231,4174.487,0,0
204,0,0,3143,4184.744000000001,4225.641,4195.0,4226.667,4180.513,4304.615,4192.436,4196.026,4197.179,4159.872,4192.692,4188.59,4218.077,4179.872,0,0
205,1,0,3303,4167.179,4249.872,4162.0509999999995,4246.923,4201.41,4300.385,4174.744000000001,4183.846,4182.179,4147.0509999999995,4183.333,4173.205,4206.795,4164.231,0,0
206,2,0,2867,4161.154,4260.385,4156.923,4256.026,4202.692,4299.231,4173.077,4181.41,4184.231,4144.231,4172.692,4167.179,4200.769,4157.692,0,0
207,3,0,3547,4169.872,4259.359,4175.769,4262.436,4186.154,4297.308,4174.359,4181.538,4188.846,4141.667,4173.205,4173.718,4202.9490000000005,4163.718,0,0
208,4,0,3552,4174.103,4261.41,4176.026,4292.436,4181.667,4294.744000000001,4177.692,4190.769,4190.513,4140.255999999999,4186.667,4180.385,4199.359,4172.0509999999995,0,0
209,5,0,2189,4172.821,4249.615,4172.436,4306.154,4192.308,4298.205,4190.513,4205.641,4200.385,4140.513,4190.641,4185.385,4198.59,4175.255999999999,0,0
210,6,0,3292,4168.718,4230.0,4170.128,4299.615,4173.846,4301.667,4193.205,4192.821,4199.103,4128.462,4172.0509999999995,4175.0,4196.154,4165.769,0,0
211,7,0,3389,4167.179,4230.513,4164.103,4308.205,4146.026,4296.154,4188.846,4174.872,4186.282,4124.615,4162.821,4159.872,4190.0,4158.59,0,0
212,8,0,3186,4162.821,4224.615,4156.667,4295.385,4167.9490000000005,4281.026,4184.872,4179.487,4182.0509999999995,4134.359,4164.744000000001,4154.872,4188.333,4159.231,0,0
213,9,0,3571,4162.0509999999995,4211.026,4156.282,4280.769,4195.513,4278.205,4182.821,4187.0509999999995,4185.128,4129.487,4167.821,4164.103,4190.255999999999,4166.282,0,0
214,10,0,3416,4172.179,4228.59,4165.513,4313.59,4195.385,4289.487,4185.769,4190.513,4189.487,4133.462,4178.846,4178.077,4195.897,4180.513,0,0
215,11,0,3271,4189.231,4237.179,4186.41,4338.077,4195.385,4291.538,4189.103,4195.128,4201.154,4155.513,4185.0,4187.9490000000005,4202.564,4192.692,0,0
216,12,0,3117,4191.667,4219.872,4195.128,4325.0,4195.769,4282.436,4189.103,4191.923,4210.255999999999,4155.255999999999,4192.179,4190.769,4203.718,4194.487,0,0
217,13,0,3231,4187.821,4223.718,4185.255999999999,4325.255999999999,4189.231,4285.897,4188.846,4186.026,4207.436,4148.59,4202.692,4196.538,4202.0509999999995,4198.205,0,0
218,14,0,3416,4190.385,4236.154,4184.103,4333.974,4186.538,4292.179,4183.333,4186.795,4210.641,4163.718,4193.846,4201.795,4202.308,4203.718,0,0
219,15,0,3271,4193.077,4220.385,4195.128,4320.513,4183.205,4288.846,4175.897,4186.538,4213.846,4165.255999999999,4189.615,4198.077,4198.462,4200.769,0,0
220,16,0,0,4187.179,4206.026,4192.821,4309.231,4184.615,4280.897,4175.897,4180.0,4205.128,4154.359,4201.923,4194.487,4190.0,4195.128,0,0
221,17,0,0,4186.923,4211.154,4183.333,4311.923,4196.154,4283.077,4176.026,4175.513,4202.692,4168.205,4195.0,4194.872,4190.513,4195.128,0,0
222,18,0,0,4190.255999999999,4199.231,4183.462,4312.308,4187.9490000000005,4285.128,4166.795,4170.641,4198.077,4190.0,4184.744000000001,4191.667,4188.974,4193.462,0,0
223,19,0,0,4174.615,4168.846,4174.872,4294.872,4165.255999999999,4274.487,4152.692,4148.59,4169.744000000001,4175.255999999999,4180.513,4174.487,4171.026,4176.538,0,0
224,20,0,0,4169.872,4160.128,4171.538,4281.795,4161.923,4271.795,4152.179,4143.462,4167.692,4164.744000000001,4170.0,4169.487,4173.59,4172.0509999999995,0,0
225,21,0,0,4189.231,4172.692,4187.308,4287.9490000000005,4169.872,4282.308,4169.744000000001,4182.308,4204.359,4190.897,4181.667,4191.154,4200.897,4191.667,0,0
226,22,0,0,4191.41,4168.077,4190.897,4285.0,4163.974,4282.308,4181.667,4196.667,4206.795,4200.769,4195.128,4198.077,4201.026,4194.231,0,0
227,23,0,0,4175.769,4144.487,4175.128,4262.179,4150.513,4265.769,4174.744000000001,4161.795,4178.718,4188.718,4175.897,4177.436,4182.179,4176.667,0,0
228,24,0,0,4180.0,4133.462,4172.564,4246.923,4150.0,4254.359,4165.385,4150.128,4171.795,4196.923,4169.615,4173.077,4182.692,4174.231,0,0
229,25,0,0,4189.359,4127.179,4180.385,4248.333,4157.308,4260.128,4166.282,4165.385,4173.974,4212.692,4187.564,4188.077,4183.846,4187.436,0,0
230,26,0,0,4190.128,4108.205,4183.718,4255.0,4156.154,4274.231,4177.9490000000005,4168.462,4171.41,4211.795,4190.128,4190.255999999999,4180.897,4197.0509999999995,0,0
231,27,0,0,4184.487,4085.0,4176.923,4239.744000000001,4151.538,4267.564,4181.154,4164.615,4176.538,4210.128,4182.564,4180.0,4187.179,4191.41,0,0
232,28,0,0,4174.615,4061.795,4166.282,4168.974,4149.359,4242.436,4172.0509999999995,4161.41,4175.641,4208.205,4172.9490000000005,4172.564,4179.615,4173.077,0,0
233,29,0,0,4169.872,4044.615,4165.255999999999,4128.59,4147.436,4230.513,4176.026,4165.128,4168.333,4201.538,4166.538,4169.872,4174.744000000001,4163.846,0,0
234,30,0,0,4172.692,4034.2309999999998,4171.667,4100.385,4146.026,4234.103,4183.205,4170.641,4167.0509999999995,4195.255999999999,4168.974,4170.641,4177.821,4165.385,0,0
235,31,0,0,4172.308,4027.051,4172.308,3866.795,4143.462,4240.513,4183.333,4169.231,4171.923,4193.205,4168.974,4171.923,4171.282,4165.385,0,0
236,32,0,0,4181.41,4022.051,4184.487,3541.026,4134.231,4251.282,4188.333,4174.359,4179.487,4206.923,4172.308,4180.897,4173.59,4177.0509999999995,0,0
237,33,0,0,4189.744000000001,4014.8720000000003,4194.615,3422.949,4135.513,4243.974,4179.487,4182.9490000000005,4180.513,4219.872,4179.872,4188.462,4182.179,4188.974,0,0
238,34,0,0,4190.897,4019.487,4188.59,3440.6409999999996,4157.436,4227.9490000000005,4167.436,4183.846,4184.231,4224.103,4186.538,4190.255999999999,4187.9490000000005,4192.179,0,0
239,35,0,0,4204.487,4039.487,4197.436,3418.59,4166.41,4244.231,4191.026,4196.41,4205.128,4233.718,4202.308,4204.615,4204.103,4206.667,0,0
240,36,0,0,4205.641,4037.179,4202.0509999999995,3404.615,4151.026,4270.128,4205.641,4203.718,4217.179,4235.897,4204.872,4206.923,4207.436,4211.795,0,0
241,37,0,0,4192.0509999999995,4016.41,4190.255999999999,3426.538,4130.513,4265.513,4190.641,4189.103,4213.205,4228.462,4190.513,4194.103,4192.308,4202.564,0,0
242,38,0,0,4192.692,4016.923,4190.513,3441.1540000000005,4137.0509999999995,4250.513,4191.923,4185.385,4214.359,4222.9490000000005,4192.308,4193.59,4197.564,4201.795,0,0
243,39,0,0,4190.513,4017.5640000000003,4192.179,3462.692,4150.0,4250.385,4196.795,4190.128,4209.744000000001,4216.795,4194.615,4196.154,4202.436,4196.026,0,0
244,40,0,0,4174.615,4011.282,4176.667,3472.4359999999997,4138.205,4245.641,4184.359,4180.897,4201.667,4212.436,4180.128,4186.41,4183.333,4180.641,0,0
245,41,0,0,4187.0509999999995,4028.8459999999995,4185.255999999999,3472.4359999999997,4139.744000000001,4241.026,4189.231,4184.487,4213.846,4219.615,4188.974,4193.333,4186.538,4190.513,0,0
246,42,0,0,4199.487,4047.5640000000003,4197.308,3485.6409999999996,4176.41,4245.255999999999,4198.205,4197.436,4225.385,4226.923,4203.718,4203.718,4203.974,4204.487,0,0
247,43,0,0,4189.615,4030.6409999999996,4188.846,3494.3590000000004,4176.538,4248.974,4193.205,4194.487,4221.923,4223.718,4191.667,4196.41,4200.128,4195.769,0,0
248,44,0,0,4184.103,4009.3590000000004,4188.974,3496.41,4142.0509999999995,4237.9490000000005,4190.641,4184.359,4214.359,4212.308,4182.436,4186.282,4188.846,4185.0,0,0
249,45,1,0,4181.923,4025.256,4185.641,3508.077,4151.026,4234.872,4189.615,4184.103,4214.872,4209.615,4182.564,4184.872,4191.667,4184.359,0,0
250,46,1,0,4179.744000000001,4041.1540000000005,4182.308,3519.744,4160.0,4231.795,4188.59,4183.846,4215.385,4206.923,4182.692,4183.462,4194.487,4183.718,0,0
251,47,1,0,4177.564,4057.051,4178.974,3531.41,4168.974,4228.718,4187.564,4183.59,4215.897,4204.231,4182.821,4182.0509999999995,4197.308,4183.077,0,0
252,48,1,0,4175.385,4072.949,4175.641,3543.077,4177.9490000000005,4225.641,4186.538,4183.333,4216.41,4201.538,4182.9490000000005,4180.641,4200.128,4182.436,0,0
253,49,1,0,4173.205,4088.8459999999995,4172.308,3554.744,4186.923,4222.564,4185.513,4183.077,4216.923,4198.846,4183.077,4179.231,4202.9490000000005,4181.795,0,0
254,50,1,0,4171.026,4104.744000000001,4168.974,3566.41,4195.897,4219.487,4184.487,4182.821,4217.436,4196.154,4183.205,4177.821,4205.769,4181.154,0,0
255,51,1,0,4168.846,4120.641,4165.641,3578.077,4204.872,4216.41,4183.462,4182.564,4217.9490000000005,4193.462,4183.333,4176.41,4208.59,4180.513,0,0
256,52,0,0,4166.282,4137.179,4161.795,3589.8720000000003,4214.615,4212.436,4181.795,4181.795,4218.974,4190.128,4183.846,4174.872,4212.179,4179.359,0,0
257,53,0,0,4163.59,4148.205,4152.308,3589.615,4197.9490000000005,4204.615,4178.718,4180.641,4216.154,4180.128,4173.59,4172.564,4209.872,4173.205,0,0
258,54,0,0,4177.692,4158.205,4180.641,3617.308,4180.0,4213.462,4187.0509999999995,4190.255999999999,4218.077,4153.974,4190.385,4189.872,4204.359,4187.9490000000005,0,0
259,55,0,0,4178.59,4171.538,4179.103,3638.59,4196.538,4214.744000000001,4183.462,4184.359,4210.769,4164.872,4200.513,4191.154,4203.205,4192.821,0,0
260,56,0,0,4174.744000000001,4182.436,4168.333,3654.744,4200.255999999999,4221.41,4186.538,4182.9490000000005,4213.974,4191.41,4180.255999999999,4183.077,4207.436,4187.821,0,0
261,57,0,0,4172.821,4182.692,4172.564,3693.8459999999995,4185.0,4230.769,4199.744000000001,4193.462,4219.487,4155.0,4182.0509999999995,4184.615,4199.359,4188.205,0,0
262,58,0,0,4178.846,4180.128,4179.231,3718.333,4185.385,4227.564,4202.692,4192.179,4206.154,4132.308,4202.821,4190.641,4193.333,4192.0509999999995,0,0
263,59,0,0,4185.641,4183.846,4177.821,3717.5640000000003,4188.59,4228.718,4203.59,4185.641,4197.821,4184.231,4187.821,4186.026,4203.205,4191.795,0,0
264,60,0,0,4182.564,4185.769,4172.692,3732.179,4183.205,4239.359,4203.462,4187.692,4205.0,4203.59,4170.385,4179.744000000001,4203.077,4186.282,0,0
265,61,0,0,4171.795,4171.154,4166.538,3743.718,4182.436,4222.692,4185.255999999999,4187.564,4201.41,4172.436,4179.872,4181.026,4191.154,4179.487,0,0
266,62,0,0,4177.821,4159.103,4171.667,3745.0,4178.846,4211.538,4177.308,4183.846,4193.462,4183.462,4180.641,4186.795,4197.436,4186.026,0,0
267,63,0,0,4190.0,4165.769,4178.974,3760.897,4172.564,4239.744000000001,4197.9490000000005,4188.59,4203.333,4216.923,4180.255999999999,4189.487,4212.821,4200.641,0,0
268,64,0,3143,4183.077,4152.179,4176.026,3775.1279999999997,4164.615,4250.769,4206.667,4184.872,4205.128,4210.897,4188.846,4183.718,4205.769,4194.487,0,0
269,65,0,3398,4167.179,4119.231,4173.974,3768.718,4162.179,4228.462,4193.718,4170.513,4185.769,4202.179,4181.795,4179.359,4193.205,4179.103,0,0
270,66,0,2863,4169.487,4106.154,4175.128,3768.333,4165.0,4223.205,4190.513,4170.255999999999,4178.077,4209.615,4179.744000000001,4182.436,4192.9490000000005,4185.769,0,0
271,67,0,3553,4179.487,4113.077,4169.872,3788.974,4166.282,4238.205,4189.744000000001,4173.205,4187.0509999999995,4210.385,4186.795,4180.513,4191.538,4196.026,0,0
272,68,0,3581,4171.667,4105.0,4157.692,3798.718,4171.538,4232.179,4173.462,4159.359,4184.103,4202.436,4172.692,4166.667,4185.897,4180.897,0,0
273,69,0,2208,4162.821,4082.692,4159.359,3785.513,4179.487,4211.923,4162.692,4153.462,4172.692,4201.154,4165.385,4166.923,4186.282,4170.897,0,0
274,70,0,3280,4169.744000000001,4081.923,4173.846,3782.308,4169.359,4216.538,4174.615,4171.026,4180.641,4212.308,4181.41,4181.154,4191.282,4187.179,0,0
275,71,0,3391,4178.333,4093.462,4177.821,3805.897,4152.0509999999995,4228.974,4187.308,4177.9490000000005,4192.9490000000005,4211.667,4187.0509999999995,4182.436,4189.615,4194.615,0,0
276,72,0,3169,4166.795,4092.179,4161.026,3817.5640000000003,4174.231,4218.205,4181.795,4173.59,4185.0,4194.359,4170.513,4171.026,4187.692,4175.897,0,0
277,73,0,3587,4165.0,4094.2309999999998,4159.615,3813.974,4213.462,4217.436,4185.255999999999,4182.308,4180.897,4194.615,4170.0,4173.974,4196.154,4174.487,0,0
278,74,0,3421,4189.359,4112.692,4190.0,3838.462,4202.308,4233.846,4203.462,4194.359,4201.667,4217.564,4195.0,4197.821,4213.462,4204.615,0,0
279,75,0,3269,4206.026,4130.0,4210.769,3876.026,4166.282,4239.872,4209.487,4196.282,4224.487,4222.179,4210.513,4217.308,4225.385,4226.154,0,0
280,76,0,3123,4190.255999999999,4125.641,4195.0,3865.1279999999997,4175.513,4230.897,4197.821,4186.538,4220.255999999999,4201.026,4199.359,4206.795,4214.872,4212.179,0,0
281,77,0,3236,4170.513,4108.59,4171.154,3829.615,4216.538,4213.846,4179.231,4168.718,4199.359,4180.0,4178.718,4179.744000000001,4191.667,4186.282,0,0
282,78,0,3421,4172.9490000000005,4112.821,4172.692,3845.513,4214.744000000001,4202.179,4173.205,4167.0509999999995,4191.41,4176.154,4173.59,4176.282,4189.615,4183.59,0,0
283,79,0,3269,4192.564,4122.692,4197.821,3883.8459999999995,4175.513,4211.667,4189.231,4184.231,4201.795,4187.0509999999995,4191.282,4199.744000000001,4205.255999999999,4204.744000000001,0,0
284,80,0,3123,4193.462,4112.692,4196.154,3882.949,4176.026,4212.0509999999995,4190.641,4185.0,4207.564,4182.821,4206.154,4205.255999999999,4204.872,4211.538,0,0
285,81,0,3236,4170.897,4118.205,4162.0509999999995,3864.103,4206.154,4196.154,4171.154,4170.255999999999,4197.564,4166.795,4190.897,4185.128,4199.359,4190.0,0,0
286,82,0,3421,4160.255999999999,4130.128,4150.128,3859.744,4190.385,4190.897,4168.462,4164.103,4190.255999999999,4161.667,4166.026,4172.0509999999995,4200.255999999999,4171.667,0,0
287,83,0,3269,4176.026,4117.179,4173.846,3872.692,4168.846,4197.308,4186.026,4179.103,4204.872,4161.923,4186.026,4185.513,4194.487,4186.026,0,0
288,84,0,3123,4189.231,4135.385,4192.564,3900.385,4201.667,4210.128,4198.205,4205.897,4232.0509999999995,4165.769,4219.359,4205.641,4199.615,4209.359,0,0
289,85,0,3236,4173.846,4178.077,4171.154,3913.077,4223.59,4213.077,4190.385,4201.282,4229.487,4170.0,4195.641,4191.538,4209.487,4197.0509999999995,0,0
290,86,0,3421,4163.077,4188.077,4156.282,3903.974,4193.333,4204.231,4185.513,4176.795,4204.103,4164.872,4167.0509999999995,4173.59,4199.231,4179.872,0,0
291,87,0,3269,4174.103,4193.718,4177.692,3918.462,4168.974,4213.077,4198.974,4177.564,4202.9490000000005,4165.128,4183.077,4188.462,4192.564,4195.897,0,0
292,88,0,3123,4182.821,4203.333,4190.128,3932.179,4187.179,4228.59,4205.769,4192.179,4219.359,4178.333,4192.179,4200.385,4204.487,4206.538,0,0
293,89,0,3236,4179.359,4209.487,4175.0,3924.8720000000003,4207.308,4226.538,4200.385,4192.821,4225.385,4181.41,4183.846,4190.513,4211.538,4195.128,0,0
294,90,0,3421,4178.333,4231.923,4171.41,3933.718,4200.0,4223.846,4200.0,4178.205,4216.538,4172.0509999999995,4183.59,4187.0509999999995,4206.41,4190.513,0,0
295,91,0,3269,4173.333,4235.128,4172.308,3948.462,4188.205,4223.205,4201.795,4169.615,4206.282,4164.359,4185.128,4184.615,4199.231,4191.795,0,0
296,92,0,3123,4169.872,4226.795,4162.692,3948.974,4190.769,4221.154,4201.41,4181.667,4211.795,4162.0509999999995,4190.513,4178.846,4191.538,4189.231,0,0
297,93,0,3236,4174.231,4258.333,4166.282,3947.308,4194.615,4225.769,4202.0509999999995,4187.179,4222.179,4170.897,4192.436,4183.462,4187.692,4189.103,0,0
298,94,0,3421,4172.9490000000005,4287.0509999999995,4171.154,3954.744,4192.308,4231.667,4191.795,4167.0509999999995,4206.538,4168.846,4176.154,4183.846,4188.333,4185.385,0,0
299,95,0,3269,4168.59,4281.026,4158.846,3966.282,4185.128,4225.0,4176.282,4155.0,4185.255999999999,4154.487,4165.255999999999,4170.769,4185.255999999999,4177.692,0,0
300,96,0,3123,4177.179,4288.974,4161.923,3979.615,4181.795,4217.692,4177.564,4167.308,4198.462,4158.974,4174.103,4171.154,4186.538,4181.538,0,0
301,97,0,3236,4187.692,4302.821,4181.923,3987.949,4197.179,4222.9490000000005,4190.128,4178.59,4215.385,4172.692,4194.231,4190.897,4197.436,4193.462,0,0
302,98,0,3421,4190.513,4291.667,4185.513,3991.795,4200.255999999999,4231.923,4193.846,4170.513,4202.564,4166.538,4206.923,4200.0,4200.513,4198.974,0,0
303,99,0,3269,4186.026,4270.0,4173.846,3992.5640000000003,4176.538,4232.436,4184.231,4159.487,4190.641,4152.179,4191.026,4184.744000000001,4188.077,4191.282,0,0
304,100,0,3123,4180.385,4257.308,4171.667,3986.923,4171.538,4229.231,4180.641,4173.462,4201.282,4164.231,4167.179,4173.59,4183.077,4184.615,0,0
305,101,0,3236,4187.179,4264.615,4182.692,3997.5640000000003,4182.179,4232.692,4193.59,4192.308,4213.718,4189.487,4174.231,4183.333,4196.41,4190.641,0,0
306,102,0,3421,4194.103,4257.821,4184.615,4011.795,4184.359,4232.692,4204.359,4183.846,4210.513,4202.821,4193.077,4187.821,4207.564,4196.41,0,0
307,103,0,3269,4197.9490000000005,4224.103,4188.974,4012.821,4185.513,4233.846,4205.385,4183.846,4208.077,4201.154,4199.872,4196.538,4204.231,4205.0,0,0
308,104,0,3123,4188.59,4203.077,4185.641,4005.0,4177.308,4231.282,4195.128,4190.128,4207.9490000000005,4175.897,4192.821,4202.179,4188.462,4202.308,0,0
309,105,0,3236,4169.487,4188.59,4165.385,3993.462,4153.846,4221.923,4180.641,4163.846,4192.308,4153.462,4169.103,4178.077,4173.718,4178.205,0,0
310,106,0,3421,4158.846,4161.923,4155.385,3992.179,4153.59,4216.795,4178.59,4150.385,4177.692,4167.564,4154.487,4155.255999999999,4170.897,4159.872,0,0
311,107,0,3269,4169.103,4144.615,4167.0509999999995,3999.8720000000003,4168.462,4222.308,4185.385,4170.128,4179.615,4185.0,4162.179,4165.641,4169.487,4168.59,0,0
312,108,0,3123,4181.667,4137.436,4179.744000000001,4007.692,4163.974,4222.564,4193.718,4176.923,4193.462,4184.231,4171.923,4182.9490000000005,4174.103,4184.359,0,0
313,109,0,3236,4181.154,4124.359,4181.282,4006.1540000000005,4154.103,4218.205,4199.615,4164.487,4194.615,4187.692,4170.897,4179.744000000001,4188.205,4185.255999999999,0,0
314,110,0,3421,4176.538,4122.0509999999995,4177.9490000000005,3995.6409999999996,4163.846,4219.615,4198.59,4166.282,4186.923,4196.795,4169.359,4173.462,4189.615,4179.615,0,0
315,111,0,3269,4178.205,4119.744000000001,4175.128,3987.692,4171.282,4221.154,4187.0509999999995,4174.872,4185.128,4194.231,4164.615,4172.692,4175.641,4175.513,0,0
316,112,0,3123,4182.692,4109.487,4175.0,3990.897,4167.564,4222.9490000000005,4179.487,4169.487,4184.103,4191.282,4159.744000000001,4174.744000000001,4174.615,4181.923,0,0
317,113,0,3236,4184.231,4112.564,4175.641,3996.1540000000005,4169.103,4231.923,4190.385,4166.923,4186.282,4193.077,4170.641,4178.333,4183.718,4191.026,0,0
318,114,0,3421,4183.59,4113.59,4178.974,3991.538,4174.615,4238.974,4201.154,4175.641,4188.59,4194.744000000001,4174.359,4179.103,4184.103,4186.282,0,0
319,115,0,3269,4182.179,4105.897,4177.692,3986.923,4179.487,4228.077,4196.538,4179.231,4186.41,4201.154,4166.538,4177.0509999999995,4178.462,4176.538,0,0
320,116,0,3123,4191.026,4102.9490000000005,4181.667,4000.1279999999997,4175.0,4220.255999999999,4197.0509999999995,4179.487,4184.872,4203.718,4177.564,4185.769,4179.872,4185.255999999999,0,0
321,117,0,3236,4197.308,4105.513,4190.385,4018.077,4166.538,4229.231,4205.255999999999,4179.615,4185.513,4200.897,4187.564,4193.59,4185.255999999999,4197.564,0,0
322,118,0,3421,4183.846,4106.282,4181.41,4007.4359999999997,4167.308,4229.359,4195.128,4175.128,4179.359,4190.641,4169.615,4180.128,4177.308,4185.513,0,0
323,119,0,3269,4170.385,4100.513,4163.59,3996.667,4171.538,4213.077,4182.0509999999995,4172.436,4173.59,4182.0509999999995,4161.282,4170.128,4171.41,4175.128,0,0
324,120,0,3123,4179.615,4097.692,4170.769,4013.077,4166.538,4212.9490000000005,4190.385,4175.128,4175.128,4187.9490000000005,4176.667,4183.718,4180.769,4186.667,0,0
325,121,0,3236,4176.41,4102.0509999999995,4171.282,4006.282,4169.231,4220.897,4189.231,4170.897,4173.462,4190.128,4173.333,4180.769,4180.0,4180.897,0,0
326,122,0,3421,4162.9490000000005,4103.077,4155.0,3990.897,4165.897,4219.615,4179.487,4164.872,4174.872,4175.769,4158.59,4162.308,4170.0,4158.333,0,0
327,123,0,3269,4170.385,4097.692,4162.692,3999.487,4136.154,4222.308,4191.923,4171.538,4177.9490000000005,4173.205,4165.385,4164.872,4176.667,4164.744000000001,0,0
328,124,0,3123,4182.564,4101.538,4181.795,4002.4359999999997,4139.872,4223.205,4198.718,4171.282,4170.0,4181.282,4171.667,4175.128,4177.692,4185.513,0,0
329,125,0,3236,4179.744000000001,4113.846,4176.538,4017.821,4182.564,4212.692,4185.128,4165.255999999999,4174.359,4177.0509999999995,4167.564,4175.255999999999,4168.718,4184.487,0,0
330,126,0,3421,4180.513,4107.564,4177.179,4051.667,4187.0509999999995,4211.923,4186.795,4173.974,4197.692,4172.692,4175.769,4185.513,4179.872,4179.359,0,0
331,127,0,54,4186.41,4113.205,4190.0,4052.4359999999997,4172.564,4214.744000000001,4203.59,4186.795,4207.308,4184.359,4189.744000000001,4195.897,4192.564,4184.615,0,0
332,0,0,3156,4182.821,4153.333,4178.077,4042.4359999999997,4188.59,4206.538,4199.615,4189.231,4196.923,4183.077,4186.667,4186.154,4186.154,4186.026,0,0
333,1,0,3387,4179.103,4182.179,4163.59,4042.308,4202.0509999999995,4201.026,4185.128,4185.769,4196.026,4166.923,4178.462,4178.077,4181.282,4181.282,0,0
334,2,0,2877,4184.872,4168.205,4179.231,4029.487,4200.769,4203.846,4186.026,4181.41,4197.308,4162.308,4179.487,4183.846,4186.282,4179.231,0,0
335,3,0,3537,4186.282,4165.385,4194.615,4047.949,4186.795,4202.308,4187.9490000000005,4168.718,4180.255999999999,4155.769,4175.385,4183.846,4186.795,4176.282,0,0
336,4,0,3591,4177.564,4194.231,4176.923,4087.5640000000003,4178.462,4195.128,4181.667,4162.564,4178.205,4140.513,4170.255999999999,4172.436,4180.769,4168.59,0,0
337,5,0,2225,4182.436,4195.385,4167.692,4073.333,4199.487,4194.615,4188.974,4182.179,4207.179,4144.744000000001,4178.974,4177.821,4183.846,4173.974,0,0
338,6,0,3286,4196.538,4186.282,4185.897,4052.179,4206.154,4201.923,4202.0509999999995,4201.026,4223.077,4161.41,4191.538,4197.308,4199.615,4193.333,0,0
339,7,0,3397,4187.564,4214.487,4180.128,4070.1279999999997,4191.41,4201.154,4183.974,4186.154,4201.667,4150.385,4183.974,4192.564,4196.795,4188.077,0,0
340,8,0,3184,4168.333,4236.538,4162.821,4074.103,4186.795,4190.385,4162.564,4159.872,4182.692,4125.0,4172.0509999999995,4172.821,4175.128,4165.255999999999,0,0
341,9,0,3589,4178.077,4215.385,4189.872,4064.103,4180.255999999999,4194.744000000001,4177.436,4167.436,4196.923,4132.308,4183.333,4182.0509999999995,4177.9490000000005,4179.103,0,0
342,10,0,3426,4188.846,4228.718,4203.974,4096.923,4189.744000000001,4198.462,4193.077,4186.923,4217.308,4162.436,4192.564,4195.513,4200.385,4201.154,0,0
343,11,0,3282,4177.179,4293.974,4166.795,4129.744000000001,4226.41,4185.769,4186.154,4180.128,4208.59,4164.103,4176.923,4179.615,4195.513,4182.436,0,0
344,12,0,3124,4170.255999999999,4310.897,4151.41,4111.282,4218.846,4177.179,4175.641,4166.026,4187.308,4137.308,4162.9490000000005,4162.9490000000005,4172.179,4160.897,0,0
345,13,0,3249,4182.179,4295.897,4179.872,4094.744,4183.077,4184.615,4183.462,4169.359,4190.769,4131.795,4174.359,4174.615,4173.718,4175.641,0,0
346,14,0,3426,4190.769,4321.154,4194.103,4136.282,4191.026,4192.308,4204.615,4183.205,4210.513,4161.026,4187.9490000000005,4191.923,4196.026,4194.744000000001,0,0
347,15,0,3282,4186.282,4338.846,4181.538,4170.513,4212.564,4195.0,4212.436,4189.487,4211.667,4172.821,4182.821,4189.487,4201.795,4187.308,0,0
348,16,0,0,4172.821,4316.154,4162.0509999999995,4149.487,4215.769,4198.077,4197.0509999999995,4183.077,4195.385,4150.385,4170.255999999999,4171.026,4189.615,4170.769,0,0
349,17,0,0,4166.538,4306.923,4153.974,4195.641,4203.974,4203.974,4186.795,4172.564,4185.0,4140.513,4164.872,4160.897,4178.59,4169.103,0,0
350,18,0,0,4176.538,4311.795,4167.564,4332.9490000000005,4180.0,4205.385,4190.641,4166.026,4184.359,4150.128,4168.718,4167.821,4171.795,4177.821,0,0
351,19,0,0,4179.872,4307.308,4170.385,4412.9490000000005,4179.615,4200.385,4192.308,4166.795,4186.923,4153.846,4171.026,4171.538,4173.718,4178.846,0,0
352,20,0,0,4173.846,4309.359,4162.179,4405.255999999999,4198.462,4204.103,4191.923,4173.974,4187.436,4154.103,4172.179,4170.897,4185.128,4177.436,0,0
353,21,0,0,4174.231,4308.59,4165.128,4406.282,4188.846,4211.154,4186.667,4171.795,4185.897,4155.385,4172.692,4170.385,4187.436,4178.205,0,0
354,22,0,0,4184.231,4294.615,4173.205,4419.615,4169.487,4205.385,4178.333,4154.103,4183.59,4146.154,4167.821,4171.026,4175.385,4178.333,0,0
355,23,0,0,4189.487,4292.179,4173.718,4409.231,4188.333,4197.9490000000005,4180.128,4151.923,4189.359,4138.974,4169.231,4174.615,4174.744000000001,4184.103,0,0
356,24,0,0,4194.103,4300.641,4184.359,4398.462,4204.872,4206.538,4188.462,4172.0509999999995,4198.718,4149.103,4177.821,4185.769,4189.231,4196.026,0,0
357,25,0,0,4193.462,4296.795,4194.103,4392.179,4193.205,4210.128,4184.103,4173.846,4196.026,4153.974,4183.205,4193.718,4194.744000000001,4200.128,0,0
358,26,0,0,4190.128,4283.333,4187.821,4402.9490000000005,4196.923,4203.333,4176.795,4162.308,4187.821,4143.974,4194.744000000001,4192.9490000000005,4187.436,4198.205,0,0
359,27,0,0,4189.231,4271.795,4180.128,4411.026,4206.795,4199.872,4180.255999999999,4162.308,4186.026,4151.538,4202.179,4188.333,4186.41,4192.692,0,0
360,28,0,0,4188.59,4265.385,4179.872,4384.615,4189.487,4200.0,4176.41,4155.128,4183.077,4166.282,4188.462,4184.744000000001,4193.462,4183.59,0,0
361,29,0,0,4179.615,4259.231,4170.513,4363.718,4182.564,4193.974,4166.154,4138.077,4177.179,4152.564,4172.9490000000005,4180.897,4192.179,4178.333,0,0
362,30,0,0,4181.41,4250.769,4169.615,4374.487,4180.641,4191.154,4168.333,4139.487,4175.769,4138.846,4182.0509999999995,4180.897,4182.0509999999995,4186.282,0,0
363,31,0,0,4190.513,4241.154,4180.897,4386.538,4167.821,4187.692,4172.692,4150.897,4175.0,4151.026,4185.0,4184.103,4176.282,4193.59,0,0
364,32,0,0,4187.9490000000005,4235.769,4178.077,4384.359,4181.795,4182.9490000000005,4170.513,4157.9490000000005,4175.255999999999,4163.077,4181.282,4186.026,4181.923,4192.9490000000005,0,0
365,33,0,0,4192.179,4236.667,4182.0509999999995,4385.385,4209.744000000001,4192.0509999999995,4177.564,4169.487,4187.179,4154.744000000001,4206.538,4197.821,4186.538,4205.0,0,0
366,34,0,0,4207.179,4236.667,4198.974,4386.795,4205.128,4194.872,4189.359,4178.462,4196.923,4150.641,4216.026,4208.59,4184.487,4219.487,0,0
367,35,0,0,4202.179,4219.487,4194.487,4378.718,4187.564,4181.282,4190.385,4173.205,4189.231,4162.564,4183.846,4197.564,4184.103,4206.154,0,0
368,36,0,0,4174.744000000001,4186.282,4169.615,4359.359,4182.564,4172.692,4180.513,4162.179,4174.231,4165.897,4162.179,4176.41,4176.282,4179.744000000001,0,0
369,37,0,0,4178.59,4182.436,4177.308,4357.436,4187.308,4182.9490000000005,4185.897,4172.821,4176.923,4162.564,4187.308,4186.795,4174.615,4190.897,0,0
370,38,0,0,4206.282,4201.282,4201.923,4372.179,4194.359,4190.769,4209.744000000001,4196.795,4195.897,4180.385,4214.103,4213.846,4192.179,4217.821,0,0
371,39,0,0,4212.179,4198.59,4203.59,4368.59,4189.615,4193.846,4212.436,4198.077,4205.128,4204.103,4206.923,4216.538,4202.179,4216.538,0,0
372,40,0,0,4197.436,4183.974,4192.9490000000005,4357.308,4185.513,4198.718,4191.282,4182.9490000000005,4201.154,4192.436,4195.641,4199.744000000001,4197.0509999999995,4203.462,0,0
373,41,0,0,4190.641,4177.9490000000005,4187.821,4356.923,4194.359,4193.846,4180.769,4170.769,4193.974,4170.255999999999,4199.103,4190.385,4190.128,4198.333,0,0
374,42,0,0,4187.821,4172.821,4185.255999999999,4330.513,4192.564,4184.359,4184.872,4165.128,4185.0,4167.692,4196.667,4190.255999999999,4183.077,4192.308,0,0
375,43,0,0,4188.077,4166.41,4189.103,4281.667,4173.59,4188.718,4188.462,4173.462,4179.872,4173.077,4180.641,4187.692,4180.641,4187.821,0,0
376,44,0,0,4196.667,4168.974,4197.564,4271.026,4173.59,4196.41,4188.59,4187.436,4188.077,4183.462,4189.103,4191.667,4186.667,4197.9490000000005,0,0
377,45,0,0,4200.128,4164.744000000001,4199.359,4240.897,4188.59,4193.59,4186.282,4176.667,4187.179,4187.179,4204.872,4196.667,4184.359,4205.255999999999,0,0
378,46,0,0,4192.436,4152.179,4196.282,4137.179,4182.564,4190.255999999999,4190.128,4164.359,4175.897,4188.333,4192.564,4193.462,4182.9490000000005,4198.974,0,0
379,47,0,0,4183.205,4145.255999999999,4184.615,4056.667,4183.205,4188.462,4184.487,4170.0,4174.103,4190.641,4178.718,4188.462,4187.821,4191.795,0,0
380,48,0,0,4177.9490000000005,4145.0,4171.41,4056.282,4193.205,4178.718,4165.897,4168.59,4173.462,4183.333,4180.513,4184.103,4175.641,4188.846,0,0
381,49,0,0,4185.0,4147.692,4185.897,4072.5640000000003,4169.231,4177.692,4174.487,4167.436,4172.308,4175.769,4187.821,4185.769,4167.308,4192.821,0,0
382,50,0,0,4189.615,4145.769,4197.564,4063.974,4158.462,4178.718,4188.333,4171.026,4175.897,4174.487,4188.462,4188.205,4175.769,4190.513,0,0
383,51,0,0,4178.333,4140.641,4178.077,4055.385,4193.974,4168.333,4175.0,4164.872,4182.0509999999995,4179.231,4183.462,4183.59,4182.692,4180.255999999999,0,0
384,52,0,0,4182.0509999999995,4144.872,4181.795,4062.179,4189.487,4172.564,4173.462,4168.974,4193.205,4188.846,4184.103,4186.282,4185.385,4184.487,0,0
385,53,0,0,4195.769,4154.359,4203.333,4081.923,4151.795,4187.692,4186.282,4183.462,4203.333,4188.974,4189.359,4193.974,4187.564,4194.103,0,0
386,54,0,0,4188.846,4144.231,4189.359,4077.051,4162.308,4180.128,4174.487,4174.487,4193.462,4168.974,4182.0509999999995,4184.487,4180.0,4183.974,0,0
387,55,0,0,4174.615,4127.179,4166.154,4057.949,4189.359,4163.974,4162.9490000000005,4161.282,4186.795,4162.179,4174.744000000001,4170.255999999999,4173.718,4172.564,0,0
388,56,0,0,4189.487,4133.59,4188.846,4067.821,4178.59,4177.9490000000005,4186.026,4181.154,4209.487,4184.359,4190.255999999999,4189.615,4190.128,4187.564,0,0
389,57,0,0,4206.154,4143.333,4217.821,4080.6409999999996,4163.205,4191.538,4204.487,4202.821,4225.641,4199.359,4200.0,4211.923,4207.436,4202.564,0,0
390,58,0,0,4195.641,4132.179,4204.359,4088.205,4170.255999999999,4178.333,4195.769,4197.9490000000005,4211.538,4186.026,4190.513,4198.077,4198.077,4192.0509999999995,0,0
391,59,0,0,4171.667,4126.538,4165.513,4086.026,4191.538,4159.872,4180.513,4180.769,4193.974,4163.718,4175.641,4170.0,4175.255999999999,4168.846,0,0
392,60,0,0,4168.333,4138.205,4154.359,4070.897,4199.872,4157.179,4177.0509999999995,4181.282,4199.231,4157.9490000000005,4168.205,4164.744000000001,4167.179,4162.821,0,0
393,61,0,0,4185.385,4145.897,4183.974,4069.487,4172.564,4169.103,4186.154,4200.0,4217.308,4167.308,4178.333,4180.385,4177.821,4179.744000000001,0,0
394,62,0,0,4186.538,4147.179,4190.513,4084.2309999999998,4156.923,4171.795,4188.846,4197.179,4215.641,4165.255999999999,4184.231,4178.59,4185.385,4179.103,0,0
395,63,0,0,4173.462,4156.538,4165.385,4085.256,4180.641,4158.846,4183.205,4175.769,4200.255999999999,4160.0,4171.795,4164.744000000001,4187.821,4162.436,0,0
396,64,0,3159,4178.205,4165.769,4171.795,4079.744,4197.308,4156.923,4182.9490000000005,4178.462,4206.026,4168.718,4173.718,4175.513,4193.846,4168.333,0,0
397,65,0,3374,4189.872,4169.231,4197.308,4096.538,4184.744000000001,4169.872,4191.282,4194.615,4224.872,4176.41,4197.436,4197.821,4198.077,4186.154,0,0
398,66,0,2882,4191.795,4184.744000000001,4199.744000000001,4114.231,4164.359,4174.615,4203.205,4205.513,4232.179,4182.0509999999995,4202.692,4202.692,4202.179,4196.026,0,0
399,67,0,3559,4193.846,4204.103,4190.897,4122.179,4184.744000000001,4166.026,4199.872,4209.103,4228.333,4183.846,4191.026,4195.385,4202.0509999999995,4198.205,0,0
400,68,0,3529,4184.359,4194.103,4178.59,4110.897,4219.744000000001,4154.744000000001,4176.923,4185.0,4212.436,4165.513,4179.872,4180.897,4183.718,4181.923,0,0
401,69,0,2225,4170.641,4185.897,4170.513,4094.2309999999998,4212.179,4157.9490000000005,4169.359,4162.0509999999995,4197.0509999999995,4147.0509999999995,4172.308,4171.538,4169.744000000001,4165.0,0,0
402,70,0,3299,4166.923,4213.077,4171.795,4103.59,4195.385,4165.769,4179.487,4167.0509999999995,4198.462,4149.103,4171.538,4173.59,4178.974,4165.0,0,0
403,71,0,3406,4159.231,4217.0509999999995,4163.846,4102.9490000000005,4198.077,4157.692,4169.359,4157.436,4194.103,4142.821,4162.436,4166.795,4177.821,4158.462,0,0
404,72,0,3183,4151.026,4190.897,4153.974,4094.103,4187.436,4154.103,4163.462,4148.846,4182.179,4127.564,4153.846,4156.923,4163.077,4148.718,0,0
405,73,0,3578,4169.359,4207.692,4171.538,4115.255999999999,4180.385,4164.359,4184.103,4172.308,4190.128,4131.795,4163.974,4170.897,4167.308,4160.385,0,0
406,74,0,3429,4178.462,4240.769,4179.744000000001,4132.436,4207.9490000000005,4158.59,4187.436,4177.179,4206.923,4142.564,4173.974,4181.154,4178.846,4169.103,0,0
407,75,0,3279,4173.462,4233.718,4179.359,4121.795,4204.744000000001,4157.821,4183.59,4170.0,4215.769,4149.872,4177.436,4182.564,4181.923,4171.667,0,0
408,76,0,3118,4182.0509999999995,4222.821,4191.026,4127.9490000000005,4178.205,4171.538,4196.282,4191.154,4221.282,4163.077,4186.282,4189.872,4192.821,4180.513,0,0
409,77,0,3243,4181.667,4228.846,4182.179,4145.385,4194.872,4170.897,4197.0509999999995,4199.744000000001,4215.769,4168.718,4184.103,4184.359,4200.641,4175.769,0,0
410,78,0,3429,4164.872,4224.103,4162.821,4135.769,4212.0509999999995,4166.154,4189.487,4182.436,4204.231,4160.641,4169.744000000001,4170.128,4190.897,4160.769,0,0
411,79,0,3279,4158.462,4209.231,4162.436,4120.128,4201.923,4165.128,4182.9490000000005,4165.385,4194.359,4147.0509999999995,4160.128,4162.9490000000005,4172.308,4154.615,0,0
412,80,0,3118,4169.359,4210.513,4177.436,4128.333,4202.308,4157.692,4181.538,4176.026,4200.513,4139.872,4170.513,4170.513,4173.462,4166.538,0,0
413,81,0,3243,4185.0,4228.462,4191.154,4153.846,4217.564,4160.385,4196.282,4209.103,4223.333,4159.231,4197.821,4191.923,4196.026,4189.103,0,0
414,82,0,3429,4190.0,4229.359,4190.128,4156.795,4211.538,4167.0509999999995,4202.9490000000005,4207.0509999999995,4223.462,4179.103,4197.179,4197.436,4200.255999999999,4193.077,0,0
415,83,0,3279,4172.821,4200.0,4170.128,4127.564,4183.974,4156.282,4185.897,4167.436,4201.282,4159.615,4164.615,4173.718,4185.128,4172.179,0,0
416,84,0,3118,4163.59,4185.641,4169.615,4120.0,4179.615,4150.897,4178.462,4162.179,4197.564,4133.077,4166.667,4172.436,4178.59,4171.795,0,0
417,85,0,3243,4179.359,4201.154,4189.872,4142.179,4197.0509999999995,4159.231,4191.282,4188.333,4208.974,4142.179,4195.641,4195.769,4186.923,4194.872,0,0
418,86,0,3429,4186.026,4192.308,4188.333,4145.385,4194.615,4158.59,4195.769,4186.667,4205.128,4170.897,4186.667,4192.0509999999995,4186.667,4192.821,0,0
419,87,0,3279,4172.308,4164.872,4171.282,4134.231,4177.692,4149.615,4191.538,4178.205,4197.821,4177.564,4159.615,4170.385,4172.692,4168.077,0,0
420,88,0,3118,4169.872,4164.103,4174.231,4136.795,4184.103,4148.846,4188.846,4183.974,4201.282,4163.846,4165.513,4171.667,4165.385,4162.179,0,0
421,89,0,3243,4174.487,4171.026,4182.179,4142.308,4197.179,4159.359,4191.41,4186.282,4203.077,4167.821,4180.897,4185.128,4176.026,4171.538,0,0
422,90,0,3429,4173.333,4154.359,4177.564,4142.692,4192.0509999999995,4172.436,4199.615,4185.641,4201.923,4191.41,4172.179,4182.564,4184.744000000001,4169.103,0,0
423,91,0,3279,4166.538,4133.974,4171.795,4138.462,4173.59,4162.9490000000005,4195.0,4184.359,4200.897,4198.846,4169.103,4172.0509999999995,4176.667,4162.436,0,0
424,92,0,3118,4169.231,4130.385,4175.897,4134.744000000001,4165.513,4152.9490000000005,4188.59,4183.59,4204.744000000001,4196.667,4191.41,4177.564,4182.0509999999995,4170.385,0,0
425,93,0,3243,4178.718,4132.821,4181.538,4140.769,4178.59,4164.744000000001,4198.974,4195.0,4213.333,4210.641,4203.333,4192.436,4197.821,4182.436,0,0
426,94,0,3429,4180.897,4122.436,4182.9490000000005,4146.154,4180.128,4170.641,4210.0,4209.744000000001,4216.538,4220.513,4191.026,4193.718,4194.231,4181.41,0,0
427,95,0,3279,4171.026,4104.744000000001,4176.538,4136.923,4172.436,4159.615,4198.974,4193.974,4206.667,4208.59,4178.077,4179.231,4181.923,4169.359,0,0
428,96,0,3118,4164.487,4098.846,4168.333,4126.538,4179.103,4153.59,4182.9490000000005,4168.077,4197.692,4200.0,4176.282,4168.462,4178.846,4160.385,0,0
429,97,0,3243,4171.026,4100.641,4171.538,4127.308,4182.308,4154.615,4183.462,4172.692,4201.667,4202.821,4181.667,4173.333,4176.795,4161.538,0,0
430,98,0,3429,4171.154,4093.205,4171.923,4123.974,4172.564,4150.513,4185.0,4182.436,4198.974,4194.231,4183.462,4175.513,4166.154,4165.128,0,0
431,99,0,3279,4173.59,4086.923,4177.692,4125.769,4176.538,4152.692,4193.974,4184.615,4196.026,4192.821,4182.692,4180.255999999999,4166.538,4173.077,0,0
432,100,0,3118,4180.0,4089.103,4189.103,4144.231,4181.795,4161.538,4208.333,4198.974,4211.795,4218.333,4196.795,4195.255999999999,4184.872,4183.718,0,0
433,101,0,3243,4177.692,4081.795,4187.179,4143.205,4172.436,4168.462,4205.513,4203.205,4209.615,4218.846,4203.205,4196.667,4188.462,4182.436,0,0
434,102,0,3429,4174.231,4084.615,4178.59,4132.308,4183.974,4172.692,4199.872,4198.077,4198.205,4200.513,4192.436,4188.974,4182.179,4177.436,0,0
435,103,0,3279,4179.231,4101.667,4179.231,4148.205,4201.282,4168.974,4203.333,4206.667,4213.718,4206.41,4186.923,4190.255999999999,4186.923,4179.359,0,0
436,104,0,3118,4176.026,4096.667,4175.128,4155.769,4182.0509999999995,4157.179,4200.513,4204.231,4222.308,4210.513,4187.308,4182.179,4187.0509999999995,4175.641,0,0
437,105,0,3243,4177.308,4086.41,4175.255999999999,4141.154,4160.128,4156.41,4202.308,4194.231,4204.872,4196.538,4190.385,4179.103,4180.769,4177.179,0,0
438,106,0,3429,4191.154,4099.103,4188.846,4150.385,4187.564,4163.333,4212.179,4201.41,4203.462,4200.769,4198.077,4195.385,4191.41,4190.255999999999,0,0
439,107,0,3279,4197.308,4110.769,4194.872,4171.795,4211.538,4173.846,4212.692,4206.41,4221.667,4220.385,4205.897,4203.077,4207.821,4196.667,0,0
440,108,0,3118,4199.231,4116.41,4198.846,4180.255999999999,4187.179,4181.538,4219.359,4206.41,4225.641,4233.974,4215.513,4205.897,4208.077,4201.026,0,0
441,109,0,3243,4193.077,4115.255999999999,4196.282,4172.436,4189.615,4171.026,4218.077,4200.513,4204.615,4218.59,4210.128,4201.282,4191.667,4193.462,0,0
442,110,0,3429,4170.255999999999,4105.513,4167.564,4140.385,4222.564,4161.923,4188.59,4173.59,4178.462,4179.615,4180.769,4174.872,4173.718,4167.436,0,0
443,111,0,3279,4173.718,4105.641,4168.59,4132.179,4188.077,4181.154,4188.718,4170.513,4189.103,4184.744000000001,4180.897,4174.615,4179.487,4168.974,0,0
444,112,0,3118,4193.077,4109.231,4200.0,4157.692,4139.872,4182.0509999999995,4210.385,4197.564,4204.872,4208.59,4198.462,4195.769,4192.436,4185.0,0,0
445,113,0,3243,4171.41,4116.026,4178.077,4156.41,4188.077,4150.385,4194.487,4192.0509999999995,4179.744000000001,4186.026,4180.0,4176.154,4178.846,4162.308,0,0
446,114,0,3429,4147.179,4142.692,4139.359,4141.795,4227.821,4152.436,4181.667,4179.615,4164.615,4170.513,4167.0509999999995,4156.795,4164.615,4145.641,0,0
447,115,0,3279,4163.718,4164.231,4160.385,4145.513,4178.205,4173.59,4204.615,4198.846,4184.872,4193.974,4189.359,4180.897,4176.41,4171.795,0,0
448,116,0,3118,4178.077,4168.718,4187.436,4149.487,4163.333,4167.692,4210.513,4204.744000000001,4190.513,4195.513,4194.359,4194.487,4187.692,4183.59,0,0
449,117,0,3243,4170.513,4184.615,4174.615,4157.436,4200.128,4158.718,4203.077,4195.0,4184.744000000001,4184.487,4180.513,4184.615,4187.821,4173.333,0,0
450,118,0,3429,4183.333,4205.255999999999,4180.0,4170.897,4204.872,4160.769,4217.821,4205.897,4201.282,4200.769,4192.179,4195.128,4199.231,4184.359,0,0
451,119,0,3279,4192.0509999999995,4215.0,4188.205,4162.179,4210.641,4151.154,4220.385,4207.9490000000005,4207.692,4195.513,4202.308,4198.205,4203.846,4188.59,0,0
452,120,0,3118,4169.872,4225.641,4166.795,4144.231,4220.641,4141.282,4195.513,4182.821,4182.564,4158.205,4181.282,4173.205,4178.462,4164.744000000001,0,0
453,121,0,3243,4160.128,4242.179,4162.436,4158.846,4203.205,4144.872,4189.231,4177.179,4172.9490000000005,4157.821,4170.897,4169.487,4166.795,4160.128,0,0
454,122,0,3429,4187.436,4272.436,4188.718,4204.615,4207.9490000000005,4158.205,4211.282,4203.205,4195.0,4187.821,4196.026,4199.359,4195.897,4193.205,0,0
455,123,0,3279,4194.744000000001,4294.615,4191.41,4210.0,4234.872,4162.9490000000005,4210.128,4211.667,4202.564,4186.538,4207.436,4205.128,4209.359,4202.308,0,0
456,124,0,3118,4173.205,4292.692,4173.846,4182.564,4203.205,4152.9490000000005,4187.564,4193.846,4182.564,4162.179,4185.255999999999,4181.795,4184.103,4177.308,0,0
457,125,0,3243,4166.154,4292.308,4171.41,4200.255999999999,4154.103,4142.179,4185.385,4182.0509999999995,4176.41,4151.282,4168.462,4170.513,4169.744000000001,4171.795,0,0
458,126,0,3429,4165.255999999999,4296.154,4162.9490000000005,4214.487,4177.564,4143.077,4190.255999999999,4184.744000000001,4181.282,4146.667,4166.795,4171.923,4178.846,4174.872,0,0
459,127,0,54,4167.821,4294.359,4161.282,4212.0509999999995,4208.462,4152.692,4195.897,4197.0509999999995,4186.282,4155.897,4182.692,4181.41,4193.974,4173.077,0,0
460,0,0,3154,4175.513,4298.077,4176.795,4271.923,4191.923,4154.231,4204.231,4197.436,4191.282,4172.692,4191.026,4187.692,4195.128,4176.538,0,0
461,1,0,3354,4169.615,4301.282,4172.179,4332.9490000000005,4180.128,4147.564,4197.436,4178.718,4180.385,4156.795,4167.436,4174.359,4182.436,4170.769,0,0
462,2,0,2880,4154.615,4292.436,4147.436,4332.0509999999995,4188.205,4143.462,4177.9490000000005,4168.59,4167.564,4129.487,4159.231,4155.385,4173.846,4150.897,0,0
463,3,0,3549,4160.0,4289.359,4151.667,4354.231,4184.103,4149.615,4181.282,4177.9490000000005,4179.103,4142.9490000000005,4177.692,4159.615,4175.897,4152.9490000000005,0,0
464,4,0,3574,4169.103,4294.103,4170.513,4393.59,4183.462,4153.718,4199.103,4187.564,4196.923,4153.59,4175.897,4175.255999999999,4181.154,4171.538,0,0
465,5,0,2223,4168.59,4291.282,4170.513,4394.103,4195.769,4151.923,4198.205,4201.795,4198.333,4140.513,4170.513,4183.333,4184.231,4174.615,0,0
466,6,0,3297,4168.59,4279.231,4162.308,4400.769,4189.231,4152.9490000000005,4187.0509999999995,4203.462,4188.846,4152.308,4187.9490000000005,4180.385,4186.41,4171.154,0,0
467,7,0,3408,4171.41,4263.077,4162.436,4414.744000000001,4188.462,4153.59,4187.308,4176.41,4182.0509999999995,4169.359,4187.821,4172.436,4181.154,4170.0,0,0
468,8,0,3174,4168.333,4245.513,4163.974,4407.0509999999995,4186.667,4145.128,4195.255999999999,4164.487,4189.487,4165.0,4168.974,4169.487,4180.513,4166.795,0,0
469,9,0,3577,4164.359,4231.923,4162.179,4394.359,4166.923,4138.462,4190.513,4173.462,4196.538,4151.667,4165.128,4171.026,4180.769,4164.872,0,0
470,10,0,3427,4161.154,4219.103,4159.744000000001,4388.974,4170.641,4143.59,4183.718,4169.872,4184.231,4147.564,4171.923,4168.077,4171.538,4166.795,0,0
471,11,0,3280,4160.128,4198.59,4159.103,4380.769,4181.282,4150.0,4192.0509999999995,4163.333,4176.026,4161.923,4172.179,4161.538,4166.026,4165.513,0,0
472,12,0,3109,4161.154,4183.59,4158.718,4359.231,4173.333,4149.872,4198.974,4176.154,4188.205,4185.769,4166.923,4162.308,4173.974,4162.308,0,0
473,13,0,3243,4165.128,4172.0509999999995,4165.513,4329.359,4171.667,4156.41,4201.026,4191.538,4201.795,4187.0509999999995,4177.821,4171.667,4182.9490000000005,4168.205,0,0
474,14,0,3427,4163.077,4146.795,4165.641,4307.9490000000005,4169.359,4153.462,4195.255999999999,4191.282,4195.641,4172.821,4185.641,4170.897,4173.59,4169.487,0,0
475,15,0,3280,4155.513,4125.0,4151.41,4292.179,4153.718,4138.59,4180.897,4179.872,4175.769,4174.487,4168.205,4157.692,4162.564,4158.077,0,0
476,16,0,0,4161.538,4127.0509999999995,4152.9490000000005,4231.538,4152.308,4140.769,4178.205,4174.359,4173.462,4181.41,4165.513,4162.9490000000005,4170.897,4158.462,0,0
477,17,0,0,4173.205,4131.026,4168.846,4147.9490000000005,4168.205,4151.154,4189.487,4180.641,4191.667,4188.846,4184.103,4177.9490000000005,4178.846,4173.205,0,0
478,18,0,0,4174.231,4114.487,4168.205,4117.179,4171.923,4145.641,4192.564,4178.59,4193.333,4193.59,4184.487,4175.641,4170.769,4174.872,0,0
479,19,0,0,4173.718,4106.538,4163.974,4134.359,4170.128,4138.462,4196.538,4179.487,4185.897,4193.59,4180.641,4172.821,4173.59,4173.333,0,0
480,20,0,0,4185.513,4119.103,4182.0509999999995,4144.103,4170.255999999999,4143.974,4209.487,4198.077,4196.538,4196.282,4192.0509999999995,4187.179,4189.103,4186.667,0,0
481,21,0,0,4187.308,4123.974,4184.615,4140.255999999999,4176.795,4143.846,4207.821,4203.462,4204.103,4200.641,4186.923,4188.462,4187.0509999999995,4188.974,0,0
482,22,0,0,4187.0509999999995,4123.846,4178.974,4147.436,4187.308,4153.077,4205.255999999999,4193.718,4201.282,4206.41,4180.0,4182.0509999999995,4183.974,4185.513,0,0
483,23,0,0,4194.872,4127.308,4191.282,4146.538,4186.026,4170.0,4212.9490000000005,4195.513,4201.41,4204.103,4188.205,4186.154,4192.0509999999995,4190.769,0,0
484,24,0,0,4194.744000000001,4118.462,4188.077,4137.308,4183.718,4167.308,4204.872,4190.0,4189.487,4187.436,4181.154,4181.795,4183.462,4189.103,0,0
485,25,0,0,4182.179,4110.128,4164.615,4133.846,4187.692,4153.205,4187.821,4168.077,4177.821,4175.128,4166.282,4168.846,4166.795,4178.462,0,0
486,26,0,0,4179.359,4118.333,4162.692,4138.974,4186.282,4147.179,4187.9490000000005,4161.538,4183.205,4179.487,4171.538,4166.667,4165.641,4176.538,0,0
487,27,0,0,4185.769,4117.692,4180.255999999999,4149.615,4163.333,4151.026,4199.231,4176.795,4190.255999999999,4193.462,4186.026,4175.769,4175.255999999999,4184.744000000001,0,0
488,28,0,0,4187.692,4103.846,4183.205,4139.359,4143.077,4161.41,4205.513,4190.513,4193.462,4198.077,4184.744000000001,4181.667,4180.0,4189.872,0,0
489,29,0,0,4179.359,4109.103,4168.59,4129.231,4167.692,4155.255999999999,4196.41,4184.615,4192.308,4185.0,4173.333,4173.974,4172.692,4182.692,0,0
490,30,0,0,4168.718,4119.231,4154.744000000001,4139.615,4196.282,4131.154,4179.359,4168.333,4182.564,4169.231,4163.974,4159.487,4161.41,4167.308,0,0
491,31,0,0,4176.795,4123.462,4166.026,4147.9490000000005,4182.179,4133.846,4189.615,4172.692,4180.897,4174.615,4167.9490000000005,4168.205,4168.077,4172.692,0,0
492,32,0,0,4190.255999999999,4133.59,4184.231,4151.41,4165.128,4150.769,4207.308,4187.436,4186.923,4186.667,4181.41,4186.41,4180.255999999999,4187.179,0,0
493,33,0,0,4186.538,4142.0509999999995,4178.205,4152.9490000000005,4190.513,4142.564,4197.179,4187.821,4182.0509999999995,4179.231,4184.359,4181.667,4173.077,4182.0509999999995,0,0
494,34,0,0,4174.872,4144.359,4164.231,4138.718,4219.231,4128.59,4184.872,4183.59,4179.487,4168.974,4177.692,4170.0,4167.564,4173.59,0,0
495,35,0,0,4177.821,4152.0509999999995,4168.333,4125.641,4195.255999999999,4134.872,4191.795,4183.077,4185.897,4174.359,4179.872,4176.538,4178.462,4180.769,0,0
496,36,0,0,4196.154,4167.179,4190.513,4151.667,4153.718,4149.487,4211.667,4193.462,4196.667,4191.667,4197.9490000000005,4195.385,4197.9490000000005,4199.872,0,0
497,37,0,0,4205.0,4167.308,4203.077,4175.513,4171.538,4154.487,4221.282,4208.846,4206.41,4188.59,4202.821,4201.41,4195.0,4206.282,0,0
498,38,0,0,4185.0,4163.205,4175.769,4157.9490000000005,4221.667,4145.769,4203.205,4201.154,4201.026,4163.974,4183.846,4180.897,4171.41,4185.128,0,0
499,39,0,0,4176.154,4175.641,4159.487,4144.103,4218.462,4144.487,4188.462,4189.231,4196.026,4158.718,4177.308,4174.231,4173.59,4176.538,0,0
500,40,0,0,4193.077,4189.359,4182.0509999999995,4152.0509999999995,4195.0,4153.718,4202.0509999999995,4205.385,4203.077,4170.897,4189.231,4191.154,4188.59,4194.872,0,0
501,41,0,0,4197.308,4188.077,4192.564,4160.385,4197.179,4154.615,4206.538,4207.0509999999995,4193.846,4158.333,4186.282,4190.0,4180.255999999999,4200.0,0,0
502,42,0,0,4182.0509999999995,4184.103,4176.923,4152.436,4193.974,4147.692,4183.077,4176.154,4174.744000000001,4140.0,4170.385,4174.231,4163.974,4185.641,0,0
503,43,0,0,4173.846,4183.718,4168.333,4134.103,4183.205,4143.974,4165.385,4159.487,4175.0,4142.436,4166.667,4172.308,4161.538,4178.205,0,0
504,44,0,0,4176.41,4183.077,4171.026,4139.615,4186.923,4138.333,4173.462,4179.615,4183.462,4140.513,4169.744000000001,4175.513,4166.026,4180.769,0,0
505,45,0,0,4192.9490000000005,4197.564,4184.615,4169.359,4192.0509999999995,4145.769,4195.255999999999,4213.077,4197.564,4148.846,4183.846,4186.282,4181.154,4196.282,0,0
506,46,0,0,4208.462,4208.974,4201.282,4181.923,4200.128,4166.795,4207.0509999999995,4218.59,4217.0509999999995,4176.282,4203.077,4204.103,4199.615,4215.385,0,0
507,47,0,0,4201.282,4202.179,4195.255999999999,4167.308,4213.974,4171.795,4200.513,4194.744000000001,4216.026,4183.718,4199.872,4202.564,4199.487,4210.513,0,0
508,48,0,0,4193.846,4206.923,4186.282,4165.128,4206.41,4158.333,4196.026,4189.872,4202.308,4170.897,4189.103,4195.255999999999,4189.615,4200.255999999999,0,0
509,49,0,0,4199.103,4219.487,4190.0,4173.846,4188.718,4154.231,4201.667,4203.846,4200.641,4166.923,4193.846,4199.359,4183.846,4207.179,0,0
510,50,0,0,4201.026,4212.821,4194.359,4171.667,4195.385,4163.59,4202.308,4203.205,4203.974,4161.667,4198.333,4201.154,4185.897,4213.59,0,0
511,51,0,0,4191.41,4201.026,4188.333,4169.103,4199.744000000001,4157.308,4190.255999999999,4191.41,4196.282,4149.487,4184.103,4189.359,4182.179,4200.769,0,0
512,52,0,0,4185.513,4199.359,4181.923,4171.538,4181.41,4149.487,4183.974,4184.872,4183.59,4148.846,4169.103,4182.308,4169.103,4189.615,0,0
513,53,0,0,4188.59,4198.974,4184.103,4169.744000000001,4188.974,4157.564,4199.359,4191.026,4187.9490000000005,4161.282,4178.718,4190.255999999999,4181.154,4197.564,0,0
514,54,0,0,4198.59,4201.282,4192.692,4170.385,4210.385,4164.231,4209.872,4208.846,4205.641,4173.077,4195.255999999999,4198.077,4201.026,4205.769,0,0
515,55,0,0,4200.385,4206.667,4193.846,4182.692,4189.103,4154.744000000001,4191.026,4210.513,4207.308,4172.564,4193.333,4192.821,4195.513,4200.897,0,0
516,56,0,0,4199.359,4206.026,4192.0509999999995,4193.974,4174.744000000001,4150.513,4179.872,4190.769,4198.59,4168.59,4189.231,4190.513,4192.564,4202.436,0,0
517,57,0,0,4198.846,4204.231,4190.897,4184.103,4199.231,4157.692,4199.359,4181.923,4208.205,4177.179,4200.255999999999,4198.205,4206.538,4212.179,0,0
518,58,0,0,4197.0509999999995,4204.744000000001,4187.436,4169.231,4201.667,4160.255999999999,4211.154,4198.333,4221.795,4182.0509999999995,4203.718,4200.897,4203.462,4209.872,0,0
519,59,0,0,4189.615,4193.59,4178.462,4168.846,4175.897,4153.718,4186.923,4202.179,4211.538,4166.026,4185.513,4189.487,4182.0509999999995,4194.872,0,0
520,60,0,0,4182.821,4182.564,4173.718,4175.769,4175.0,4149.487,4172.9490000000005,4175.513,4191.282,4154.231,4173.077,4180.255999999999,4178.205,4185.897,0,0
521,61,0,0,4191.41,4199.103,4185.385,4183.333,4194.487,4157.821,4196.41,4171.923,4195.641,4171.41,4189.359,4192.308,4194.359,4194.359,0,0
522,62,0,0,4199.487,4215.255999999999,4191.667,4185.255999999999,4196.282,4166.282,4204.231,4201.41,4211.923,4184.872,4203.846,4200.255999999999,4199.359,4199.744000000001,0,0
523,63,0,0,4195.128,4198.846,4181.026,4185.0,4191.923,4165.897,4190.769,4206.282,4210.128,4174.487,4192.692,4190.641,4190.513,4191.923,0,0
524,64,0,3152,4188.077,4180.385,4173.846,4192.564,4183.718,4162.821,4194.615,4194.615,4200.513,4168.974,4182.692,4185.769,4188.462,4187.308,0,0
525,65,0,3362,4186.795,4184.103,4179.744000000001,4189.872,4172.0509999999995,4156.154,4203.205,4208.718,4202.692,4173.462,4186.41,4191.282,4190.641,4188.974,0,0
526,66,0,2869,4184.359,4191.154,4177.692,4178.077,4178.205,4146.026,4190.385,4217.179,4208.462,4164.359,4187.821,4191.282,4184.872,4188.462,0,0
527,67,0,3535,4188.333,4182.821,4175.255999999999,4178.333,4177.0509999999995,4143.59,4182.821,4202.564,4203.333,4161.538,4186.923,4190.128,4177.9490000000005,4191.41,0,0
528,68,0,3562,4187.308,4167.436,4177.821,4178.846,4157.179,4144.231,4188.718,4195.255999999999,4193.333,4172.692,4183.718,4188.462,4175.128,4189.231,0,0
529,69,0,2234,4176.026,4166.026,4175.897,4176.41,4165.0,4144.487,4188.462,4191.538,4193.974,4168.846,4180.897,4187.308,4180.385,4180.641,0,0
530,70,0,3285,4169.231,4171.923,4164.744000000001,4173.59,4191.154,4140.513,4183.077,4185.513,4205.0,4160.128,4185.385,4183.59,4185.255999999999,4175.769,0,0
531,71,0,3392,4174.872,4170.128,4162.692,4168.205,4177.436,4142.308,4184.231,4184.615,4206.026,4164.359,4186.154,4178.846,4174.231,4174.615,0,0
532,72,0,3175,4187.436,4177.436,4177.436,4177.9490000000005,4160.641,4152.692,4191.282,4188.205,4200.769,4168.077,4185.255999999999,4190.513,4170.513,4181.667,0,0
533,73,0,3566,4197.821,4188.718,4189.872,4193.462,4174.487,4154.744000000001,4191.41,4187.308,4201.41,4165.385,4189.231,4202.0509999999995,4184.359,4194.872,0,0
534,74,0,3423,4192.9490000000005,4182.564,4187.0509999999995,4183.205,4175.0,4144.872,4191.667,4190.255999999999,4202.0509999999995,4166.282,4187.179,4194.872,4187.821,4197.564,0,0
535,75,0,3265,4182.308,4172.308,4176.538,4172.821,4169.872,4146.667,4197.179,4200.769,4202.9490000000005,4160.128,4182.0509999999995,4188.462,4181.154,4184.744000000001,0,0
536,76,0,3097,4185.0,4175.128,4179.359,4193.59,4166.154,4160.385,4202.564,4210.897,4202.9490000000005,4157.179,4183.59,4191.41,4184.231,4183.205,0,0
537,77,0,3234,4188.205,4170.0,4184.231,4199.615,4155.769,4160.255999999999,4203.077,4203.846,4202.179,4166.923,4185.897,4185.385,4185.769,4191.282,0,0
538,78,0,3423,4177.436,4158.718,4171.538,4167.9490000000005,4156.667,4151.282,4195.255999999999,4188.333,4200.385,4162.436,4179.231,4174.487,4175.641,4180.769,0,0
539,79,0,3265,4171.41,4160.385,4164.487,4159.744000000001,4162.436,4148.077,4188.205,4191.282,4197.308,4149.487,4173.974,4176.154,4171.154,4168.077,0,0
540,80,0,3097,4177.9490000000005,4166.795,4176.026,4175.385,4163.462,4143.205,4186.795,4195.897,4192.9490000000005,4157.308,4179.615,4182.9490000000005,4178.462,4175.769,0,0
541,81,0,3234,4179.231,4175.513,4176.026,4177.821,4176.795,4140.897,4188.205,4189.744000000001,4190.513,4173.974,4184.744000000001,4182.692,4185.769,4181.41,0,0
542,82,0,3423,4188.077,4189.231,4180.128,4197.308,4181.282,4147.564,4195.513,4192.9490000000005,4199.231,4173.077,4184.487,4188.077,4188.333,4178.462,0,0
543,83,0,3265,4196.538,4195.769,4191.923,4218.718,4158.846,4145.255999999999,4203.462,4206.026,4210.255999999999,4173.462,4186.026,4193.333,4192.179,4182.821,0,0
544,84,0,3097,4184.744000000001,4183.974,4178.205,4195.769,4146.41,4137.436,4191.923,4203.846,4206.538,4178.974,4186.154,4181.667,4190.0,4182.821,0,0
545,85,0,3234,4176.282,4177.436,4165.385,4175.385,4157.0509999999995,4141.026,4184.103,4194.487,4201.282,4173.59,4185.641,4174.359,4185.513,4179.103,0,0
546,86,0,3423,4183.718,4189.231,4169.359,4187.308,4179.615,4145.0,4194.487,4197.308,4208.462,4167.564,4185.897,4181.154,4187.0509999999995,4180.641,0,0
547,87,0,3265,4182.692,4182.436,4170.641,4184.487,4178.462,4142.564,4197.821,4202.9490000000005,4212.308,4174.359,4182.179,4175.897,4187.179,4175.513,0,0
548,88,0,3097,4177.308,4170.513,4174.744000000001,4189.615,4155.385,4146.667,4193.846,4199.359,4203.846,4180.513,4178.077,4169.487,4180.255999999999,4172.436,0,0
549,89,0,3234,4176.923,4171.923,4172.436,4201.795,4161.667,4144.359,4195.641,4200.641,4202.308,4179.103,4181.923,4176.795,4176.282,4176.923,0,0
550,90,0,3423,4189.487,4169.744000000001,4182.179,4183.718,4167.179,4147.692,4206.154,4218.846,4219.359,4188.205,4194.872,4194.487,4187.821,4187.692,0,0
551,91,0,3265,4186.538,4173.077,4188.718,4184.359,4155.769,4153.205,4199.103,4210.0,4221.667,4186.923,4192.0509999999995,4191.923,4188.718,4180.255999999999,0,0
552,92,0,3097,4159.231,4194.103,4160.128,4206.923,4168.333,4139.103,4182.9490000000005,4175.0,4197.436,4162.0509999999995,4168.333,4163.974,4166.282,4153.846,0,0
553,93,0,3234,4157.821,4219.359,4148.718,4202.564,4207.821,4127.436,4197.308,4194.615,4198.333,4165.0,4170.385,4166.41,4169.359,4157.9490000000005,0,0
554,94,0,3423,4188.59,4235.385,4187.0509999999995,4202.0509999999995,4205.128,4143.205,4223.59,4239.744000000001,4230.897,4199.231,4200.641,4203.077,4200.641,4191.795,0,0
555,95,0,3265,4199.487,4244.615,4208.077,4219.231,4165.128,4153.846,4219.103,4227.564,4236.41,4200.513,4205.385,4209.487,4203.205,4198.333,0,0
556,96,0,3097,4185.128,4253.077,4182.821,4210.897,4167.821,4137.821,4195.0,4192.308,4211.154,4176.923,4186.41,4183.846,4178.846,4178.846,0,0
557,97,0,3234,4177.0509999999995,4267.0509999999995,4163.718,4197.692,4205.128,4125.769,4182.692,4182.9490000000005,4190.641,4169.231,4179.231,4176.923,4168.718,4171.41,0,0
558,98,0,3423,4173.974,4285.513,4160.897,4216.026,4215.897,4126.795,4180.897,4180.513,4187.9490000000005,4169.744000000001,4181.667,4181.154,4175.769,4172.692,0,0
559,99,0,3265,4183.59,4291.667,4173.205,4234.487,4190.385,4135.128,4191.282,4187.179,4205.641,4173.077,4187.692,4185.385,4184.615,4178.718,0,0
560,100,0,3097,4190.128,4295.897,4179.103,4238.205,4183.462,4140.385,4202.436,4203.974,4220.513,4182.436,4190.769,4188.077,4187.692,4182.9490000000005,0,0
561,101,0,3234,4186.538,4298.718,4173.333,4251.795,4188.974,4138.846,4204.744000000001,4198.462,4211.154,4185.769,4186.667,4183.59,4183.077,4181.026,0,0
562,102,0,3423,4182.564,4292.436,4170.385,4263.077,4181.282,4137.0509999999995,4200.897,4183.846,4205.385,4180.255999999999,4184.487,4178.846,4181.538,4180.385,0,0
563,103,0,3265,4187.564,4290.128,4172.692,4263.462,4177.179,4144.231,4192.821,4184.359,4207.436,4177.179,4187.692,4181.41,4183.462,4183.077,0,0
564,104,0,3097,4196.538,4287.564,4183.333,4273.974,4176.41,4154.872,4196.026,4194.744000000001,4206.923,4182.692,4191.538,4186.538,4184.231,4187.821,0,0
565,105,0,3234,4197.308,4278.718,4187.308,4284.359,4186.154,4151.667,4206.923,4198.974,4212.692,4184.359,4196.282,4189.359,4185.641,4191.538,0,0
566,106,0,3423,4190.769,4274.872,4177.821,4276.667,4200.255999999999,4140.641,4200.385,4189.487,4215.513,4176.538,4200.128,4190.897,4185.255999999999,4193.462,0,0
567,107,0,3265,4191.538,4275.513,4176.538,4264.231,4200.128,4140.769,4182.308,4184.359,4211.667,4171.026,4196.923,4189.744000000001,4186.538,4191.154,0,0
568,108,0,3097,4192.564,4268.333,4181.538,4265.897,4190.641,4144.872,4181.026,4185.897,4212.436,4173.846,4188.077,4184.487,4186.923,4183.462,0,0
569,109,0,3234,4184.359,4251.667,4173.462,4267.308,4181.41,4146.026,4186.026,4177.0509999999995,4206.154,4169.359,4182.308,4178.077,4183.718,4173.846,0,0
570,110,0,3423,4179.359,4237.9490000000005,4162.564,4256.41,4180.897,4150.255999999999,4184.231,4164.744000000001,4191.667,4158.59,4182.0509999999995,4171.923,4187.179,4169.872,0,0
571,111,0,3265,4177.9490000000005,4229.615,4162.9490000000005,4254.103,4180.513,4151.41,4188.333,4169.487,4188.974,4158.077,4180.385,4166.538,4189.487,4167.179,0,0
572,112,0,3097,4179.103,4223.846,4168.205,4261.667,4176.154,4149.872,4199.615,4191.538,4194.231,4160.128,4178.718,4167.9490000000005,4177.179,4167.9490000000005,0,0
573,113,0,3234,4179.872,4215.255999999999,4169.231,4260.769,4174.744000000001,4152.692,4207.9490000000005,4204.359,4200.769,4157.179,4180.897,4172.0509999999995,4170.385,4173.077,0,0
574,114,0,3423,4182.179,4195.897,4172.308,4255.128,4168.718,4149.744000000001,4198.846,4186.154,4205.897,4152.0509999999995,4181.538,4176.154,4180.769,4174.103,0,0
575,115,0,3265,4189.103,4186.026,4178.077,4256.795,4162.436,4133.974,4173.846,4169.744000000001,4198.077,4152.436,4187.0509999999995,4181.795,4186.026,4176.667,0,0
576,116,0,3097,4202.0509999999995,4191.795,4190.385,4260.255999999999,4163.205,4135.128,4175.255999999999,4188.077,4198.077,4160.897,4197.564,4195.0,4187.179,4191.667,0,0
577,117,0,3234,4197.179,4173.205,4187.564,4250.641,4158.333,4141.282,4189.359,4193.462,4210.255999999999,4153.205,4190.513,4194.487,4188.718,4193.333,0,0
578,118,0,3423,4182.179,4125.897,4174.103,4227.308,4143.59,4124.359,4170.641,4167.9490000000005,4199.744000000001,4130.255999999999,4173.846,4179.615,4179.231,4176.026,0,0
579,119,0,3265,4184.615,4108.077,4175.128,4205.128,4135.897,4110.255999999999,4166.154,4164.487,4188.333,4125.641,4179.744000000001,4180.0,4175.385,4176.41,0,0
580,120,0,3097,4190.128,4109.872,4178.462,4205.641,4129.359,4111.026,4191.41,4179.487,4203.974,4131.026,4187.9490000000005,4186.667,4188.077,4188.718,0,0
581,121,0,3234,4172.436,4079.615,4162.179,4198.718,4108.846,4092.821,4173.718,4165.0,4205.128,4116.795,4170.641,4170.513,4188.59,4173.462,0,0
582,122,0,3423,4165.255999999999,4049.8720000000003,4155.385,4149.487,4093.462,4060.7690000000002,4150.641,4149.744000000001,4188.462,4102.821,4165.385,4161.795,4178.718,4163.718,0,0
583,123,0,3265,4173.333,4045.256,4162.821,4094.487,4086.538,4028.974,4166.795,4157.564,4185.769,4097.9490000000005,4176.282,4173.077,4174.487,4174.487,0,0
584,124,0,3097,4159.487,4021.282,4146.923,4071.41,4065.897,3973.077,4160.769,4148.846,4171.667,4075.385,4156.154,4157.821,4160.255999999999,4159.744000000001,0,0
585,125,0,3234,4153.077,3994.487,4141.923,4078.974,4052.179,3903.8459999999995,4142.9490000000005,4138.974,4152.308,4065.1279999999997,4141.795,4147.564,4155.897,4148.846,0,0
586,126,0,3423,4166.923,3985.1279999999997,4158.718,4092.179,4057.821,3874.103,4149.359,4148.59,4157.692,4077.949,4160.385,4164.872,4173.077,4167.9490000000005,0,0
587,127,0,54,4168.205,3958.205,4160.255999999999,4094.615,4057.692,3888.205,4153.077,4147.9490000000005,4158.59,4076.923,4164.487,4167.308,4178.077,4170.128,0,0
588,0,0,3129,4156.923,3930.256,4147.564,4091.41,4050.513,3896.41,4150.0,4135.513,4138.846,4066.795,4151.282,4153.077,4169.744000000001,4155.897,0,0
589,1,0,3330,4158.974,3928.462,4146.923,4094.744,4051.795,3903.59,4143.077,4135.513,4127.692,4060.7690000000002,4152.692,4151.795,4164.103,4159.487,0,0
590,2,0,2856,4156.41,3913.205,4144.872,4090.0,4054.487,3920.1279999999997,4124.231,4131.795,4126.923,4053.333,4152.308,4146.154,4159.231,4155.255999999999,0,0
591,3,0,3546,4142.436,3871.282,4132.436,4055.6409999999996,4048.205,3922.051,4120.769,4118.718,4121.538,4040.6409999999996,4136.026,4128.462,4153.462,4133.205,0,0
592,4,0,3587,4136.154,3852.4359999999997,4125.128,4021.282,4043.333,3898.077,4135.769,4131.154,4125.769,4037.308,4131.282,4125.641,4152.0509999999995,4126.667,0,0
593,5,0,2260,4142.308,3864.8720000000003,4129.744000000001,4024.8720000000003,4045.513,3873.077,4137.179,4139.359,4130.128,4044.487,4137.564,4132.564,4152.9490000000005,4133.462,0,0
594,6,0,3273,4145.255999999999,3870.256,4133.59,4042.949,4050.385,3856.1540000000005,4120.385,4109.872,4121.154,4045.256,4134.872,4129.231,4161.282,4132.692,0,0
595,7,0,3375,4139.487,3850.7690000000002,4129.872,4036.538,4046.026,3853.462,4103.205,4082.949,4117.0509999999995,4033.59,4122.436,4121.026,4166.282,4127.308,0,0
596,8,0,3166,4136.282,3835.0,4125.128,4029.3590000000004,4040.513,3851.795,4108.974,4093.59,4127.692,4029.8720000000003,4119.615,4123.718,4157.308,4126.538,0,0
597,9,0,3559,4147.436,3850.7690000000002,4135.128,4047.5640000000003,4052.949,3822.4359999999997,4125.0,4115.769,4132.564,4043.333,4131.538,4135.0,4153.077,4136.026,0,0
598,10,0,3411,4155.0,3865.897,4145.897,4064.8720000000003,4067.051,3791.667,4123.59,4119.103,4126.667,4054.615,4137.564,4140.897,4162.436,4143.333,0,0
599,11,0,3253,4155.769,3863.205,4149.872,4068.59,4065.513,3793.333,4131.667,4128.846,4139.615,4063.718,4142.821,4148.333,4178.718,4146.538,0,0
600,12,0,3076,4162.308,3869.615,4156.667,4075.6409999999996,4071.795,3806.41,4152.308,4150.641,4158.333,4079.8720000000003,4154.103,4155.897,4186.282,4156.026,0,0
601,13,0,3218,4170.641,3886.026,4160.0,4085.7690000000002,4091.667,3809.615,4151.282,4156.795,4153.718,4091.282,4158.974,4155.641,4185.641,4166.026,0,0
602,14,0,3411,4167.436,3883.59,4152.692,4077.692,4084.615,3813.205,4139.615,4143.718,4143.59,4087.821,4155.641,4152.564,4190.0,4164.615,0,0
603,15,0,3253,4156.667,3868.205,4143.462,4065.256,4060.256,3815.256,4132.9490000000005,4128.718,4141.41,4081.026,4151.538,4148.333,4181.41,4153.846,0,0
604,16,0,0,4163.205,3873.333,4151.41,4077.051,4069.744,3813.205,4132.564,4134.487,4143.077,4089.8720000000003,4153.205,4153.718,4170.255999999999,4156.795,0,0
605,17,0,0,4172.308,3892.692,4156.41,4090.6409999999996,4091.923,3815.385,4142.308,4147.179,4150.128,4104.487,4160.641,4161.41,4187.692,4166.795,0,0
606,18,0,0,4163.077,3885.1279999999997,4145.255999999999,4080.385,4082.308,3821.667,4139.487,4138.077,4150.641,4097.436,4158.974,4154.487,4194.872,4159.615,0,0
607,19,0,0,4144.615,3859.744,4131.667,4061.667,4067.5640000000003,3827.821,4123.077,4117.308,4136.282,4080.385,4145.385,4136.667,4170.641,4141.795,0,0
608,20,0,0,4147.564,3868.462,4137.179,4064.103,4079.103,3839.103,4132.436,4126.538,4136.795,4085.1279999999997,4145.0,4140.128,4170.769,4144.231,0,0
609,21,0,0,4161.026,3898.718,4152.692,4084.615,4099.103,3853.077,4152.692,4157.0509999999995,4157.9490000000005,4104.103,4158.077,4157.821,4200.641,4161.41,0,0
610,22,0,0,4160.385,3900.897,4154.359,4090.1279999999997,4101.154,3858.333,4145.769,4155.128,4157.0509999999995,4104.744000000001,4158.333,4156.538,4204.359,4159.103,0,0
611,23,0,0,4152.564,3898.974,4145.641,4084.3590000000004,4080.385,3852.692,4135.897,4141.41,4144.231,4094.8720000000003,4148.59,4144.744000000001,4191.026,4147.436,0,0
612,24,0,0,4154.103,3910.1279999999997,4143.59,4084.615,4075.0,3854.615,4137.179,4148.205,4146.538,4099.744000000001,4150.385,4147.9490000000005,4191.795,4150.0,0,0
613,25,0,0,4160.255999999999,3912.4359999999997,4151.795,4089.487,4110.769,3869.8720000000003,4140.0,4156.026,4153.59,4112.308,4165.0,4160.385,4198.205,4161.923,0,0
614,26,0,0,4167.821,3915.256,4161.282,4098.333,4138.205,3886.282,4149.744000000001,4160.897,4162.9490000000005,4116.923,4174.487,4167.821,4199.231,4168.718,0,0
615,27,0,0,4173.077,3922.5640000000003,4163.846,4107.436,4123.333,3889.8720000000003,4152.436,4166.41,4171.154,4118.462,4168.333,4171.41,4200.513,4170.897,0,0
616,28,0,0,4164.744000000001,3916.538,4153.462,4097.308,4102.436,3884.744,4142.9490000000005,4160.385,4167.179,4118.333,4156.795,4162.308,4198.205,4162.564,0,0
617,29,0,0,4156.538,3905.7690000000002,4142.436,4088.077,4100.0,3879.744,4142.179,4151.026,4156.41,4107.308,4151.923,4148.59,4186.795,4150.0,0,0
618,30,0,0,4166.026,3913.205,4146.795,4102.564,4105.769,3875.7690000000002,4147.436,4153.205,4153.077,4107.0509999999995,4154.103,4149.487,4186.667,4152.564,0,0
619,31,0,0,4175.0,3925.6409999999996,4157.0509999999995,4111.923,4110.255999999999,3882.308,4145.385,4154.872,4156.667,4123.077,4159.359,4155.897,4200.385,4162.436,0,0
620,32,0,0,4161.923,3922.4359999999997,4151.795,4104.872,4108.59,3891.538,4141.923,4152.179,4161.538,4123.462,4158.846,4149.872,4199.615,4154.872,0,0
621,33,0,0,4152.179,3915.6409999999996,4142.308,4097.9490000000005,4106.026,3891.667,4138.974,4146.282,4160.255999999999,4109.487,4153.205,4140.897,4182.821,4144.359,0,0
622,34,0,0,4159.103,3917.051,4141.923,4098.718,4108.718,3885.513,4133.59,4139.103,4154.231,4112.9490000000005,4150.769,4141.667,4178.462,4151.923,0,0
623,35,0,0,4171.154,3928.718,4153.846,4105.641,4108.846,3887.692,4131.923,4141.538,4153.205,4123.718,4153.718,4151.795,4188.462,4162.0509999999995,0,0
624,36,0,0,4173.59,3940.256,4164.487,4110.769,4114.103,3903.205,4136.667,4149.872,4162.692,4129.487,4162.308,4163.846,4199.615,4166.026,0,0
625,37,0,0,4176.41,3947.692,4169.744000000001,4118.846,4125.0,3919.3590000000004,4148.718,4159.487,4175.513,4138.974,4174.872,4175.897,4201.795,4176.154,0,0
626,38,0,0,4173.59,3949.487,4162.9490000000005,4125.255999999999,4129.103,3916.667,4152.692,4160.513,4169.744000000001,4136.41,4172.308,4173.077,4192.308,4172.0509999999995,0,0
627,39,0,0,4162.308,3945.513,4148.974,4116.795,4122.0509999999995,3910.256,4144.103,4152.821,4152.308,4120.641,4153.333,4151.795,4184.103,4147.179,0,0
628,40,0,0,4155.385,3942.821,4140.769,4109.231,4111.538,3915.897,4145.255999999999,4146.538,4149.872,4113.077,4142.9490000000005,4138.718,4182.564,4132.436,0,0
629,41,0,0,4163.846,3948.077,4150.769,4122.436,4110.128,3925.897,4155.897,4152.179,4163.462,4119.487,4151.795,4150.128,4188.205,4147.436,0,0
630,42,0,0,4181.41,3969.3590000000004,4175.0,4138.974,4137.0509999999995,3939.2309999999998,4166.282,4172.9490000000005,4185.513,4142.0509999999995,4174.615,4172.9490000000005,4208.077,4172.179,0,0
631,43,0,0,4189.615,3987.5640000000003,4181.667,4143.462,4155.513,3947.692,4172.9490000000005,4185.641,4200.769,4157.564,4187.821,4182.9490000000005,4225.513,4182.308,0,0
632,44,0,0,4183.718,3980.6409999999996,4170.385,4142.179,4126.026,3939.744,4166.538,4175.0,4191.026,4150.385,4176.795,4176.154,4213.974,4175.0,0,0
633,45,0,0,4176.795,3965.513,4166.538,4142.564,4112.821,3940.1279999999997,4154.359,4161.667,4175.769,4144.103,4167.179,4170.0,4199.615,4168.462,0,0
634,46,0,0,4176.154,3966.282,4168.333,4136.923,4140.0,3953.974,4148.846,4162.564,4175.897,4145.0,4168.333,4169.744000000001,4198.846,4166.41,0,0
635,47,0,0,4169.359,3972.821,4154.231,4122.436,4140.769,3952.179,4142.821,4158.077,4172.9490000000005,4133.333,4162.179,4161.667,4189.744000000001,4158.333,0,0
636,48,0,0,4162.308,3966.795,4146.282,4115.897,4117.436,3944.3590000000004,4137.821,4145.769,4163.718,4120.641,4149.872,4152.308,4177.821,4152.821,0,0
637,49,0,0,4170.0,3973.59,4161.154,4129.231,4128.205,3953.333,4151.667,4157.308,4172.179,4131.026,4153.846,4158.59,4187.9490000000005,4157.564,0,0
638,50,0,0,4191.026,4003.8459999999995,4181.795,4150.0,4156.795,3981.1540000000005,4181.795,4191.923,4201.667,4158.846,4175.513,4180.385,4212.821,4174.359,0,0
639,51,0,0,4197.692,4017.308,4186.154,4153.59,4159.744000000001,4000.1279999999997,4194.231,4212.9490000000005,4220.897,4176.538,4186.795,4192.692,4223.205,4188.462,0,0
640,52,0,0,4185.255999999999,4000.6409999999996,4174.744000000001,4138.59,4147.436,3985.7690000000002,4174.744000000001,4194.359,4202.821,4161.026,4173.718,4180.513,4210.385,4176.538,0,0
641,53,0,0,4177.308,3994.3590000000004,4168.205,4133.333,4143.333,3969.103,4161.538,4168.462,4179.872,4142.821,4163.59,4170.0,4195.641,4163.462,0,0
642,54,0,0,4188.205,4007.179,4174.359,4139.103,4149.359,3986.026,4174.872,4172.308,4184.744000000001,4151.923,4171.026,4180.385,4200.128,4174.103,0,0
643,55,0,0,4192.564,4014.744,4177.179,4139.615,4144.872,3997.949,4180.385,4186.282,4196.923,4157.9490000000005,4172.564,4184.744000000001,4209.103,4182.564,0,0
644,56,0,0,4190.513,4016.923,4178.974,4146.538,4139.103,3983.205,4173.333,4182.179,4196.923,4151.154,4172.692,4183.205,4205.255999999999,4179.359,0,0
645,57,0,0,4193.077,4017.821,4184.231,4153.462,4146.795,3979.3590000000004,4168.333,4170.385,4188.205,4150.0,4180.0,4188.974,4198.974,4183.333,0,0
646,58,0,0,4186.154,4011.795,4179.103,4140.385,4137.564,3985.256,4157.564,4166.154,4180.128,4145.513,4168.59,4182.564,4192.821,4179.872,0,0
647,59,0,0,4177.0509999999995,4006.026,4168.846,4130.769,4131.026,3984.3590000000004,4155.641,4171.41,4188.59,4145.255999999999,4154.615,4170.0,4195.0,4165.769,0,0
648,60,0,0,4177.0509999999995,4007.4359999999997,4167.821,4138.205,4152.308,3992.4359999999997,4173.205,4179.872,4199.359,4155.641,4164.487,4170.385,4198.59,4160.641,0,0
649,61,0,0,4177.564,4014.2309999999998,4172.821,4140.0,4162.0509999999995,4006.923,4177.308,4182.821,4195.0,4153.718,4171.923,4175.0,4194.872,4164.744000000001,0,0
650,62,0,0,4179.231,4025.513,4175.641,4140.128,4152.179,4008.205,4170.255999999999,4183.077,4200.0,4150.255999999999,4166.41,4175.255999999999,4196.667,4169.872,0,0
651,63,0,0,4184.487,4028.8459999999995,4174.615,4144.487,4149.359,4003.462,4176.026,4184.103,4210.128,4156.154,4166.41,4177.564,4195.128,4172.692,0,0
652,64,0,3134,4181.923,4030.513,4172.9490000000005,4146.923,4152.436,4009.2309999999998,4178.59,4182.564,4198.974,4155.128,4169.359,4178.333,4187.564,4169.487,0,0
653,65,0,3333,4188.846,4045.897,4183.846,4157.821,4158.077,4016.282,4176.41,4185.897,4189.359,4154.487,4168.205,4183.205,4193.846,4173.59,0,0
654,66,0,2860,4200.641,4059.8720000000003,4191.282,4170.513,4166.41,4011.795,4181.667,4191.923,4197.821,4159.487,4171.282,4190.897,4203.462,4182.0509999999995,0,0
655,67,0,3537,4202.308,4063.974,4191.026,4173.718,4163.077,4015.385,4185.769,4195.769,4203.077,4162.564,4181.41,4196.667,4201.795,4185.128,0,0
656,68,0,3573,4195.0,4064.487,4188.974,4167.821,4159.744000000001,4026.667,4185.385,4198.333,4203.462,4170.255999999999,4181.41,4194.744000000001,4201.41,4179.487,0,0
657,69,0,2359,4195.641,4062.308,4190.513,4160.255999999999,4169.872,4031.282,4186.282,4198.846,4202.9490000000005,4173.846,4174.487,4189.487,4201.538,4176.667,0,0
658,70,0,3275,4194.615,4057.051,4190.641,4155.385,4175.641,4035.1279999999997,4187.692,4196.667,4200.128,4166.026,4176.667,4188.077,4193.846,4180.255999999999,0,0
659,71,0,3392,4188.077,4051.923,4182.692,4153.59,4160.255999999999,4041.923,4188.333,4194.103,4200.128,4163.718,4176.795,4186.923,4190.641,4177.692,0,0
660,72,0,3175,4186.154,4053.077,4177.9490000000005,4157.0509999999995,4141.282,4037.5640000000003,4183.974,4187.0509999999995,4195.0,4165.513,4167.179,4183.59,4197.692,4170.897,0,0
661,73,0,3552,4195.769,4062.821,4191.41,4168.974,4152.179,4036.923,4175.255999999999,4180.255999999999,4188.59,4166.795,4173.462,4189.487,4199.487,4181.667,0,0
662,74,0,3413,4205.385,4070.513,4205.513,4179.231,4178.462,4045.513,4178.59,4185.641,4196.282,4174.744000000001,4194.359,4202.436,4188.846,4197.9490000000005,0,0
663,75,0,3260,4205.385,4072.821,4202.436,4179.872,4179.872,4042.949,4187.179,4188.59,4206.795,4181.667,4203.333,4206.538,4187.564,4198.333,0,0
664,76,0,3090,4206.538,4083.59,4203.333,4181.026,4172.436,4035.1279999999997,4184.615,4186.026,4206.154,4189.103,4198.333,4209.487,4201.795,4199.487,0,0
665,77,0,3225,4202.564,4086.1540000000005,4201.154,4178.333,4171.282,4030.1279999999997,4173.974,4187.564,4195.769,4189.103,4190.641,4208.718,4195.641,4203.974,0,0
666,78,0,3413,4196.923,4078.462,4192.179,4172.0509999999995,4161.154,4031.1540000000005,4172.179,4182.821,4187.436,4174.487,4192.179,4203.462,4173.077,4199.744000000001,0,0
667,79,0,3260,4204.744000000001,4090.513,4197.436,4181.667,4159.231,4043.333,4182.692,4186.282,4196.026,4182.436,4205.385,4207.436,4182.564,4202.821,0,0
668,80,0,3090,4217.564,4106.667,4211.026,4194.231,4174.872,4056.282,4192.0509999999995,4200.897,4204.615,4209.103,4209.359,4218.59,4207.308,4211.923,0,0
669,81,0,3225,4215.385,4102.0509999999995,4207.821,4190.897,4180.769,4054.103,4190.513,4199.103,4192.692,4206.667,4201.282,4217.564,4204.487,4210.385,0,0
670,82,0,3413,4210.385,4100.255999999999,4200.513,4186.026,4174.231,4051.667,4181.667,4184.744000000001,4179.744000000001,4182.692,4200.128,4210.255999999999,4186.154,4210.897,0,0
671,83,0,3260,4207.308,4114.615,4198.59,4188.462,4171.795,4055.256,4175.128,4179.872,4181.795,4180.128,4203.333,4204.872,4179.487,4211.41,0,0
672,84,0,3090,4203.077,4113.59,4194.744000000001,4185.385,4165.0,4048.59,4166.282,4168.077,4174.872,4183.077,4190.897,4198.974,4178.974,4196.41,0,0
673,85,0,3225,4204.744000000001,4108.846,4196.154,4183.205,4163.077,4039.487,4162.0509999999995,4159.359,4167.821,4181.923,4182.0509999999995,4203.462,4181.538,4194.615,0,0
674,86,0,3413,4214.359,4120.255999999999,4204.103,4191.154,4180.641,4050.513,4173.59,4179.872,4181.154,4188.59,4196.154,4213.846,4182.821,4214.359,0,0
675,87,0,3260,4212.821,4125.255999999999,4201.154,4193.077,4191.538,4066.795,4181.026,4189.103,4188.333,4186.026,4202.179,4208.333,4174.487,4215.641,0,0
676,88,0,3090,4208.718,4124.615,4198.077,4193.974,4181.667,4065.1279999999997,4180.897,4176.923,4179.872,4181.282,4193.718,4203.077,4176.282,4202.436,0,0
677,89,0,3225,4215.385,4126.667,4206.154,4200.897,4177.692,4060.256,4182.692,4180.641,4175.0,4190.513,4198.077,4213.718,4191.667,4207.821,0,0
678,90,0,3413,4218.077,4126.41,4210.128,4198.077,4189.231,4064.487,4177.308,4186.41,4171.154,4190.769,4202.436,4219.615,4185.128,4216.795,0,0
679,91,0,3260,4219.487,4136.538,4213.077,4198.718,4190.769,4066.41,4172.9490000000005,4185.641,4170.0,4187.308,4202.308,4218.205,4174.487,4218.974,0,0
680,92,0,3090,4229.615,4158.462,4219.487,4215.769,4187.9490000000005,4070.0,4187.564,4201.282,4184.487,4208.205,4216.667,4221.282,4196.667,4225.513,0,0
681,93,0,3225,4233.333,4159.103,4217.9490000000005,4218.077,4197.9490000000005,4076.538,4196.538,4207.179,4190.769,4215.255999999999,4220.897,4224.103,4210.641,4225.769,0,0
682,94,0,3413,4225.641,4150.255999999999,4213.333,4204.615,4204.231,4072.949,4182.308,4187.821,4176.923,4197.821,4203.333,4222.308,4195.385,4217.436,0,0
683,95,0,3260,4230.255999999999,4155.513,4219.744000000001,4208.974,4195.641,4072.5640000000003,4171.154,4184.231,4172.564,4199.231,4199.359,4224.487,4190.128,4224.103,0,0
684,96,0,3090,4236.923,4156.41,4218.333,4216.41,4192.564,4081.41,4170.513,4188.462,4173.462,4201.667,4207.436,4222.436,4194.359,4233.718,0,0
685,97,0,3225,4225.0,4143.333,4207.564,4203.333,4191.154,4078.974,4169.103,4175.255999999999,4162.821,4186.795,4204.359,4215.128,4180.769,4221.795,0,0
686,98,0,3413,4204.487,4130.385,4200.513,4187.564,4172.564,4061.923,4167.0509999999995,4168.974,4153.462,4181.538,4193.718,4207.179,4165.255999999999,4201.923,0,0
687,99,0,3260,4210.641,4133.718,4208.846,4192.564,4169.872,4063.077,4174.231,4179.359,4156.538,4189.615,4194.872,4210.641,4177.564,4210.0,0,0
688,100,0,3090,4225.641,4146.795,4218.59,4204.615,4190.897,4081.795,4184.487,4187.436,4165.769,4197.9490000000005,4207.179,4222.0509999999995,4198.846,4226.538,0,0
689,101,0,3225,4212.564,4137.436,4206.923,4195.641,4186.154,4083.718,4175.128,4186.282,4165.641,4197.821,4203.205,4213.846,4194.744000000001,4213.59,0,0
690,102,0,3413,4189.872,4120.769,4183.462,4181.795,4169.615,4072.179,4161.026,4182.436,4159.744000000001,4184.872,4187.9490000000005,4188.974,4179.359,4191.795,0,0
691,103,0,3260,4191.923,4130.0,4179.872,4187.9490000000005,4174.744000000001,4072.821,4171.538,4185.128,4160.513,4180.641,4182.9490000000005,4181.538,4181.795,4191.026,0,0
692,104,0,3090,4202.308,4141.795,4190.769,4199.744000000001,4183.846,4078.462,4185.897,4192.564,4167.821,4197.179,4186.795,4194.359,4191.026,4195.769,0,0
693,105,0,3225,4198.846,4132.821,4193.205,4199.103,4178.205,4081.026,4183.462,4185.897,4169.744000000001,4201.282,4190.128,4201.538,4188.205,4194.359,0,0
694,106,0,3413,4192.308,4124.615,4189.744000000001,4195.128,4172.9490000000005,4076.026,4173.974,4175.255999999999,4160.255999999999,4188.718,4192.0509999999995,4196.667,4181.154,4193.846,0,0
695,107,0,3260,4192.9490000000005,4132.436,4190.769,4195.255999999999,4182.179,4069.744,4173.718,4180.385,4153.718,4185.769,4187.821,4193.462,4183.205,4192.179,0,0
696,108,0,3090,4202.308,4146.795,4197.9490000000005,4200.255999999999,4191.41,4077.821,4183.974,4186.538,4160.385,4190.255999999999,4181.667,4195.897,4185.0,4191.795,0,0
697,109,0,3225,4207.436,4155.769,4199.231,4203.846,4188.205,4088.974,4185.513,4183.974,4166.282,4188.59,4183.974,4198.846,4183.333,4196.154,0,0
698,110,0,3413,4206.026,4156.923,4198.846,4202.564,4187.0509999999995,4089.2309999999998,4174.103,4185.513,4164.872,4190.897,4188.205,4204.615,4184.103,4200.255999999999,0,0
699,111,0,3260,4200.0,4153.846,4197.821,4200.641,4188.974,4088.333,4167.821,4187.9490000000005,4163.462,4199.487,4187.564,4203.974,4185.513,4196.667,0,0
700,112,0,3090,4198.846,4153.59,4196.923,4201.923,4176.154,4091.41,4174.103,4182.821,4161.282,4197.564,4187.436,4196.282,4182.564,4191.154,0,0
701,113,0,3225,4198.974,4159.231,4195.0,4203.077,4174.487,4089.3590000000004,4177.692,4183.205,4162.308,4194.872,4183.846,4191.923,4182.821,4188.718,0,0
702,114,0,3413,4195.385,4160.641,4192.436,4200.641,4184.487,4094.3590000000004,4171.667,4185.255999999999,4166.282,4192.0509999999995,4174.231,4189.359,4181.154,4184.487,0,0
703,115,0,3260,4190.513,4152.821,4188.974,4196.154,4172.0509999999995,4098.974,4168.077,4178.462,4163.205,4181.667,4172.821,4186.795,4168.718,4182.0509999999995,0,0
704,116,0,3090,4197.179,4152.436,4193.077,4201.667,4164.103,4099.487,4175.897,4176.667,4162.308,4180.513,4185.128,4196.538,4167.179,4191.41,0,0
705,117,0,3225,4201.41,4161.795,4199.615,4208.846,4186.41,4110.0,4182.9490000000005,4183.077,4168.846,4188.59,4189.487,4206.026,4180.897,4199.487,0,0
706,118,0,3413,4195.128,4161.41,4197.0509999999995,4203.077,4200.128,4121.154,4176.923,4182.436,4162.821,4186.41,4182.308,4198.974,4181.538,4190.128,0,0
707,119,0,3260,4196.795,4163.205,4195.513,4205.897,4192.692,4119.615,4175.385,4184.103,4162.821,4184.487,4182.0509999999995,4193.974,4177.308,4187.179,0,0
708,120,0,3090,4201.282,4168.59,4197.692,4219.872,4182.564,4119.231,4180.641,4185.255999999999,4168.974,4188.718,4185.0,4195.897,4173.462,4189.872,0,0
709,121,0,3225,4191.923,4159.359,4195.128,4212.564,4175.255999999999,4122.179,4176.282,4174.231,4155.513,4183.59,4183.333,4194.487,4161.667,4181.667,0,0
710,122,0,3413,4196.026,4160.897,4199.615,4205.0,4185.897,4123.59,4177.9490000000005,4182.564,4158.59,4188.974,4188.974,4202.436,4169.487,4187.436,0,0
711,123,0,3260,4218.718,4186.154,4213.974,4224.487,4207.0509999999995,4134.487,4198.59,4213.077,4188.333,4211.923,4202.692,4220.0,4200.128,4211.667,0,0
712,124,0,3090,4218.59,4189.872,4214.359,4234.231,4206.154,4145.128,4209.359,4215.0,4195.513,4215.641,4206.795,4219.872,4205.513,4216.538,0,0
713,125,0,3225,4202.692,4170.769,4201.538,4217.9490000000005,4192.308,4145.128,4196.026,4191.154,4175.385,4194.359,4195.255999999999,4207.692,4182.436,4198.333,0,0
714,126,0,3413,4192.564,4162.821,4188.462,4203.462,4187.0509999999995,4141.923,4180.897,4180.0,4165.769,4180.0,4177.564,4195.255999999999,4163.846,4178.333,0,0
715,127,0,54,4189.231,4163.205,4186.026,4196.923,4177.9490000000005,4136.923,4178.718,4184.231,4168.974,4182.564,4168.077,4188.718,4160.0,4170.769,0,0
716,0,0,3143,4192.308,4166.41,4191.41,4197.9490000000005,4170.385,4132.436,4185.385,4191.667,4176.41,4192.179,4176.154,4193.59,4173.462,4182.692,0,0
717,1,0,3342,4204.103,4178.077,4201.154,4211.538,4188.59,4145.255999999999,4194.872,4200.128,4188.974,4204.103,4192.179,4205.897,4192.0509999999995,4197.436,0,0
718,2,0,2863,4202.179,4183.462,4204.231,4218.077,4206.41,4153.205,4192.821,4201.282,4192.564,4208.205,4199.231,4208.205,4191.923,4194.359,0,0
719,3,0,3530,4203.974,4183.333,4207.436,4217.436,4204.487,4145.255999999999,4191.154,4202.179,4192.564,4207.564,4201.538,4209.359,4187.821,4200.641,0,0
720,4,0,3575,4213.59,4191.538,4207.9490000000005,4224.103,4198.59,4143.59,4198.077,4208.205,4196.795,4212.692,4200.128,4212.179,4196.41,4212.179,0,0
721,5,0,2378,4206.41,4195.513,4201.667,4226.538,4183.077,4142.821,4188.718,4203.462,4190.0,4210.513,4191.538,4205.255999999999,4196.282,4202.179,0,0
722,6,0,3285,4191.154,4184.744000000001,4195.128,4215.255999999999,4168.462,4137.308,4170.385,4189.487,4175.641,4196.538,4183.59,4195.641,4181.667,4186.667,0,0
723,7,0,3398,4191.154,4170.897,4191.667,4208.59,4177.821,4147.821,4174.231,4185.641,4173.974,4189.872,4186.026,4194.487,4178.846,4187.0509999999995,0,0
724,8,0,3181,4192.436,4168.077,4191.41,4210.513,4194.231,4160.128,4187.0509999999995,4190.641,4179.487,4195.255999999999,4187.0509999999995,4198.333,4188.205,4188.974,0,0
725,9,0,3564,4185.513,4171.154,4187.564,4207.9490000000005,4184.872,4156.026,4186.154,4188.462,4174.231,4192.436,4176.923,4196.41,4181.538,4182.308,0,0
726,10,0,3414,4182.436,4168.462,4180.255999999999,4205.0,4163.462,4152.436,4182.564,4184.231,4166.154,4181.026,4171.282,4189.359,4167.436,4175.513,0,0
727,11,0,3267,4184.103,4165.128,4176.923,4202.564,4170.769,4158.718,4181.154,4188.205,4168.718,4178.974,4176.923,4184.231,4172.179,4175.769,0,0
728,12,0,3097,4187.0509999999995,4170.641,4184.615,4205.0,4190.769,4167.179,4183.846,4190.255999999999,4171.026,4185.769,4181.923,4188.462,4181.795,4186.154,0,0
729,13,0,3234,4187.821,4178.205,4189.231,4214.615,4189.744000000001,4168.846,4192.9490000000005,4190.128,4168.846,4189.487,4179.615,4193.205,4178.718,4186.026,0,0
730,14,0,3414,4188.462,4175.897,4190.0,4218.974,4181.538,4166.154,4191.923,4192.9490000000005,4167.821,4187.0509999999995,4174.744000000001,4191.923,4171.026,4176.795,0,0
731,15,0,3267,4188.974,4170.897,4189.872,4216.026,4188.59,4161.923,4179.103,4188.333,4167.564,4183.974,4170.513,4188.59,4168.974,4182.179,0,0
732,16,0,0,4192.436,4170.897,4188.077,4213.333,4186.667,4160.0,4174.744000000001,4175.641,4164.231,4175.385,4168.205,4187.179,4168.846,4190.513,0,0
733,17,0,0,4194.744000000001,4173.077,4190.513,4216.795,4176.282,4161.667,4182.9490000000005,4179.359,4167.692,4176.538,4176.923,4192.9490000000005,4171.282,4190.641,0,0
734,18,0,0,4196.538,4171.026,4195.641,4218.846,4179.744000000001,4169.615,4188.974,4193.974,4168.333,4189.103,4187.564,4199.359,4174.359,4191.538,0,0
735,19,0,0,4193.205,4170.255999999999,4189.615,4215.255999999999,4178.718,4172.564,4183.205,4187.436,4158.718,4186.154,4181.923,4193.718,4176.667,4188.462,0,0
736,20,0,0,4195.641,4181.026,4189.359,4218.205,4175.513,4168.718,4183.59,4180.255999999999,4168.077,4181.667,4177.179,4193.718,4182.0509999999995,4189.872,0,0
737,21,0,0,4206.923,4199.359,4203.205,4230.385,4192.308,4169.872,4197.0509999999995,4199.615,4193.205,4198.59,4192.179,4209.615,4189.103,4206.538,0,0
738,22,0,0,4205.255999999999,4201.667,4203.205,4228.462,4200.641,4172.821,4198.718,4206.795,4190.769,4201.41,4192.821,4208.59,4184.103,4205.385,0,0
739,23,0,0,4190.513,4185.897,4187.821,4215.128,4183.333,4165.0,4183.205,4183.718,4169.872,4177.564,4168.59,4185.128,4169.744000000001,4182.9490000000005,0,0
740,24,0,0,4188.718,4182.0509999999995,4185.769,4214.872,4178.974,4155.128,4172.436,4170.769,4162.9490000000005,4170.769,4163.59,4179.231,4160.769,4179.359,0,0
741,25,0,0,4192.436,4185.897,4186.41,4212.9490000000005,4186.667,4156.538,4169.359,4166.282,4156.538,4174.744000000001,4172.436,4184.872,4155.513,4186.538,0,0
742,26,0,0,4190.641,4185.0,4178.333,4204.615,4180.513,4162.564,4164.744000000001,4157.9490000000005,4148.718,4166.667,4168.718,4180.255999999999,4155.128,4184.872,0,0
743,27,0,0,4199.231,4192.821,4188.718,4215.385,4179.359,4163.974,4173.846,4172.9490000000005,4157.0509999999995,4174.231,4174.359,4188.205,4166.795,4190.255999999999,0,0
744,28,0,0,4211.282,4207.308,4205.128,4237.179,4186.538,4168.974,4187.821,4191.154,4172.564,4194.872,4191.538,4206.923,4179.487,4199.359,0,0
745,29,0,0,4207.179,4202.564,4201.026,4235.769,4185.513,4179.231,4184.615,4179.231,4171.154,4192.9490000000005,4190.128,4206.538,4174.487,4200.513,0,0
746,30,0,0,4197.436,4194.872,4189.744000000001,4218.59,4191.538,4178.59,4181.795,4171.795,4162.9490000000005,4183.333,4184.231,4194.615,4166.667,4201.154,0,0
747,31,0,0,4207.9490000000005,4208.846,4198.077,4224.231,4202.9490000000005,4174.615,4189.359,4191.923,4176.41,4201.41,4194.744000000001,4202.692,4176.282,4209.615,0,0
748,32,0,0,4220.513,4220.897,4207.0509999999995,4238.846,4204.615,4177.308,4186.154,4203.59,4188.333,4220.128,4206.282,4214.744000000001,4185.897,4216.154,0,0
749,33,0,0,4214.872,4213.462,4203.59,4229.487,4200.128,4174.744000000001,4172.436,4189.615,4171.923,4206.538,4203.077,4210.769,4179.359,4213.718,0,0
750,34,0,0,4195.513,4197.179,4192.308,4214.359,4189.615,4165.897,4166.538,4172.0509999999995,4157.821,4189.359,4188.846,4197.9490000000005,4166.795,4203.974,0,0
751,35,0,0,4188.718,4186.41,4183.846,4212.9490000000005,4170.641,4169.487,4165.513,4169.615,4162.564,4189.487,4179.615,4190.513,4163.205,4194.487,0,0
752,36,0,0,4193.974,4192.436,4185.128,4218.205,4166.923,4176.667,4167.436,4178.077,4169.103,4199.487,4188.462,4192.821,4172.564,4195.769,0,0
753,37,0,0,4200.641,4210.385,4191.026,4225.0,4189.231,4179.744000000001,4177.821,4185.385,4178.462,4212.179,4203.077,4200.769,4186.154,4207.692,0,0
754,38,0,0,4206.154,4218.462,4196.795,4224.103,4213.718,4183.59,4186.282,4195.255999999999,4195.641,4219.872,4204.615,4207.0509999999995,4187.692,4214.103,0,0
755,39,0,0,4212.692,4212.436,4205.255999999999,4221.026,4202.821,4184.615,4188.462,4200.255999999999,4199.487,4213.718,4200.513,4208.846,4183.974,4211.154,0,0
756,40,0,0,4216.41,4210.641,4211.026,4229.487,4178.718,4179.231,4187.9490000000005,4191.026,4190.513,4205.897,4199.103,4208.077,4188.718,4210.255999999999,0,0
757,41,0,0,4203.846,4198.462,4198.462,4226.538,4188.718,4172.692,4179.615,4178.077,4178.462,4196.154,4185.641,4193.846,4177.564,4200.513,0,0
758,42,0,0,4184.615,4182.308,4179.872,4211.538,4188.333,4170.513,4167.821,4174.744000000001,4168.59,4178.718,4167.308,4177.0509999999995,4154.359,4177.821,0,0
759,43,0,0,4179.744000000001,4192.179,4176.667,4215.0,4163.974,4173.59,4167.308,4175.513,4169.359,4178.205,4170.897,4178.974,4159.615,4170.641,0,0
760,44,0,0,4184.872,4205.897,4183.974,4221.282,4176.538,4176.41,4174.231,4176.667,4176.538,4188.077,4183.718,4189.231,4175.128,4179.103,0,0
761,45,0,0,4186.154,4200.385,4184.744000000001,4212.179,4211.026,4175.128,4176.538,4177.436,4179.359,4192.436,4183.718,4188.462,4173.718,4181.154,0,0
762,46,0,0,4189.615,4196.667,4182.564,4211.026,4203.205,4174.872,4172.9490000000005,4175.769,4176.41,4190.255999999999,4181.41,4185.0,4169.231,4184.872,0,0
763,47,0,0,4190.255999999999,4201.41,4183.718,4218.077,4180.769,4172.821,4168.462,4174.487,4172.821,4184.231,4179.231,4185.897,4167.179,4190.897,0,0
764,48,0,0,4186.026,4200.0,4188.077,4217.9490000000005,4191.026,4175.128,4171.923,4171.154,4171.282,4181.795,4171.41,4187.0509999999995,4167.821,4186.282,0,0
765,49,0,0,4182.692,4201.795,4185.128,4218.846,4192.821,4183.718,4180.128,4175.513,4178.846,4191.538,4174.872,4183.846,4176.538,4180.255999999999,0,0
