,COUNTER, INTERPOLATED, RAW_CQ, AF3, F7, F3, FC5, T7, P7, O1, O2, P8, T8, FC6, F4, F8, AF4, MARKER_HARDWARE, MARKER
0,116,0,3081,4163.846,4190.769,4167.821,4211.41,4190.0,4187.308,4170.641,4173.077,4186.41,4165.641,4168.333,4166.538,4181.41,4155.769,0,0
1,117,0,3221,4167.179,4205.641,4165.385,4221.282,4201.538,4186.154,4177.436,4177.564,4196.026,4176.41,4173.718,4169.359,4186.538,4160.513,0,0
2,118,0,3405,4158.462,4189.231,4164.744000000001,4208.718,4186.667,4192.692,4180.513,4173.974,4191.154,4170.0,4172.821,4166.795,4183.333,4150.769,0,0
3,119,0,3249,4155.897,4173.205,4166.154,4198.59,4170.128,4191.667,4171.026,4167.564,4179.359,4161.538,4166.41,4162.692,4172.9490000000005,4141.282,0,0
4,120,0,3081,4168.077,4191.154,4167.9490000000005,4219.359,4179.103,4192.179,4176.154,4180.385,4190.769,4176.795,4174.487,4170.385,4181.41,4153.974,0,0
5,121,0,3221,4172.308,4204.103,4163.974,4226.41,4197.308,4198.59,4185.385,4191.41,4200.513,4191.538,4181.282,4173.846,4191.667,4163.974,0,0
6,122,0,3405,4163.846,4184.744000000001,4158.59,4200.0,4192.179,4192.308,4169.615,4177.692,4189.487,4176.795,4167.692,4164.103,4175.128,4151.282,0,0
7,123,0,3249,4165.513,4178.077,4170.513,4200.641,4177.692,4183.846,4169.872,4177.0509999999995,4195.255999999999,4172.9490000000005,4170.513,4171.923,4172.308,4151.667,0,0
8,124,0,3081,4174.872,4193.59,4182.308,4224.744000000001,4187.9490000000005,4192.9490000000005,4188.846,4192.308,4213.333,4190.897,4190.0,4189.487,4190.513,4166.154,0,0
9,125,0,3221,4166.795,4189.359,4168.718,4213.333,4200.255999999999,4196.41,4181.41,4190.641,4207.564,4193.205,4184.487,4176.667,4188.077,4162.564,0,0
10,126,0,3405,4157.564,4176.667,4155.641,4197.308,4188.333,4188.462,4168.462,4177.9490000000005,4193.205,4174.872,4170.641,4161.538,4172.564,4153.205,0,0
11,127,0,54,4174.103,4184.231,4174.103,4210.385,4182.179,4188.59,4181.923,4186.923,4203.205,4175.641,4184.615,4182.436,4183.846,4169.231,0,0
12,0,0,3123,4195.641,4187.821,4199.487,4217.9490000000005,4185.128,4195.385,4192.9490000000005,4200.255999999999,4215.255999999999,4193.077,4196.538,4198.718,4197.692,4187.821,0,0
13,1,0,3299,4178.077,4186.923,4180.128,4212.0509999999995,4185.128,4192.692,4179.359,4190.0,4204.615,4187.179,4179.744000000001,4177.692,4183.205,4173.333,0,0
14,2,0,2835,4168.205,4200.513,4162.436,4218.718,4195.513,4193.846,4176.41,4185.769,4197.821,4178.59,4177.436,4173.462,4178.974,4164.231,0,0
15,3,0,3521,4190.385,4210.0,4181.154,4224.615,4208.462,4196.282,4188.077,4198.205,4211.667,4192.179,4196.538,4195.897,4198.077,4183.077,0,0
16,4,0,3510,4195.513,4197.308,4192.179,4213.205,4197.821,4194.487,4189.103,4197.308,4215.769,4193.205,4195.255999999999,4195.0,4199.103,4189.231,0,0
17,5,0,1720,4184.487,4193.974,4187.436,4213.077,4192.821,4194.359,4189.103,4192.821,4208.205,4183.205,4186.41,4185.897,4189.231,4177.0509999999995,0,0
18,6,0,3265,4192.179,4202.9490000000005,4194.487,4220.641,4212.564,4197.436,4193.462,4201.795,4211.41,4188.974,4192.821,4196.667,4196.282,4180.0,0,0
19,7,0,3400,4191.026,4198.718,4192.179,4206.026,4211.026,4194.615,4183.333,4196.923,4203.974,4186.538,4188.077,4195.0,4191.538,4180.255999999999,0,0
20,8,0,3158,4171.154,4184.615,4170.641,4184.487,4188.846,4189.615,4168.974,4176.923,4185.128,4162.308,4169.744000000001,4173.333,4168.718,4162.692,0,0
21,9,0,3560,4167.0509999999995,4173.462,4166.538,4179.615,4182.436,4188.462,4168.846,4174.359,4181.41,4152.9490000000005,4165.641,4166.667,4168.205,4156.538,0,0
22,10,0,3409,4167.179,4173.974,4170.385,4183.333,4179.359,4181.41,4163.462,4178.846,4185.897,4162.179,4167.308,4169.744000000001,4177.564,4160.897,0,0
23,11,0,3256,4166.795,4182.692,4170.769,4184.744000000001,4179.103,4174.872,4153.846,4173.974,4187.0509999999995,4162.308,4162.436,4170.255999999999,4174.872,4160.897,0,0
24,12,0,3089,4165.255999999999,4180.385,4163.462,4181.026,4188.718,4178.462,4155.128,4167.0509999999995,4183.462,4152.821,4156.538,4162.308,4172.179,4151.538,0,0
25,13,0,3229,4159.615,4167.821,4155.255999999999,4174.231,4182.0509999999995,4185.641,4160.255999999999,4165.641,4173.974,4150.513,4150.897,4153.077,4169.231,4142.564,0,0
26,14,0,3409,4160.255999999999,4168.846,4160.255999999999,4178.462,4173.077,4185.128,4167.179,4176.154,4175.513,4162.436,4154.103,4156.667,4172.821,4147.564,0,0
27,15,0,3256,4171.667,4177.9490000000005,4167.821,4187.436,4184.231,4187.0509999999995,4173.462,4182.436,4189.487,4172.9490000000005,4162.0509999999995,4162.436,4183.333,4159.103,0,0
28,16,0,0,4163.974,4170.255999999999,4153.077,4177.179,4188.077,4185.513,4169.103,4172.308,4183.333,4165.385,4157.179,4150.641,4182.0509999999995,4152.9490000000005,0,0
29,17,0,0,4151.154,4159.615,4143.59,4165.0,4180.128,4183.974,4164.744000000001,4164.744000000001,4165.769,4151.538,4148.333,4144.359,4171.282,4141.41,0,0
30,18,0,0,4156.667,4165.128,4156.538,4169.231,4181.667,4183.077,4166.282,4170.897,4169.231,4152.821,4156.538,4157.821,4174.487,4146.026,0,0
31,19,0,0,4167.692,4173.59,4166.923,4172.308,4185.128,4181.538,4169.744000000001,4178.718,4181.667,4161.667,4170.128,4165.128,4186.923,4156.538,0,0
32,20,0,0,4169.103,4169.615,4166.154,4167.821,4187.692,4177.692,4176.026,4178.974,4177.692,4164.231,4170.385,4161.282,4188.462,4158.59,0,0
33,21,0,0,4167.692,4164.103,4163.846,4174.615,4185.897,4173.077,4175.385,4176.538,4166.923,4161.923,4166.538,4162.692,4184.487,4157.308,0,0
34,22,0,0,4175.513,4172.821,4170.0,4190.897,4176.923,4169.872,4169.359,4175.385,4174.231,4167.0509999999995,4174.231,4174.359,4184.231,4167.564,0,0
35,23,0,0,4185.0,4173.333,4181.795,4193.077,4181.41,4171.026,4175.641,4178.333,4193.333,4177.179,4185.769,4182.0509999999995,4188.462,4177.179,0,0
36,24,0,0,4180.255999999999,4156.538,4184.231,4183.333,4191.538,4177.436,4184.872,4183.462,4202.0509999999995,4182.821,4189.231,4177.821,4189.103,4170.385,0,0
37,25,0,0,4166.667,4158.077,4167.821,4178.718,4185.513,4176.667,4178.205,4179.231,4196.538,4178.333,4183.077,4169.487,4183.333,4158.077,0,0
38,26,0,0,4165.0,4173.846,4159.231,4172.308,4176.538,4169.872,4169.744000000001,4173.205,4188.974,4175.897,4174.231,4166.41,4177.9490000000005,4155.513,0,0
39,27,0,0,4167.564,4167.821,4164.359,4153.59,4183.846,4165.641,4171.026,4176.41,4189.872,4181.282,4172.9490000000005,4165.897,4175.513,4157.179,0,0
40,28,0,0,4161.282,4154.872,4160.0,4133.974,4189.487,4168.077,4168.077,4174.231,4188.205,4179.359,4172.179,4165.769,4175.897,4154.615,0,0
41,29,0,0,4153.846,4157.9490000000005,4149.872,4129.615,4171.538,4169.103,4164.231,4165.255999999999,4181.41,4174.103,4166.538,4164.487,4174.744000000001,4150.641,0,0
42,30,0,0,4164.487,4166.538,4160.385,4141.667,4160.0,4170.897,4176.282,4173.974,4183.462,4177.564,4166.923,4168.205,4175.769,4154.487,0,0
43,31,0,0,4173.205,4163.59,4167.308,4144.487,4178.846,4171.923,4185.385,4186.154,4189.487,4183.846,4171.538,4171.667,4178.205,4159.231,0,0
44,32,0,0,4167.692,4156.795,4159.359,4135.513,4186.667,4170.897,4177.564,4174.872,4183.59,4180.897,4168.974,4171.282,4174.103,4157.308,0,0
45,33,0,0,4164.359,4161.538,4165.385,4138.333,4173.59,4173.205,4182.179,4173.462,4181.538,4180.255999999999,4174.231,4177.564,4174.615,4158.59,0,0
46,34,0,0,4172.308,4165.0,4179.615,4142.821,4173.077,4181.667,4187.692,4182.821,4188.205,4182.692,4186.026,4185.385,4180.769,4167.9490000000005,0,0
47,35,0,0,4179.103,4161.41,4178.462,4136.538,4180.385,4181.923,4172.179,4177.436,4190.0,4180.0,4184.872,4181.667,4183.205,4174.615,0,0
48,36,0,0,4187.308,4171.667,4181.538,4149.231,4184.231,4180.641,4171.923,4178.205,4193.333,4185.513,4183.974,4182.9490000000005,4187.564,4180.769,0,0
49,37,0,0,4192.564,4180.769,4192.0509999999995,4168.846,4193.718,4187.436,4189.872,4191.154,4200.641,4191.538,4190.897,4192.179,4193.59,4183.59,0,0
50,38,0,0,4182.692,4167.308,4185.255999999999,4151.667,4188.205,4191.154,4185.769,4185.513,4195.255999999999,4184.487,4185.897,4185.513,4187.179,4175.769,0,0
51,39,0,0,4168.974,4159.487,4170.385,4128.59,4174.103,4183.077,4171.41,4169.359,4181.282,4174.744000000001,4175.769,4172.564,4173.077,4167.436,0,0
52,40,0,0,4166.026,4172.179,4168.077,4139.103,4178.718,4176.795,4176.923,4171.795,4180.641,4176.923,4179.487,4175.128,4175.769,4165.641,0,0
53,41,0,0,4171.154,4175.385,4176.41,4147.564,4184.487,4183.333,4188.205,4184.103,4189.744000000001,4185.255999999999,4183.846,4187.564,4186.026,4166.795,0,0
54,42,0,0,4161.795,4153.718,4167.821,4118.077,4165.897,4183.59,4178.205,4176.923,4180.385,4174.359,4171.538,4177.179,4173.59,4155.897,0,0
55,43,0,0,4153.846,4133.974,4155.513,4101.41,4152.9490000000005,4176.154,4160.897,4167.0509999999995,4170.513,4160.0,4165.769,4162.436,4160.641,4149.103,0,0
56,44,0,0,4168.333,4152.179,4169.231,4129.359,4168.333,4175.897,4176.282,4191.667,4196.795,4185.897,4184.359,4181.154,4187.692,4169.615,0,0
57,45,0,0,4181.026,4176.538,4187.179,4148.974,4175.385,4186.538,4199.359,4212.692,4219.487,4213.077,4196.154,4200.255999999999,4209.231,4182.692,0,0
58,46,0,0,4169.615,4166.282,4176.026,4137.0509999999995,4166.538,4190.255999999999,4181.282,4191.795,4199.744000000001,4192.9490000000005,4182.308,4182.692,4189.615,4165.385,0,0
59,47,0,0,4161.795,4148.333,4161.41,4123.59,4164.615,4189.103,4156.667,4170.769,4180.641,4171.667,4172.564,4166.538,4177.9490000000005,4154.487,0,0
60,48,0,0,4155.897,4138.718,4156.154,4115.128,4155.0,4181.154,4154.103,4168.462,4180.0,4173.974,4170.769,4162.436,4185.641,4154.487,0,0
61,49,0,0,4153.462,4132.564,4157.9490000000005,4112.821,4147.0509999999995,4180.897,4162.9490000000005,4169.487,4174.487,4168.974,4167.436,4159.359,4182.308,4151.923,0,0
62,50,0,0,4164.487,4143.846,4166.667,4124.872,4163.974,4191.795,4175.897,4178.077,4179.615,4168.333,4177.308,4169.359,4184.487,4162.308,0,0
63,51,0,0,4169.744000000001,4148.205,4167.564,4122.179,4164.615,4194.103,4175.385,4178.205,4185.128,4167.436,4181.41,4175.769,4188.462,4170.385,0,0
64,52,0,0,4161.923,4137.692,4160.897,4111.026,4144.744000000001,4189.615,4165.769,4170.255999999999,4175.641,4159.231,4169.615,4166.667,4182.564,4161.667,0,0
65,53,0,0,4165.641,4146.154,4167.0509999999995,4130.255999999999,4161.923,4193.333,4175.769,4182.308,4180.128,4172.436,4174.231,4171.41,4189.487,4159.487,0,0
66,54,0,0,4172.436,4158.974,4176.667,4142.9490000000005,4181.923,4196.154,4183.59,4193.333,4191.282,4186.026,4187.821,4180.513,4193.974,4167.692,0,0
67,55,0,0,4170.128,4157.308,4176.667,4129.615,4166.41,4193.077,4177.436,4185.897,4182.821,4178.59,4189.359,4177.308,4186.538,4174.231,0,0
68,56,0,0,4169.487,4157.821,4173.077,4125.128,4161.154,4197.9490000000005,4181.41,4184.487,4170.897,4174.231,4187.436,4173.59,4186.923,4171.282,0,0
69,57,0,0,4166.667,4157.179,4166.538,4135.255999999999,4171.41,4199.615,4180.0,4187.564,4169.359,4173.846,4182.179,4169.487,4181.795,4157.179,0,0
70,58,0,0,4165.255999999999,4154.744000000001,4166.795,4133.077,4172.692,4188.846,4172.179,4183.718,4166.154,4171.795,4177.308,4167.821,4174.872,4152.179,0,0
71,59,0,0,4163.333,4152.821,4165.0,4121.282,4177.436,4182.692,4178.59,4183.974,4166.282,4170.769,4179.744000000001,4168.077,4180.513,4157.692,0,0
72,60,0,0,4160.641,4145.385,4161.795,4117.564,4178.974,4189.487,4183.59,4185.385,4170.0,4168.333,4176.282,4167.308,4182.0509999999995,4153.077,0,0
73,61,0,0,4156.795,4146.154,4159.103,4119.872,4171.923,4190.641,4172.179,4181.282,4169.872,4170.128,4166.923,4163.462,4176.667,4143.462,0,0
74,62,0,0,4163.333,4151.282,4165.255999999999,4121.154,4165.385,4186.667,4168.718,4181.154,4170.769,4173.846,4172.308,4167.564,4181.282,4150.641,0,0
75,63,0,0,4167.436,4147.0509999999995,4172.308,4119.359,4155.641,4184.615,4174.231,4185.641,4172.308,4177.9490000000005,4178.462,4172.179,4183.077,4158.974,0,0
76,64,0,3123,4162.9490000000005,4150.0,4168.59,4126.026,4146.282,4183.205,4172.564,4186.154,4171.41,4185.641,4173.718,4168.718,4174.615,4155.897,0,0
77,65,0,3320,4162.9490000000005,4166.795,4167.0509999999995,4141.026,4157.9490000000005,4178.333,4175.897,4188.205,4173.59,4188.205,4177.436,4169.103,4175.0,4153.718,0,0
78,66,0,2845,4175.0,4171.795,4179.615,4143.462,4173.974,4184.744000000001,4187.692,4195.0,4181.923,4182.436,4188.077,4177.9490000000005,4185.255999999999,4161.923,0,0
79,67,0,3519,4176.282,4159.487,4182.179,4128.462,4162.9490000000005,4192.564,4188.462,4190.513,4187.9490000000005,4182.0509999999995,4185.897,4179.231,4190.897,4167.564,0,0
80,68,0,3529,4161.282,4147.564,4164.872,4116.538,4149.359,4188.462,4174.487,4175.128,4179.103,4178.59,4171.538,4167.9490000000005,4182.436,4157.821,0,0
81,69,0,1732,4160.513,4151.795,4162.308,4130.385,4162.308,4184.231,4170.641,4174.487,4172.9490000000005,4167.692,4167.821,4165.0,4177.179,4152.436,0,0
82,70,0,3264,4172.436,4158.59,4174.872,4133.718,4173.205,4185.641,4172.436,4175.641,4179.231,4168.077,4174.487,4171.923,4181.795,4159.744000000001,0,0
83,71,0,3401,4168.077,4153.462,4170.385,4115.0,4163.077,4181.538,4163.205,4158.462,4173.333,4166.667,4170.0,4169.744000000001,4174.103,4159.487,0,0
84,72,0,3157,4163.333,4160.513,4164.744000000001,4127.9490000000005,4160.385,4178.59,4164.744000000001,4157.179,4163.59,4160.769,4166.795,4169.359,4166.923,4156.923,0,0
85,73,0,3559,4178.333,4178.205,4178.974,4153.333,4171.923,4182.436,4182.308,4184.359,4173.462,4175.897,4182.0509999999995,4183.333,4175.513,4170.513,0,0
86,74,0,3408,4181.026,4169.872,4183.333,4133.462,4169.615,4179.487,4180.513,4182.692,4174.487,4190.641,4186.795,4184.872,4176.282,4171.667,0,0
87,75,0,3258,4172.308,4152.308,4174.744000000001,4113.718,4157.179,4179.615,4170.897,4156.41,4156.282,4179.103,4171.026,4177.0509999999995,4168.462,4158.718,0,0
88,76,0,3089,4175.641,4163.462,4174.359,4137.9490000000005,4159.103,4185.0,4181.026,4160.0,4156.923,4174.744000000001,4171.795,4181.923,4176.538,4166.795,0,0
89,77,0,3234,4187.179,4179.872,4185.513,4154.615,4170.513,4188.59,4190.897,4180.255999999999,4174.487,4192.821,4186.795,4190.897,4188.333,4181.41,0,0
90,78,0,3408,4185.128,4173.205,4189.615,4140.641,4175.128,4186.795,4189.487,4185.769,4180.769,4201.923,4191.154,4191.538,4189.872,4180.385,0,0
91,79,0,3258,4174.103,4156.282,4180.769,4126.795,4163.846,4183.077,4181.026,4177.9490000000005,4170.641,4184.487,4185.128,4184.744000000001,4181.154,4171.282,0,0
92,80,0,3089,4162.564,4148.462,4166.154,4124.615,4157.0509999999995,4177.0509999999995,4168.205,4171.41,4162.9490000000005,4171.667,4176.282,4171.282,4170.0,4159.359,0,0
93,81,0,3234,4161.026,4145.641,4163.077,4121.923,4162.9490000000005,4183.077,4166.795,4169.744000000001,4163.59,4173.59,4167.179,4165.513,4167.179,4153.333,0,0
94,82,0,3408,4170.0,4150.0,4175.897,4119.487,4166.026,4195.0,4181.795,4175.641,4167.692,4179.615,4171.667,4176.923,4176.154,4161.795,0,0
95,83,0,3258,4176.154,4158.333,4182.308,4128.462,4165.385,4195.385,4189.231,4184.231,4171.923,4182.179,4183.59,4182.0509999999995,4187.0509999999995,4171.026,0,0
96,84,0,3089,4174.872,4158.846,4177.692,4136.282,4164.872,4189.231,4180.641,4182.9490000000005,4176.282,4176.154,4181.923,4174.744000000001,4188.718,4169.615,0,0
97,85,0,3234,4176.282,4160.128,4175.513,4134.103,4163.205,4188.846,4173.59,4175.641,4178.974,4169.615,4175.769,4172.692,4179.872,4170.641,0,0
98,86,0,3408,4177.436,4163.59,4172.9490000000005,4130.513,4166.667,4189.872,4166.41,4169.359,4173.846,4163.462,4171.667,4173.974,4163.974,4171.923,0,0
99,87,0,3258,4170.769,4154.744000000001,4163.333,4129.103,4168.462,4183.846,4156.795,4159.615,4165.255999999999,4154.231,4161.923,4165.385,4154.487,4161.538,0,0
100,88,0,3089,4171.795,4155.769,4164.744000000001,4130.897,4164.231,4184.487,4159.872,4155.641,4167.0509999999995,4153.205,4159.359,4162.436,4158.205,4156.282,0,0
101,89,0,3234,4189.487,4187.308,4180.513,4142.692,4175.513,4193.462,4179.872,4171.538,4184.359,4169.744000000001,4176.923,4176.795,4168.846,4174.231,0,0
102,90,0,3408,4207.436,4207.308,4193.462,4150.385,4189.359,4197.179,4190.128,4184.615,4193.205,4180.513,4190.385,4192.436,4171.538,4196.154,0,0
103,91,0,3258,4213.846,4204.487,4192.436,4150.385,4184.872,4191.41,4179.744000000001,4178.205,4186.154,4176.154,4188.077,4194.872,4168.333,4202.179,0,0
104,92,0,3089,4223.333,4211.282,4195.897,4160.385,4180.641,4194.359,4175.769,4172.692,4179.103,4170.641,4188.205,4195.128,4167.308,4207.9490000000005,0,0
105,93,0,3234,4228.846,4223.462,4196.538,4167.0509999999995,4187.692,4195.385,4178.205,4166.667,4179.744000000001,4170.0,4190.897,4194.103,4165.641,4214.359,0,0
106,94,0,3408,4229.615,4220.0,4191.282,4159.615,4188.974,4191.026,4170.255999999999,4167.179,4183.462,4179.872,4194.231,4194.615,4164.231,4212.436,0,0
107,95,0,3258,4228.718,4210.897,4192.308,4149.744000000001,4184.231,4189.487,4167.821,4190.513,4186.282,4189.359,4201.923,4201.154,4163.846,4214.744000000001,0,0
108,96,0,3089,4240.385,4224.103,4211.667,4164.231,4194.103,4196.026,4187.0509999999995,4208.718,4195.255999999999,4200.0,4212.179,4216.154,4174.359,4235.128,0,0
109,97,0,3234,4248.718,4244.872,4222.308,4193.59,4214.744000000001,4196.667,4203.077,4203.205,4204.103,4217.179,4219.615,4223.333,4193.462,4242.0509999999995,0,0
110,98,0,3408,4226.923,4234.359,4199.872,4187.308,4215.769,4192.9490000000005,4193.718,4186.795,4188.333,4208.846,4205.0,4205.0,4188.077,4212.308,0,0
111,99,0,3258,4193.205,4195.385,4174.744000000001,4148.077,4193.846,4195.0,4174.744000000001,4166.795,4154.103,4170.897,4173.333,4179.103,4157.821,4180.641,0,0
112,100,0,3089,4183.846,4181.282,4174.103,4130.0,4177.179,4195.385,4173.718,4157.692,4145.769,4160.513,4169.872,4177.564,4149.487,4177.564,0,0
113,101,0,3234,4187.308,4193.846,4180.897,4143.718,4176.667,4189.103,4182.9490000000005,4166.282,4164.487,4176.282,4185.641,4185.769,4166.282,4180.255999999999,0,0
114,102,0,3408,4177.436,4181.282,4174.359,4144.615,4181.282,4190.128,4180.513,4171.154,4171.282,4174.359,4176.667,4175.0,4170.385,4165.641,0,0
115,103,0,3258,4162.564,4150.255999999999,4155.897,4128.077,4179.744000000001,4196.667,4162.564,4156.282,4160.769,4164.615,4152.0509999999995,4153.846,4161.154,4144.487,0,0
116,104,0,3089,4152.0509999999995,4143.205,4142.179,4115.641,4168.333,4192.821,4150.769,4143.59,4154.359,4159.872,4147.436,4141.795,4153.462,4136.667,0,0
117,105,0,3234,4162.308,4166.538,4160.0,4122.436,4175.897,4190.769,4168.59,4168.59,4168.974,4170.385,4168.846,4159.359,4163.718,4158.205,0,0
118,106,0,3408,4182.308,4182.9490000000005,4185.0,4146.795,4198.846,4196.923,4190.513,4204.615,4190.385,4200.0,4190.385,4188.59,4187.564,4181.41,0,0
119,107,0,3258,4187.179,4181.667,4185.385,4160.385,4199.231,4201.667,4192.308,4198.846,4191.795,4212.9490000000005,4192.564,4194.103,4196.154,4179.103,0,0
120,108,0,3089,4176.923,4173.718,4178.333,4147.564,4183.462,4198.077,4191.41,4181.538,4179.615,4197.436,4181.667,4181.923,4185.641,4172.9490000000005,0,0
121,109,0,3234,4170.0,4158.974,4178.974,4132.436,4175.513,4194.615,4185.897,4179.231,4163.462,4176.923,4172.692,4177.564,4167.0509999999995,4176.026,0,0
122,110,0,3408,4163.846,4158.59,4168.333,4133.718,4177.9490000000005,4193.205,4167.692,4158.974,4150.0,4168.077,4167.308,4173.846,4156.282,4170.0,0,0
123,111,0,3258,4169.231,4173.974,4167.179,4142.9490000000005,4184.615,4197.9490000000005,4169.744000000001,4148.59,4156.026,4178.718,4173.59,4175.897,4171.154,4166.923,0,0
124,112,0,3089,4182.692,4174.359,4184.744000000001,4150.255999999999,4189.615,4199.615,4190.897,4177.308,4175.769,4202.308,4190.641,4192.0509999999995,4192.9490000000005,4180.641,0,0
125,113,0,3234,4176.795,4158.333,4184.872,4139.487,4182.179,4195.255999999999,4178.59,4179.872,4169.231,4195.513,4184.872,4190.128,4178.333,4177.564,0,0
126,114,0,3408,4154.103,4151.795,4162.9490000000005,4110.128,4167.821,4189.615,4154.744000000001,4150.255999999999,4146.026,4168.205,4165.385,4169.103,4153.974,4157.564,0,0
127,115,0,3258,4158.718,4157.308,4162.564,4113.718,4166.923,4191.41,4172.692,4159.231,4153.846,4175.897,4172.308,4175.641,4168.718,4161.41,0,0
128,116,0,3089,4178.077,4160.513,4177.308,4143.59,4177.436,4199.615,4193.846,4183.718,4170.769,4193.205,4185.513,4191.667,4190.128,4172.436,0,0
129,117,0,3234,4156.667,4145.641,4156.026,4126.923,4166.026,4197.9490000000005,4167.564,4159.359,4146.282,4159.103,4157.9490000000005,4165.255999999999,4167.436,4144.615,0,0
130,118,0,3408,4136.795,4134.487,4138.846,4100.513,4155.255999999999,4190.897,4147.821,4138.718,4127.308,4133.846,4137.0509999999995,4145.128,4146.538,4127.821,0,0
131,119,0,3258,4167.308,4159.359,4167.9490000000005,4133.974,4184.487,4198.205,4184.103,4173.077,4162.692,4178.462,4172.308,4178.077,4180.0,4164.615,0,0
132,120,0,3089,4189.103,4182.436,4187.436,4163.077,4202.564,4206.41,4213.974,4205.0,4188.462,4207.9490000000005,4198.462,4201.538,4208.333,4183.974,0,0
133,121,0,3234,4161.026,4166.026,4161.795,4135.769,4180.641,4201.282,4188.974,4184.359,4162.821,4174.872,4169.231,4173.333,4173.974,4149.615,0,0
134,122,0,3408,4150.0,4150.769,4156.282,4112.308,4170.769,4199.744000000001,4169.872,4161.538,4148.077,4157.179,4148.974,4158.718,4128.59,4137.0509999999995,0,0
135,123,0,3258,4170.0,4159.359,4175.769,4126.282,4178.205,4196.41,4185.897,4178.205,4167.821,4181.154,4172.821,4180.641,4127.692,4165.641,0,0
136,124,0,3089,4173.462,4157.564,4171.538,4137.308,4179.487,4190.385,4193.974,4192.179,4174.744000000001,4187.9490000000005,4188.974,4190.513,4138.718,4174.615,0,0
137,125,0,3234,4147.821,4141.282,4147.436,4120.385,4173.077,4190.513,4173.59,4166.795,4152.9490000000005,4167.821,4166.795,4166.41,4122.692,4146.923,0,0
138,126,0,3408,4137.821,4141.538,4146.026,4118.077,4160.385,4196.538,4165.128,4150.641,4138.205,4160.385,4148.718,4149.487,4109.231,4132.308,0,0
139,127,0,54,4155.897,4164.359,4163.205,4138.077,4160.769,4194.359,4183.205,4174.744000000001,4152.9490000000005,4176.282,4163.846,4167.821,4130.0,4149.615,0,0
140,0,0,3118,4169.744000000001,4169.872,4166.538,4133.59,4173.974,4189.744000000001,4189.615,4190.128,4168.846,4187.9490000000005,4182.692,4186.154,4153.718,4166.026,0,0
141,1,0,3310,4172.308,4157.308,4169.615,4121.795,4178.846,4189.359,4190.128,4202.436,4176.41,4191.795,4189.744000000001,4189.487,4159.103,4172.308,0,0
142,2,0,2839,4180.513,4172.692,4184.487,4140.385,4181.538,4197.564,4202.179,4221.923,4186.026,4198.333,4196.667,4199.231,4167.9490000000005,4179.615,0,0
143,3,0,3521,4175.641,4190.513,4179.615,4150.513,4182.692,4201.41,4194.487,4195.897,4173.205,4191.154,4187.436,4193.205,4168.718,4167.692,0,0
144,4,0,3516,4159.487,4168.718,4157.692,4129.487,4174.103,4193.077,4169.615,4154.744000000001,4149.487,4174.103,4166.923,4167.0509999999995,4153.205,4146.667,0,0
145,5,0,1727,4164.231,4150.128,4160.769,4121.538,4161.282,4192.308,4171.795,4161.538,4152.308,4172.821,4172.179,4167.308,4157.179,4156.538,0,0
146,6,0,3266,4166.41,4156.667,4167.179,4123.333,4148.462,4194.103,4175.255999999999,4168.846,4153.59,4174.359,4179.872,4175.641,4165.769,4163.205,0,0
147,7,0,3400,4156.154,4160.641,4159.615,4115.641,4144.615,4191.41,4163.974,4153.846,4143.718,4172.179,4168.846,4165.641,4156.41,4150.255999999999,0,0
148,8,0,3156,4165.255999999999,4165.0,4166.154,4122.821,4160.513,4196.538,4173.205,4161.667,4157.564,4182.308,4173.974,4171.154,4165.255999999999,4159.615,0,0
149,9,0,3557,4186.667,4181.41,4186.667,4150.513,4182.308,4204.872,4190.255999999999,4182.436,4177.436,4201.282,4199.231,4198.077,4198.846,4184.231,0,0
150,10,0,3415,4182.0509999999995,4189.487,4184.744000000001,4156.923,4193.974,4202.692,4191.923,4188.077,4176.154,4210.513,4208.333,4201.154,4213.333,4181.538,0,0
151,11,0,3256,4165.385,4182.179,4165.897,4129.487,4190.641,4202.821,4181.41,4179.231,4161.667,4197.564,4194.231,4183.077,4197.179,4161.026,0,0
152,12,0,3087,4155.128,4169.615,4151.026,4113.333,4173.718,4200.255999999999,4162.821,4160.769,4141.026,4173.205,4173.974,4166.282,4179.615,4146.923,0,0
153,13,0,3229,4147.564,4152.308,4140.769,4111.41,4152.9490000000005,4190.769,4146.795,4138.59,4117.308,4153.846,4156.41,4151.538,4162.0509999999995,4135.769,0,0
154,14,0,3415,4131.154,4132.308,4122.0509999999995,4089.2309999999998,4131.538,4182.308,4133.205,4119.872,4094.2309999999998,4135.769,4142.692,4132.0509999999995,4138.205,4120.0,0,0
155,15,0,3256,4135.385,4136.026,4129.487,4084.2309999999998,4130.0,4188.718,4141.41,4133.205,4102.179,4146.538,4152.9490000000005,4139.744000000001,4152.0509999999995,4129.359,0,0
156,16,0,0,4163.077,4165.897,4165.0,4121.282,4158.462,4200.255999999999,4177.179,4176.41,4142.436,4189.744000000001,4186.795,4177.179,4202.564,4163.846,0,0
157,17,0,0,4166.41,4171.795,4166.026,4133.974,4165.897,4199.872,4183.205,4181.026,4144.872,4198.333,4189.103,4179.487,4207.564,4163.205,0,0
158,18,0,0,4159.103,4166.538,4152.692,4129.615,4167.564,4189.872,4165.769,4157.564,4118.974,4186.538,4175.0,4164.487,4181.795,4150.769,0,0
159,19,0,0,4166.538,4173.205,4164.872,4140.769,4182.564,4188.59,4169.231,4153.718,4111.923,4190.897,4180.255999999999,4174.359,4179.872,4166.154,0,0
160,20,0,0,4151.154,4152.436,4152.564,4115.128,4157.0509999999995,4185.385,4151.41,4137.564,4094.2309999999998,4162.821,4162.692,4165.385,4160.897,4154.231,0,0
161,21,0,0,4137.9490000000005,4140.0,4132.9490000000005,4085.897,4137.692,4175.385,4132.179,4133.462,4090.385,4140.897,4150.128,4150.0,4149.103,4138.205,0,0
162,22,0,0,4187.308,4197.564,4184.744000000001,4140.769,4201.538,4191.026,4191.282,4201.795,4157.692,4209.359,4207.9490000000005,4202.436,4222.0509999999995,4195.513,0,0
163,23,0,0,4237.0509999999995,4250.513,4246.667,4203.59,4259.744000000001,4216.41,4254.359,4259.231,4215.897,4275.769,4263.718,4263.846,4290.641,4255.0,0,0
164,24,0,0,4216.923,4226.538,4225.897,4180.897,4225.128,4210.641,4228.59,4222.179,4182.308,4237.9490000000005,4235.769,4240.0,4257.0509999999995,4227.436,0,0
165,25,0,0,4176.026,4188.974,4172.9490000000005,4142.179,4182.564,4193.077,4184.615,4173.974,4130.897,4186.282,4189.615,4188.462,4207.564,4176.282,0,0
166,26,0,0,4168.974,4183.333,4166.026,4142.692,4189.744000000001,4188.333,4187.821,4176.282,4125.128,4188.077,4185.128,4181.923,4208.974,4167.436,0,0
167,27,0,0,4168.59,4178.846,4174.744000000001,4139.487,4192.9490000000005,4186.282,4192.821,4178.462,4125.0,4191.923,4189.103,4186.538,4209.872,4168.59,0,0
168,28,0,0,4152.564,4158.333,4155.0,4117.0509999999995,4165.513,4198.974,4167.692,4147.9490000000005,4093.974,4162.308,4169.487,4166.282,4181.026,4151.923,0,0
169,29,0,0,4135.897,4147.0509999999995,4134.103,4107.692,4152.179,4217.9490000000005,4145.513,4124.872,4069.2309999999998,4137.9490000000005,4149.231,4146.026,4161.667,4135.897,0,0
170,30,0,0,4156.154,4170.385,4163.59,4133.59,4175.769,4226.282,4169.231,4155.255999999999,4095.897,4161.795,4172.436,4171.923,4188.59,4155.513,0,0
171,31,0,0,4202.9490000000005,4216.538,4217.308,4183.333,4211.795,4214.744000000001,4226.795,4222.564,4153.077,4220.769,4226.667,4230.0,4253.846,4207.0509999999995,0,0
172,32,0,0,4223.077,4236.538,4230.513,4207.9490000000005,4234.359,4194.103,4251.795,4253.077,4177.436,4252.9490000000005,4251.026,4252.179,4289.231,4234.615,0,0
173,33,0,0,4195.897,4209.872,4201.154,4179.615,4229.744000000001,4175.513,4224.744000000001,4222.0509999999995,4146.923,4222.308,4227.179,4218.718,4253.718,4206.795,0,0
174,34,0,0,4169.744000000001,4177.0509999999995,4179.744000000001,4146.41,4200.385,4163.974,4197.821,4186.795,4104.487,4176.923,4194.487,4187.308,4209.231,4171.41,0,0
175,35,0,0,4174.487,4177.821,4181.026,4145.641,4184.231,4156.154,4200.0,4184.615,4097.821,4176.667,4186.026,4188.59,4211.026,4173.077,0,0
176,36,0,0,4179.103,4188.333,4176.282,4152.308,4198.974,4160.255999999999,4200.513,4189.487,4106.923,4195.255999999999,4192.692,4189.872,4223.974,4182.692,0,0
177,37,0,0,4173.718,4183.718,4172.692,4149.103,4206.41,4176.282,4194.744000000001,4188.974,4097.179,4190.0,4195.385,4185.897,4216.282,4177.0509999999995,0,0
178,38,0,0,4179.231,4190.641,4191.026,4155.385,4200.385,4175.0,4211.282,4195.513,4089.744,4191.795,4201.026,4197.0509999999995,4222.0509999999995,4180.769,0,0
179,39,0,0,4182.821,4191.026,4195.385,4158.077,4195.897,4156.026,4211.795,4191.41,4081.795,4202.436,4200.0,4200.897,4232.821,4182.9490000000005,0,0
180,40,0,0,4164.487,4172.0509999999995,4165.255999999999,4143.718,4187.308,4135.385,4184.359,4172.0509999999995,4054.2309999999998,4188.333,4182.9490000000005,4180.128,4217.0509999999995,4166.026,0,0
181,41,0,0,4148.462,4165.128,4147.564,4135.769,4174.872,4125.0,4170.513,4157.308,4017.821,4163.333,4167.0509999999995,4165.641,4196.923,4152.564,0,0
182,42,0,0,4130.385,4148.077,4133.462,4115.0,4147.564,4112.308,4149.103,4128.718,3969.2309999999998,4137.692,4143.974,4146.795,4174.744000000001,4129.103,0,0
183,43,0,0,4127.692,4131.282,4125.255999999999,4097.308,4129.615,4110.0,4129.103,4115.0,3940.256,4127.436,4131.538,4136.923,4164.487,4118.077,0,0
184,44,0,0,4170.128,4178.846,4168.077,4141.538,4170.255999999999,4142.9490000000005,4172.692,4170.0,3990.513,4175.385,4176.923,4185.897,4211.923,4170.897,0,0
185,45,0,0,4216.795,4228.333,4223.59,4193.333,4225.0,4180.255999999999,4231.667,4228.462,4053.974,4232.308,4231.538,4242.692,4267.436,4230.513,0,0
186,46,0,0,4200.769,4196.538,4205.0,4169.487,4207.564,4173.205,4211.923,4205.641,4033.974,4211.923,4215.0,4220.255999999999,4246.667,4211.026,0,0
187,47,0,0,4171.538,4165.128,4167.308,4131.41,4164.487,4161.282,4171.667,4161.282,3997.179,4166.282,4181.282,4179.487,4203.974,4170.255999999999,0,0
188,48,0,0,4170.513,4179.359,4171.795,4135.385,4168.205,4164.872,4171.154,4157.821,4007.179,4168.205,4182.0509999999995,4180.641,4204.231,4168.462,0,0
189,49,0,0,4160.897,4165.128,4166.41,4129.231,4173.205,4148.59,4169.872,4155.0,4005.0,4166.667,4174.487,4175.513,4198.846,4162.0509999999995,0,0
190,50,0,0,4153.462,4145.128,4156.026,4126.026,4155.385,4127.821,4168.59,4153.077,3990.385,4154.744000000001,4168.974,4167.436,4189.872,4155.255999999999,0,0
191,51,0,0,4169.103,4167.9490000000005,4172.821,4150.385,4158.974,4130.513,4182.436,4171.795,4004.8720000000003,4171.282,4185.641,4182.9490000000005,4210.255999999999,4171.41,0,0
192,52,0,0,4177.821,4188.077,4182.564,4152.9490000000005,4182.9490000000005,4141.026,4185.897,4180.897,4019.3590000000004,4186.026,4191.154,4193.077,4224.615,4181.923,0,0
193,53,0,0,4172.821,4178.718,4168.846,4139.615,4188.974,4159.231,4173.205,4172.0509999999995,4013.205,4177.0509999999995,4184.872,4187.9490000000005,4212.0509999999995,4174.103,0,0
194,54,0,0,4169.872,4166.026,4163.974,4139.615,4175.0,4193.077,4167.308,4161.026,4005.7690000000002,4167.821,4181.282,4183.974,4198.974,4167.564,0,0
195,55,0,0,4163.718,4157.0509999999995,4164.359,4135.0,4165.641,4206.538,4170.128,4153.974,4005.7690000000002,4165.769,4177.692,4177.0509999999995,4205.769,4165.641,0,0
196,56,0,0,4153.718,4142.308,4152.821,4121.41,4158.333,4181.026,4166.282,4142.821,3996.923,4150.641,4164.744000000001,4162.9490000000005,4202.308,4154.359,0,0
197,57,0,0,4151.923,4139.872,4150.255999999999,4123.59,4153.077,4161.282,4162.436,4131.795,3988.205,4140.0,4152.692,4155.385,4183.59,4146.154,0,0
198,58,0,0,4165.0,4157.821,4168.462,4138.846,4166.538,4168.846,4172.9490000000005,4148.205,4002.692,4152.179,4159.872,4166.41,4185.641,4156.795,0,0
199,59,0,0,4170.128,4165.0,4173.077,4143.077,4181.538,4165.0,4179.615,4177.821,4024.615,4166.795,4174.231,4174.744000000001,4208.205,4168.077,0,0
200,60,0,0,4166.667,4156.282,4167.9490000000005,4139.231,4176.795,4154.359,4171.41,4189.103,4033.974,4170.641,4174.615,4173.462,4225.128,4167.9490000000005,0,0
201,61,0,0,4163.974,4157.821,4166.923,4140.513,4175.255999999999,4159.487,4170.255999999999,4183.333,4030.6409999999996,4167.179,4169.487,4170.897,4221.026,4162.9490000000005,0,0
202,62,0,0,4166.41,4162.179,4163.205,4140.385,4181.026,4172.308,4176.667,4159.103,4016.41,4154.872,4166.538,4166.026,4198.077,4159.103,0,0
203,63,0,0,4165.769,4153.846,4162.692,4134.103,4178.205,4175.641,4175.0,4132.436,4008.462,4145.385,4159.744000000001,4160.0,4182.0509999999995,4155.513,0,0
204,64,0,3137,4158.974,4151.795,4166.41,4133.846,4168.077,4176.667,4170.513,4135.897,4015.7690000000002,4151.282,4155.0,4159.103,4186.41,4148.718,0,0
205,65,0,3329,4146.923,4154.744000000001,4153.205,4132.821,4160.385,4174.744000000001,4170.255999999999,4149.231,4017.821,4151.026,4150.255999999999,4154.487,4183.846,4137.692,0,0
206,66,0,2853,4147.9490000000005,4152.821,4144.872,4129.744000000001,4163.077,4178.205,4168.205,4147.436,4017.051,4143.462,4148.333,4154.103,4173.718,4138.333,0,0
207,67,0,3534,4167.308,4161.667,4171.538,4134.231,4174.359,4186.795,4170.897,4159.487,4034.2309999999998,4157.564,4160.897,4172.821,4185.769,4155.897,0,0
208,68,0,3524,4172.436,4170.769,4182.179,4142.308,4177.564,4185.897,4171.538,4171.282,4042.179,4170.897,4168.077,4180.128,4196.154,4163.974,0,0
209,69,0,1725,4161.41,4154.872,4162.9490000000005,4140.0,4177.821,4183.333,4159.359,4155.255999999999,4035.0,4161.154,4162.564,4167.179,4188.974,4156.026,0,0
210,70,0,3269,4158.974,4152.308,4159.103,4135.769,4184.744000000001,4185.128,4154.744000000001,4150.769,4045.0,4161.026,4165.897,4165.769,4191.41,4154.615,0,0
211,71,0,3407,4165.641,4172.179,4169.744000000001,4147.692,4176.026,4189.103,4156.667,4159.487,4058.205,4165.513,4168.846,4172.692,4196.41,4158.205,0,0
212,72,0,3170,4163.333,4165.0,4165.385,4152.0509999999995,4165.0,4187.692,4149.487,4153.462,4052.179,4153.333,4157.0509999999995,4166.41,4184.359,4150.769,0,0
213,73,0,3579,4160.641,4146.923,4162.564,4144.103,4178.077,4189.487,4153.718,4152.9490000000005,4053.077,4150.513,4155.641,4163.974,4178.974,4148.974,0,0
214,74,0,3422,4162.821,4160.897,4168.846,4150.897,4192.308,4192.0509999999995,4171.795,4168.846,4071.026,4163.077,4167.179,4168.974,4192.436,4158.462,0,0
215,75,0,3275,4166.282,4178.205,4170.128,4158.59,4185.128,4194.359,4174.872,4171.667,4076.026,4160.0,4163.59,4170.513,4195.128,4162.564,0,0
216,76,0,3097,4158.846,4168.59,4161.282,4146.795,4177.9490000000005,4192.179,4167.308,4171.154,4072.4359999999997,4154.103,4153.718,4164.231,4186.795,4154.615,0,0
217,77,0,3246,4158.718,4168.718,4162.564,4148.846,4183.846,4192.179,4175.769,4187.692,4084.487,4166.282,4162.179,4162.9490000000005,4197.0509999999995,4153.974,0,0
218,78,0,3422,4174.872,4185.0,4181.282,4165.769,4186.41,4196.026,4193.59,4192.436,4104.231,4173.974,4173.59,4174.359,4212.436,4165.769,0,0
219,79,0,3275,4182.179,4179.744000000001,4187.564,4166.026,4184.103,4197.564,4188.974,4167.9490000000005,4103.333,4173.846,4171.41,4179.615,4201.667,4170.128,0,0
220,80,0,3097,4169.103,4163.333,4167.692,4161.026,4187.9490000000005,4189.872,4170.769,4146.026,4086.923,4174.359,4163.974,4170.0,4181.282,4162.564,0,0
221,81,0,3246,4160.0,4163.205,4159.359,4158.974,4197.692,4182.308,4168.974,4142.821,4084.2309999999998,4166.795,4156.282,4164.487,4180.897,4159.359,0,0
222,82,0,3422,4164.487,4171.538,4171.154,4153.205,4190.641,4181.41,4175.0,4146.795,4095.256,4160.769,4156.795,4168.077,4187.0509999999995,4163.077,0,0
223,83,0,3275,4172.436,4163.205,4177.308,4150.897,4170.128,4177.179,4168.077,4159.231,4104.615,4165.641,4165.897,4171.795,4179.359,4165.385,0,0
224,84,0,3097,4184.615,4157.179,4185.255999999999,4151.282,4170.769,4174.744000000001,4167.9490000000005,4170.641,4105.385,4166.538,4170.255999999999,4179.872,4163.333,4172.179,0,0
225,85,0,3246,4187.821,4174.615,4186.538,4159.872,4179.872,4178.974,4173.462,4164.487,4107.692,4163.59,4170.641,4183.205,4155.385,4175.897,0,0
226,86,0,3422,4176.026,4184.231,4169.615,4167.179,4175.641,4178.718,4157.179,4152.0509999999995,4110.513,4164.231,4167.0509999999995,4172.692,4161.026,4163.718,0,0
227,87,0,3275,4165.0,4171.154,4158.974,4156.538,4173.59,4177.308,4141.667,4148.59,4109.103,4157.308,4156.026,4162.308,4166.026,4147.0509999999995,0,0
228,88,0,3097,4168.077,4162.9490000000005,4163.974,4150.128,4179.744000000001,4186.923,4148.974,4148.846,4107.436,4144.872,4148.974,4163.59,4158.974,4141.41,0,0
229,89,0,3246,4170.385,4170.769,4162.821,4157.179,4175.769,4194.231,4154.231,4146.923,4110.769,4143.077,4148.077,4165.255999999999,4150.513,4143.59,0,0
230,90,0,3422,4169.872,4171.538,4166.026,4161.41,4174.103,4193.462,4156.667,4154.615,4123.205,4152.308,4151.026,4166.795,4159.359,4145.769,0,0
231,91,0,3275,4167.308,4169.103,4170.641,4162.9490000000005,4182.692,4187.308,4172.179,4164.103,4136.923,4162.692,4160.641,4169.872,4176.795,4147.821,0,0
232,92,0,3097,4167.0509999999995,4171.41,4165.0,4160.897,4174.615,4180.641,4173.205,4162.9490000000005,4139.615,4160.769,4163.205,4170.769,4177.821,4153.333,0,0
233,93,0,3246,4171.282,4174.231,4166.667,4164.231,4173.462,4175.128,4172.0509999999995,4167.308,4140.513,4157.564,4161.41,4172.821,4166.667,4161.41,0,0
234,94,0,3422,4179.231,4176.667,4179.615,4179.103,4187.9490000000005,4185.255999999999,4190.128,4176.795,4151.026,4168.205,4171.026,4180.128,4167.179,4169.103,0,0
235,95,0,3275,4173.718,4171.538,4174.231,4175.513,4185.128,4197.692,4197.564,4169.103,4156.795,4171.923,4169.872,4177.692,4175.128,4165.0,0,0
236,96,0,3097,4163.718,4162.821,4163.718,4159.231,4171.795,4189.872,4195.255999999999,4155.385,4155.255999999999,4168.333,4154.103,4167.0509999999995,4166.923,4157.0509999999995,0,0
237,97,0,3246,4163.846,4154.615,4169.487,4161.026,4172.692,4166.538,4187.564,4150.641,4158.846,4171.026,4152.308,4163.077,4146.923,4154.872,0,0
238,98,0,3422,4163.462,4152.308,4163.59,4170.769,4181.41,4161.41,4163.333,4139.103,4158.718,4161.923,4152.821,4157.436,4135.513,4149.872,0,0
239,99,0,3275,4153.462,4162.9490000000005,4141.795,4166.41,4181.923,4168.846,4140.769,4129.103,4155.255999999999,4144.872,4138.077,4147.0509999999995,4139.615,4141.667,0,0
240,100,0,3097,4148.077,4167.308,4142.821,4156.41,4178.718,4156.282,4156.667,4138.205,4164.359,4151.923,4136.538,4148.974,4152.821,4142.692,0,0
241,101,0,3246,4156.154,4161.154,4162.179,4161.667,4173.205,4133.846,4174.487,4145.255999999999,4174.231,4167.0509999999995,4149.231,4157.821,4160.641,4148.718,0,0
242,102,0,3422,4151.538,4160.385,4151.154,4167.308,4167.0509999999995,4116.282,4150.641,4132.9490000000005,4169.103,4157.436,4145.513,4146.667,4151.154,4140.0,0,0
243,103,0,3275,4132.436,4159.744000000001,4126.154,4155.513,4160.385,4112.9490000000005,4127.179,4123.846,4165.641,4142.9490000000005,4132.692,4131.923,4135.128,4126.667,0,0
244,104,0,3097,4124.872,4151.538,4123.59,4145.769,4150.128,4110.641,4126.154,4127.564,4168.718,4144.744000000001,4133.718,4131.923,4130.385,4122.564,0,0
245,105,0,3246,4139.359,4150.255999999999,4141.538,4152.821,4141.923,4106.154,4136.41,4135.128,4176.923,4153.718,4142.179,4143.333,4136.795,4131.154,0,0
246,106,0,3422,4145.769,4158.59,4147.436,4156.923,4144.103,4113.59,4135.769,4138.59,4188.718,4162.0509999999995,4144.359,4152.0509999999995,4145.769,4139.359,0,0
247,107,0,3275,4138.333,4161.154,4139.103,4159.103,4145.897,4140.769,4131.026,4140.385,4194.615,4163.077,4142.564,4150.769,4146.41,4136.026,0,0
248,108,0,3097,4132.436,4153.462,4133.59,4168.718,4142.308,4158.846,4145.0,4148.974,4191.154,4161.538,4141.667,4144.744000000001,4135.769,4131.282,0,0
249,109,0,3246,4128.462,4142.436,4132.0509999999995,4163.333,4150.128,4160.897,4163.077,4149.872,4184.359,4158.718,4138.974,4140.769,4130.255999999999,4130.513,0,0
250,110,0,3422,4124.615,4136.41,4126.795,4144.359,4158.846,4161.026,4146.41,4141.154,4189.359,4158.077,4136.41,4137.564,4141.282,4127.308,0,0
251,111,0,3275,4132.179,4136.667,4131.282,4140.897,4148.077,4157.564,4107.692,4136.538,4203.077,4162.9490000000005,4139.103,4138.59,4149.487,4125.897,0,0
252,112,0,3097,4141.41,4144.487,4145.255999999999,4154.744000000001,4142.0509999999995,4165.255999999999,4110.128,4137.821,4213.846,4166.538,4142.692,4146.41,4143.846,4130.0,0,0
253,113,0,3246,4139.872,4151.795,4145.255999999999,4153.077,4143.718,4189.744000000001,4136.667,4137.308,4214.103,4158.846,4140.385,4148.846,4133.718,4130.641,0,0
254,114,0,3422,4143.718,4140.0,4143.077,4141.667,4136.923,4203.077,4139.487,4136.795,4212.0509999999995,4155.641,4140.128,4149.103,4130.0,4132.179,0,0
255,115,0,3275,4151.026,4131.154,4149.103,4148.077,4135.641,4198.846,4137.0509999999995,4137.9490000000005,4215.897,4162.9490000000005,4141.026,4150.641,4133.333,4134.744000000001,0,0
256,116,0,3097,4145.769,4148.59,4148.333,4161.667,4146.026,4187.9490000000005,4148.718,4140.385,4219.359,4162.821,4137.9490000000005,4149.487,4135.385,4130.641,0,0
257,117,0,3246,4141.41,4163.333,4146.154,4160.769,4155.255999999999,4173.718,4160.513,4147.821,4225.769,4164.359,4137.308,4150.255999999999,4134.103,4129.872,0,0
258,118,0,3422,4150.769,4150.0,4155.128,4144.744000000001,4149.615,4170.255999999999,4158.846,4153.846,4233.333,4172.308,4140.0,4156.026,4138.077,4137.436,0,0
259,119,0,3275,4154.615,4130.513,4157.179,4136.923,4133.846,4178.077,4150.128,4159.615,4237.692,4171.538,4144.872,4159.744000000001,4147.692,4141.026,0,0
260,120,0,3097,4154.872,4136.795,4154.615,4150.128,4140.255999999999,4178.462,4146.667,4159.103,4235.769,4172.564,4151.538,4165.128,4148.333,4142.9490000000005,0,0
261,121,0,3246,4153.077,4150.769,4154.359,4159.231,4156.026,4172.692,4142.436,4145.385,4232.436,4181.795,4153.59,4162.9490000000005,4143.333,4145.513,0,0
262,122,0,3422,4149.615,4143.974,4151.282,4150.0,4142.0509999999995,4192.821,4139.103,4135.0,4223.718,4173.59,4149.231,4153.59,4137.564,4141.154,0,0
263,123,0,3275,4151.026,4136.026,4151.026,4148.333,4133.077,4221.154,4142.0509999999995,4137.308,4217.308,4161.795,4147.179,4153.974,4131.667,4137.692,0,0
264,124,0,3097,4155.769,4146.026,4159.487,4155.641,4147.9490000000005,4228.077,4137.564,4134.615,4220.641,4161.923,4148.205,4162.308,4126.154,4142.821,0,0
265,125,0,3246,4162.564,4160.513,4170.255999999999,4160.255999999999,4152.9490000000005,4224.744000000001,4151.923,4145.769,4229.744000000001,4169.615,4158.333,4172.0509999999995,4133.462,4159.103,0,0
266,126,0,3422,4184.872,4165.769,4187.179,4172.9490000000005,4156.282,4233.205,4189.103,4177.821,4241.154,4183.333,4177.179,4192.692,4154.872,4182.436,0,0
267,127,0,54,4186.538,4156.41,4186.026,4167.821,4155.641,4233.462,4167.692,4163.462,4230.769,4176.41,4171.538,4191.026,4153.59,4175.385,0,0
268,0,0,3129,4166.154,4149.744000000001,4167.0509999999995,4158.59,4149.231,4223.333,4119.359,4130.641,4217.179,4159.231,4157.564,4169.359,4141.795,4152.308,0,0
269,1,0,3329,4173.077,4173.718,4172.308,4185.897,4166.795,4225.385,4143.846,4155.641,4241.795,4179.744000000001,4177.692,4179.872,4161.41,4165.897,0,0
270,2,0,2841,4191.026,4184.487,4189.744000000001,4202.692,4179.615,4229.615,4180.128,4179.359,4261.026,4201.923,4196.282,4198.205,4183.462,4185.513,0,0
271,3,0,3536,4180.897,4158.974,4182.0509999999995,4183.205,4158.846,4221.154,4160.385,4156.282,4237.564,4179.103,4177.9490000000005,4183.974,4171.667,4167.9490000000005,0,0
272,4,0,3527,4164.615,4152.308,4166.538,4177.0509999999995,4157.564,4214.744000000001,4155.641,4153.077,4226.154,4166.538,4165.0,4170.0,4159.872,4152.821,0,0
273,5,0,1738,4165.641,4168.462,4167.0509999999995,4185.255999999999,4177.436,4215.385,4184.359,4174.487,4239.744000000001,4178.718,4175.513,4177.436,4164.872,4162.308,0,0
274,6,0,3250,4150.513,4142.9490000000005,4150.769,4158.974,4156.667,4205.128,4172.436,4145.769,4216.282,4155.128,4160.255999999999,4161.154,4148.205,4146.923,0,0
275,7,0,3385,4141.667,4113.59,4140.128,4138.846,4127.821,4200.641,4138.846,4116.026,4189.487,4131.538,4140.128,4144.487,4127.692,4130.128,0,0
276,8,0,3148,4168.974,4155.513,4168.718,4176.026,4153.333,4216.282,4165.513,4154.487,4221.41,4167.692,4170.897,4173.205,4152.308,4162.436,0,0
277,9,0,3573,4198.718,4198.718,4202.692,4208.333,4193.718,4230.0,4226.154,4206.026,4265.385,4211.41,4209.359,4210.513,4195.513,4203.462,0,0
278,10,0,3423,4183.718,4177.564,4190.128,4193.59,4190.255999999999,4220.897,4203.59,4196.538,4259.615,4204.359,4194.231,4198.462,4190.513,4186.923,0,0
279,11,0,3261,4153.846,4145.128,4154.615,4170.385,4161.154,4212.179,4129.872,4153.077,4226.795,4166.795,4159.359,4159.359,4150.0,4146.538,0,0
280,12,0,3097,4167.821,4163.59,4165.769,4186.538,4162.9490000000005,4216.282,4148.333,4156.026,4235.513,4170.385,4174.487,4171.667,4158.077,4163.077,0,0
281,13,0,3234,4196.538,4194.615,4202.0509999999995,4212.821,4188.846,4225.128,4211.538,4203.333,4266.154,4204.872,4208.846,4211.41,4192.821,4198.846,0,0
282,14,0,3423,4186.282,4187.436,4197.692,4206.667,4192.436,4230.897,4206.923,4226.026,4262.436,4202.564,4202.692,4205.897,4183.846,4188.462,0,0
283,15,0,3261,4165.769,4167.692,4172.0509999999995,4188.974,4176.538,4229.359,4178.846,4187.308,4239.231,4175.641,4181.795,4180.128,4163.077,4166.795,0,0
284,16,0,0,4171.154,4171.923,4175.513,4182.692,4180.128,4226.538,4183.59,4148.59,4237.0509999999995,4174.615,4184.103,4182.9490000000005,4177.436,4175.255999999999,0,0
285,17,0,0,4183.59,4186.026,4191.154,4189.615,4194.744000000001,4234.231,4193.718,4163.077,4246.154,4190.897,4194.103,4196.282,4191.41,4188.59,0,0
286,18,0,0,4176.41,4176.026,4185.0,4191.667,4194.359,4239.487,4189.615,4176.026,4236.667,4187.179,4189.231,4190.641,4175.128,4180.513,0,0
287,19,0,0,4167.0509999999995,4167.0509999999995,4173.846,4188.462,4190.128,4232.821,4180.641,4165.641,4226.41,4181.41,4183.718,4181.667,4166.923,4170.385,0,0
288,20,0,0,4176.41,4172.692,4179.487,4185.641,4190.769,4232.564,4182.692,4173.462,4232.179,4185.641,4184.359,4183.59,4172.308,4174.744000000001,0,0
289,21,0,0,4187.0509999999995,4174.744000000001,4187.179,4184.231,4188.718,4240.897,4190.769,4191.923,4241.41,4188.205,4187.179,4189.615,4172.308,4182.821,0,0
290,22,0,0,4176.923,4169.744000000001,4177.692,4183.846,4180.385,4237.9490000000005,4179.359,4182.0509999999995,4233.718,4182.179,4182.9490000000005,4185.385,4165.128,4174.744000000001,0,0
291,23,0,0,4163.718,4165.128,4163.59,4176.154,4176.026,4227.308,4167.179,4166.41,4222.0509999999995,4177.436,4175.0,4175.128,4164.487,4164.487,0,0
292,24,0,0,4171.538,4161.282,4165.769,4170.128,4177.308,4224.487,4173.846,4169.615,4223.846,4182.564,4174.359,4173.59,4166.795,4170.128,0,0
293,25,0,0,4160.513,4144.487,4154.744000000001,4160.897,4167.308,4217.821,4166.282,4169.359,4213.59,4165.128,4160.385,4157.179,4144.744000000001,4158.333,0,0
294,26,0,0,4147.436,4136.41,4148.718,4162.308,4160.255999999999,4217.308,4153.205,4157.9490000000005,4202.9490000000005,4147.564,4148.974,4147.821,4133.205,4145.769,0,0
295,27,0,0,4162.821,4152.436,4167.692,4176.667,4181.282,4226.538,4177.9490000000005,4157.308,4217.564,4165.255999999999,4167.179,4167.9490000000005,4162.436,4165.128,0,0
296,28,0,0,4188.462,4177.179,4193.077,4193.077,4205.255999999999,4235.128,4227.436,4192.179,4247.308,4195.513,4195.513,4193.718,4194.359,4195.769,0,0
297,29,0,0,4193.462,4187.821,4197.436,4201.154,4201.282,4233.718,4220.128,4212.179,4257.9490000000005,4208.077,4201.795,4198.846,4195.128,4204.359,0,0
298,30,0,0,4175.897,4168.846,4176.282,4181.923,4182.692,4220.769,4155.769,4173.974,4231.795,4185.255999999999,4178.974,4178.462,4172.308,4179.744000000001,0,0
299,31,0,0,4162.308,4148.974,4163.077,4158.846,4171.154,4203.077,4135.128,4147.0509999999995,4208.077,4162.436,4159.359,4161.538,4159.744000000001,4157.9490000000005,0,0
300,32,0,0,4181.026,4174.487,4186.282,4181.154,4186.795,4206.667,4185.0,4181.538,4233.718,4190.641,4183.718,4183.462,4185.641,4179.231,0,0
301,33,0,0,4201.282,4205.897,4208.462,4218.333,4212.0509999999995,4225.513,4211.154,4215.641,4263.974,4227.9490000000005,4212.9490000000005,4211.154,4216.923,4208.077,0,0
302,34,0,0,4179.103,4174.359,4184.231,4195.897,4196.923,4224.487,4183.974,4191.026,4234.872,4203.077,4185.128,4188.846,4192.821,4187.9490000000005,0,0
303,35,0,0,4168.59,4153.462,4169.359,4176.923,4178.333,4217.564,4182.179,4167.692,4208.205,4179.615,4164.615,4171.667,4166.667,4167.692,0,0
304,36,0,0,4190.897,4196.154,4189.231,4218.333,4206.667,4224.872,4207.564,4188.205,4231.026,4212.692,4196.026,4196.282,4193.333,4193.077,0,0
305,37,0,0,4198.846,4215.641,4195.769,4235.897,4222.821,4228.462,4209.744000000001,4202.179,4243.59,4230.641,4212.564,4209.359,4213.333,4208.59,0,0
306,38,0,0,4187.9490000000005,4189.231,4183.205,4200.897,4202.436,4217.9490000000005,4193.974,4187.436,4228.974,4213.205,4197.692,4197.821,4199.744000000001,4194.231,0,0
307,39,0,0,4185.385,4176.795,4180.128,4184.872,4195.897,4213.846,4181.795,4178.333,4218.846,4201.923,4189.359,4192.0509999999995,4186.667,4189.103,0,0
308,40,0,0,4187.821,4187.0509999999995,4184.615,4199.872,4198.974,4214.744000000001,4176.154,4188.59,4220.0,4203.205,4190.255999999999,4191.538,4186.923,4197.0509999999995,0,0
309,41,0,0,4191.538,4189.744000000001,4188.077,4199.487,4191.667,4210.513,4171.538,4185.128,4216.923,4198.462,4187.821,4189.615,4185.0,4198.333,0,0
310,42,0,0,4190.769,4183.462,4188.974,4189.744000000001,4189.487,4202.179,4169.872,4179.615,4214.231,4192.821,4185.641,4190.641,4181.923,4194.615,0,0
311,43,0,0,4187.308,4175.513,4188.462,4191.923,4190.128,4200.385,4171.154,4185.385,4215.641,4191.538,4184.744000000001,4191.026,4184.487,4195.641,0,0
312,44,0,0,4186.026,4175.513,4183.205,4193.846,4192.179,4200.897,4172.0509999999995,4185.769,4216.026,4186.923,4184.359,4184.744000000001,4187.564,4193.974,0,0
313,45,0,0,4188.333,4176.667,4186.026,4194.359,4196.41,4201.795,4177.564,4184.487,4216.923,4184.872,4182.9490000000005,4183.718,4185.897,4193.59,0,0
314,46,0,0,4186.923,4166.667,4192.0509999999995,4193.718,4192.692,4200.897,4183.974,4186.795,4216.667,4188.59,4182.436,4187.9490000000005,4183.077,4194.744000000001,0,0
315,47,0,0,4185.897,4165.769,4185.255999999999,4193.59,4189.744000000001,4199.872,4180.385,4183.718,4212.821,4190.128,4186.795,4186.795,4185.255999999999,4190.128,0,0
316,48,0,0,4184.487,4172.436,4175.769,4188.205,4192.179,4192.308,4168.718,4172.179,4201.923,4184.103,4184.103,4182.692,4183.59,4185.128,0,0
317,49,0,0,4174.103,4157.179,4167.308,4174.615,4177.0509999999995,4178.205,4153.974,4158.718,4185.385,4167.821,4168.974,4173.718,4162.564,4178.333,0,0
318,50,0,0,4176.282,4145.641,4174.487,4176.154,4173.462,4178.333,4157.308,4160.769,4181.41,4160.385,4166.923,4175.128,4153.974,4178.462,0,0
319,51,0,0,4207.821,4184.359,4205.897,4198.077,4216.026,4195.255999999999,4193.205,4196.026,4211.282,4196.026,4199.744000000001,4205.769,4189.872,4205.769,0,0
320,52,0,0,4233.846,4228.077,4233.974,4243.59,4243.59,4208.462,4228.718,4237.179,4247.821,4241.154,4232.692,4238.333,4230.513,4238.077,0,0
321,53,0,0,4223.462,4216.667,4223.205,4233.077,4225.641,4208.718,4221.41,4232.821,4247.436,4236.923,4229.487,4234.359,4228.718,4236.923,0,0
322,54,0,0,4211.667,4189.872,4208.974,4061.667,4207.308,4207.821,4200.385,4206.154,4232.821,4215.897,4214.615,4219.872,4208.333,4223.205,0,0
323,55,0,0,4211.026,4190.769,4211.026,3860.897,4206.282,4207.821,4204.359,4204.487,4230.641,4215.255999999999,4211.667,4215.513,4198.718,4218.846,0,0
324,56,0,0,4204.103,4192.9490000000005,4199.359,3814.744,4203.333,4213.077,4202.179,4208.077,4219.872,4204.744000000001,4201.282,4201.41,4191.026,4210.255999999999,0,0
325,57,0,0,4194.872,4180.641,4183.846,3845.7690000000002,4205.0,4219.103,4187.564,4195.128,4206.667,4188.974,4188.718,4188.974,4190.897,4201.667,0,0
326,58,0,0,4199.359,4179.615,4191.154,3833.8459999999995,4209.615,4213.59,4189.231,4187.821,4211.026,4189.872,4192.9490000000005,4196.154,4194.744000000001,4204.231,0,0
327,59,0,0,4209.103,4192.308,4205.0,3835.385,4206.795,4203.718,4203.205,4197.9490000000005,4219.487,4196.282,4201.795,4207.436,4196.795,4212.308,0,0
328,60,0,0,4216.667,4195.513,4209.744000000001,3865.1279999999997,4203.462,4218.077,4207.436,4205.0,4219.231,4197.692,4203.205,4210.385,4202.9490000000005,4220.128,0,0
329,61,0,0,4211.923,4186.667,4203.718,3867.051,4205.641,4238.333,4199.615,4200.385,4218.974,4197.308,4201.282,4205.385,4205.0,4218.462,0,0
330,62,0,0,4205.128,4182.564,4197.564,3862.179,4207.564,4240.385,4195.385,4197.179,4227.9490000000005,4190.897,4197.179,4200.0,4198.333,4208.59,0,0
331,63,0,0,4210.255999999999,4183.974,4203.59,3871.026,4202.308,4237.308,4194.872,4201.41,4244.744000000001,4189.872,4196.41,4204.103,4195.255999999999,4210.0,0,0
332,64,0,3118,4217.436,4185.128,4212.179,3887.179,4199.231,4242.821,4192.308,4204.744000000001,4251.026,4199.231,4200.897,4212.436,4197.0509999999995,4220.128,0,0
333,65,0,3317,4215.128,4194.872,4208.846,3890.0,4202.564,4244.103,4188.59,4202.692,4248.333,4200.255999999999,4201.795,4213.974,4195.385,4222.308,0,0
334,66,0,2835,4211.154,4198.462,4206.026,3880.897,4201.026,4241.923,4191.667,4203.333,4255.385,4195.897,4201.154,4216.41,4194.615,4221.154,0,0
335,67,0,3524,4216.026,4192.821,4211.538,3885.7690000000002,4198.462,4249.487,4200.769,4208.59,4268.718,4206.538,4208.846,4225.897,4202.564,4225.0,0,0
336,68,0,3508,4219.103,4202.0509999999995,4210.897,3901.1540000000005,4208.205,4256.282,4208.205,4217.564,4277.692,4223.205,4219.231,4230.255999999999,4214.103,4227.564,0,0
337,69,0,1776,4215.255999999999,4205.897,4207.179,3900.0,4216.795,4253.974,4207.692,4220.255999999999,4272.692,4217.308,4216.41,4221.667,4210.385,4223.077,0,0
338,70,0,3261,4206.795,4189.872,4201.41,3886.795,4213.462,4248.462,4202.308,4206.154,4258.333,4199.359,4204.487,4205.0,4198.846,4213.333,0,0
339,71,0,3389,4203.718,4183.59,4195.0,3880.385,4208.077,4248.974,4206.282,4213.59,4265.128,4193.462,4195.255999999999,4197.179,4200.255999999999,4208.462,0,0
340,72,0,3151,4198.462,4184.744000000001,4187.0509999999995,3874.103,4201.923,4225.255999999999,4204.615,4233.333,4281.795,4188.59,4187.9490000000005,4192.308,4204.103,4205.897,0,0
341,73,0,3566,4196.282,4172.821,4181.41,3866.026,4201.667,4170.897,4187.821,4207.821,4265.897,4175.255999999999,4182.179,4183.077,4196.41,4201.538,0,0
342,74,0,3425,4199.487,4164.872,4182.564,3871.1540000000005,4205.769,4136.795,4181.282,4165.641,4240.385,4172.179,4179.744000000001,4176.026,4192.564,4196.026,0,0
343,75,0,3261,4204.744000000001,4173.333,4192.436,3891.923,4211.026,4148.846,4193.077,4173.205,4244.487,4185.0,4182.436,4182.0509999999995,4200.385,4200.769,0,0
344,76,0,3092,4207.821,4181.795,4196.154,3899.8720000000003,4220.385,4157.0509999999995,4207.9490000000005,4201.026,4258.077,4197.436,4186.282,4186.41,4203.846,4210.513,0,0
345,77,0,3234,4213.077,4176.154,4201.923,3891.538,4220.513,4156.923,4216.923,4199.744000000001,4253.846,4201.282,4187.692,4188.462,4198.718,4212.179,0,0
346,78,0,3425,4215.769,4180.0,4212.564,3903.333,4220.385,4178.462,4212.564,4193.462,4243.846,4206.282,4190.769,4197.9490000000005,4195.128,4211.538,0,0
347,79,0,3261,4215.255999999999,4203.205,4211.41,3923.077,4229.744000000001,4201.154,4202.821,4195.385,4240.769,4211.795,4196.667,4203.974,4196.154,4212.821,0,0
348,80,0,3092,4217.564,4209.231,4209.744000000001,3913.333,4230.128,4203.333,4203.59,4199.103,4237.692,4209.103,4196.282,4204.487,4195.641,4213.077,0,0
349,81,0,3234,4213.077,4191.538,4208.974,3896.538,4214.103,4215.513,4207.0509999999995,4198.077,4229.744000000001,4198.846,4188.974,4202.436,4192.179,4209.359,0,0
350,82,0,3425,4202.179,4184.872,4200.897,3897.179,4210.897,4243.077,4200.128,4190.255999999999,4225.897,4194.744000000001,4184.615,4198.59,4188.974,4203.846,0,0
351,83,0,3261,4196.795,4184.487,4191.026,3897.051,4216.41,4255.897,4183.974,4180.641,4225.641,4196.923,4179.103,4188.077,4181.923,4192.436,0,0
352,84,0,3092,4198.718,4178.077,4188.846,3900.513,4208.077,4250.641,4175.128,4172.0509999999995,4223.974,4197.692,4174.231,4184.231,4180.255999999999,4187.308,0,0
353,85,0,3234,4195.897,4184.872,4188.59,3909.487,4207.821,4242.9490000000005,4180.128,4176.154,4227.0509999999995,4205.769,4179.744000000001,4188.974,4192.821,4197.308,0,0
354,86,0,3425,4200.897,4187.0509999999995,4199.359,3912.5640000000003,4213.077,4246.667,4186.795,4186.923,4234.744000000001,4215.255999999999,4192.308,4198.974,4204.487,4210.0,0,0
355,87,0,3261,4210.0,4179.359,4206.795,3922.949,4206.923,4251.538,4185.255999999999,4185.897,4237.436,4209.487,4196.41,4204.359,4201.667,4211.026,0,0
356,88,0,3092,4202.179,4185.255999999999,4191.667,3931.795,4196.282,4250.385,4173.846,4169.103,4220.897,4187.821,4186.282,4193.462,4181.795,4201.026,0,0
357,89,0,3234,4187.179,4188.59,4179.359,3920.1279999999997,4192.179,4251.795,4165.128,4156.026,4202.9490000000005,4169.487,4177.0509999999995,4181.026,4166.026,4192.9490000000005,0,0
358,90,0,3425,4199.615,4181.795,4196.154,3921.795,4195.255999999999,4262.692,4182.0509999999995,4167.821,4216.667,4176.667,4185.0,4191.538,4175.0,4199.231,0,0
359,91,0,3261,4220.385,4191.026,4215.0,3950.256,4207.179,4267.9490000000005,4205.513,4194.487,4246.41,4206.923,4203.59,4213.718,4199.103,4216.667,0,0
360,92,0,3092,4219.615,4200.128,4212.564,3960.256,4212.308,4270.255999999999,4192.179,4197.0509999999995,4246.41,4214.359,4205.641,4213.333,4202.821,4221.538,0,0
361,93,0,3234,4217.436,4198.205,4210.0,3956.667,4207.308,4276.538,4176.282,4181.667,4233.462,4198.077,4202.308,4207.692,4194.615,4217.0509999999995,0,0
362,94,0,3425,4235.513,4213.846,4225.255999999999,3973.8459999999995,4221.795,4282.821,4196.154,4184.872,4245.513,4206.795,4215.385,4226.282,4209.487,4232.0509999999995,0,0
363,95,0,3261,4243.333,4227.564,4234.103,3990.385,4236.41,4280.0,4208.205,4193.333,4257.9490000000005,4225.769,4226.026,4237.692,4227.436,4246.923,0,0
364,96,0,3092,4227.564,4204.872,4221.41,3978.59,4220.641,4271.026,4188.718,4182.821,4240.897,4215.897,4218.462,4222.821,4218.718,4230.641,0,0
365,97,0,3234,4217.0509999999995,4184.744000000001,4213.974,3968.974,4200.128,4264.231,4178.59,4172.821,4222.692,4197.564,4210.897,4214.615,4200.897,4214.744000000001,0,0
366,98,0,3425,4219.487,4190.385,4217.179,3977.5640000000003,4199.487,4261.282,4185.769,4170.641,4222.821,4191.538,4209.615,4218.846,4195.897,4220.385,0,0
367,99,0,3261,4219.103,4192.564,4214.615,3977.179,4205.897,4262.308,4183.333,4168.333,4225.513,4189.103,4205.128,4213.846,4196.923,4220.255999999999,0,0
368,100,0,3092,4213.718,4185.128,4207.436,3978.205,4206.282,4262.179,4179.231,4176.923,4227.179,4195.641,4203.333,4209.359,4194.615,4215.897,0,0
369,101,0,3234,4214.872,4186.154,4210.897,3986.923,4205.255999999999,4256.026,4181.026,4181.795,4228.462,4199.872,4204.615,4214.359,4191.795,4220.0,0,0
370,102,0,3425,4212.436,4190.641,4210.255999999999,3982.692,4210.0,4243.333,4173.974,4172.564,4222.436,4189.359,4197.308,4209.103,4183.718,4214.487,0,0
371,103,0,3261,4210.769,4187.0509999999995,4205.897,3978.718,4217.179,4241.923,4175.0,4173.077,4221.667,4184.872,4190.769,4203.205,4175.769,4205.897,0,0
372,104,0,3092,4209.744000000001,4182.564,4202.436,3988.59,4216.41,4243.846,4183.718,4184.359,4229.615,4192.0509999999995,4192.564,4202.308,4177.692,4206.026,0,0
373,105,0,3234,4212.179,4185.0,4204.615,3992.949,4210.897,4248.718,4175.641,4182.9490000000005,4226.667,4189.231,4195.641,4200.513,4176.538,4208.077,0,0
374,106,0,3425,4220.0,4192.0509999999995,4213.077,3994.615,4213.59,4254.872,4163.846,4169.872,4221.282,4184.103,4198.077,4203.333,4172.9490000000005,4215.128,0,0
375,107,0,3261,4227.179,4203.974,4218.077,4012.179,4218.333,4257.0509999999995,4169.615,4168.846,4225.385,4194.103,4204.744000000001,4213.333,4182.179,4227.179,0,0
376,108,0,3092,4222.9490000000005,4206.026,4212.308,4022.949,4218.333,4254.103,4174.231,4176.923,4227.436,4202.821,4207.821,4216.41,4189.744000000001,4224.615,0,0
377,109,0,3234,4221.154,4191.41,4211.154,4013.205,4214.103,4255.255999999999,4168.59,4175.897,4222.9490000000005,4199.103,4201.923,4211.795,4182.436,4216.667,0,0
378,110,0,3425,4228.462,4196.026,4219.872,4009.487,4216.154,4256.41,4174.744000000001,4173.718,4222.0509999999995,4201.026,4203.077,4218.59,4187.436,4222.692,0,0
379,111,0,3261,4229.872,4215.513,4222.564,4020.6409999999996,4221.538,4256.282,4191.026,4186.41,4231.282,4212.692,4212.821,4228.718,4199.359,4230.385,0,0
380,112,0,3092,4227.692,4210.385,4221.923,4019.8720000000003,4212.0509999999995,4256.795,4195.0,4196.41,4236.795,4214.872,4213.846,4226.538,4189.615,4227.308,0,0
381,113,0,3234,4226.923,4195.897,4219.615,4009.8720000000003,4201.026,4252.564,4183.718,4187.0509999999995,4230.255999999999,4207.308,4206.026,4218.718,4180.385,4222.692,0,0
382,114,0,3425,4222.821,4199.615,4212.692,4016.538,4204.103,4249.872,4177.0509999999995,4181.923,4224.615,4203.974,4200.0,4218.59,4186.538,4221.026,0,0
383,115,0,3261,4219.487,4207.692,4211.923,4031.41,4206.923,4250.513,4184.231,4190.385,4229.872,4209.872,4203.846,4222.564,4189.487,4220.769,0,0
384,116,0,3092,4229.231,4208.333,4223.462,4037.5640000000003,4208.077,4251.923,4194.487,4201.667,4237.436,4223.974,4216.41,4229.231,4189.359,4232.436,0,0
385,117,0,3234,4231.154,4198.974,4223.333,4022.5640000000003,4210.897,4250.769,4196.795,4203.462,4239.744000000001,4228.718,4219.231,4229.615,4192.692,4237.9490000000005,0,0
386,118,0,3425,4212.9490000000005,4181.795,4205.255999999999,3998.8459999999995,4201.282,4242.0509999999995,4181.154,4188.462,4231.026,4209.615,4201.538,4216.026,4185.641,4218.333,0,0
387,119,0,3261,4202.564,4181.667,4198.974,4005.7690000000002,4190.769,4230.255999999999,4171.026,4185.641,4228.333,4201.538,4192.564,4209.744000000001,4182.692,4208.462,0,0
388,120,0,3092,4220.0,4185.0,4215.385,4030.6409999999996,4197.179,4235.385,4186.154,4204.615,4241.41,4220.641,4208.462,4223.974,4198.59,4227.308,0,0
389,121,0,3234,4216.41,4173.846,4208.077,4022.308,4190.255999999999,4236.795,4185.385,4202.436,4238.846,4214.744000000001,4204.103,4216.282,4193.333,4220.513,0,0
390,122,0,3425,4194.103,4174.744000000001,4184.231,4010.256,4174.359,4232.308,4167.564,4182.179,4223.205,4186.795,4179.744000000001,4192.436,4168.59,4192.179,0,0
391,123,0,3261,4200.0,4193.333,4191.538,4031.1540000000005,4193.718,4239.615,4181.282,4188.974,4233.462,4195.513,4191.154,4204.231,4178.333,4202.436,0,0
392,124,0,3092,4223.59,4204.103,4217.0509999999995,4051.41,4218.59,4250.641,4206.41,4205.769,4254.103,4221.154,4217.0509999999995,4232.821,4207.308,4230.128,0,0
393,125,0,3234,4227.179,4202.436,4221.795,4056.667,4208.718,4248.59,4203.462,4204.359,4253.333,4219.487,4211.538,4233.077,4207.179,4227.9490000000005,0,0
394,126,0,3425,4217.692,4197.0509999999995,4212.179,4056.282,4193.59,4246.795,4198.59,4196.795,4242.821,4204.103,4197.179,4218.718,4193.59,4211.667,0,0
395,127,0,54,4209.487,4194.744000000001,4207.821,4050.7690000000002,4196.538,4249.615,4203.462,4191.026,4236.923,4199.359,4201.154,4216.923,4195.513,4208.462,0,0
396,0,0,3122,4203.462,4191.667,4207.692,4046.1540000000005,4202.436,4246.41,4195.0,4180.769,4232.179,4195.128,4199.231,4212.564,4193.205,4207.179,0,0
397,1,0,3334,4201.282,4183.462,4206.41,4051.923,4200.0,4242.436,4181.923,4176.667,4229.615,4184.872,4188.462,4205.769,4180.0,4202.308,0,0
398,2,0,2838,4199.615,4184.103,4198.974,4058.333,4197.564,4239.872,4184.103,4177.308,4231.282,4181.026,4191.538,4204.872,4178.462,4200.255999999999,0,0
399,3,0,3527,4206.795,4193.205,4197.564,4056.026,4196.154,4243.077,4192.0509999999995,4176.667,4231.923,4184.872,4197.436,4206.282,4184.103,4203.59,0,0
400,4,0,3505,4221.154,4199.744000000001,4206.538,4059.3590000000004,4198.718,4246.538,4193.333,4183.333,4232.0509999999995,4190.0,4197.9490000000005,4212.692,4184.231,4211.538,0,0
401,5,0,1714,4236.154,4219.615,4218.205,4077.051,4203.077,4243.974,4192.436,4188.462,4234.231,4192.308,4207.436,4225.0,4184.359,4224.872,0,0
402,6,0,3257,4247.0509999999995,4238.333,4218.59,4093.59,4202.821,4237.692,4189.744000000001,4183.59,4232.692,4191.154,4216.154,4226.154,4181.667,4236.923,0,0
403,7,0,3394,4256.538,4244.872,4214.231,4099.231,4204.231,4238.59,4186.795,4183.333,4227.308,4187.564,4208.846,4220.0,4174.744000000001,4240.769,0,0
404,8,0,3151,4270.897,4265.0,4227.436,4108.205,4210.0,4244.744000000001,4201.795,4198.205,4239.615,4197.564,4216.667,4235.769,4187.308,4253.333,0,0
405,9,0,3562,4283.846,4280.513,4248.974,4123.205,4212.0509999999995,4250.897,4217.821,4201.923,4253.205,4212.308,4238.333,4256.923,4203.718,4272.0509999999995,0,0
406,10,0,3421,4272.564,4265.641,4235.0,4121.923,4211.923,4246.795,4203.974,4188.974,4238.59,4204.744000000001,4230.513,4239.487,4188.718,4264.615,0,0
407,11,0,3262,4259.103,4252.564,4215.897,4107.821,4206.795,4239.615,4191.667,4185.513,4227.9490000000005,4192.692,4215.897,4219.615,4173.077,4248.333,0,0
408,12,0,3093,4253.974,4249.103,4220.385,4101.026,4193.718,4232.179,4196.538,4188.59,4235.769,4194.615,4216.41,4225.513,4179.872,4243.077,0,0
409,13,0,3233,4242.436,4232.436,4217.0509999999995,4109.231,4181.41,4224.231,4196.667,4186.026,4231.154,4192.9490000000005,4211.154,4221.923,4181.026,4234.231,0,0
410,14,0,3421,4230.0,4219.872,4203.974,4115.255999999999,4180.255999999999,4216.795,4194.487,4185.255999999999,4224.744000000001,4183.462,4200.0,4205.769,4176.923,4221.154,0,0
411,15,0,3262,4219.744000000001,4210.641,4195.897,4093.333,4180.255999999999,4212.0509999999995,4194.231,4182.821,4228.59,4177.821,4190.385,4197.436,4178.59,4209.359,0,0
412,16,0,0,4205.385,4187.0509999999995,4191.667,4072.051,4169.872,4211.41,4191.538,4178.462,4223.462,4173.462,4182.564,4194.487,4178.462,4195.513,0,0
413,17,0,0,4196.667,4177.692,4185.897,4080.0,4159.231,4212.9490000000005,4184.872,4179.487,4211.923,4167.179,4183.462,4191.282,4175.385,4188.077,0,0
414,18,0,0,4199.487,4185.769,4184.359,4085.256,4162.436,4212.0509999999995,4173.846,4175.128,4210.897,4162.308,4183.59,4192.9490000000005,4172.179,4191.667,0,0
415,19,0,0,4194.744000000001,4181.923,4181.923,4074.8720000000003,4168.718,4205.769,4168.462,4165.255999999999,4212.692,4158.718,4177.0509999999995,4186.923,4167.564,4187.9490000000005,0,0
416,20,0,0,4195.513,4180.641,4189.231,4086.41,4166.154,4206.154,4183.59,4171.923,4215.513,4167.692,4179.359,4189.744000000001,4172.308,4187.821,0,0
417,21,0,0,4208.974,4198.718,4203.205,4111.667,4172.436,4211.41,4199.615,4189.872,4228.205,4192.179,4188.846,4210.128,4193.333,4202.308,0,0
418,22,0,0,4213.333,4197.692,4206.41,4110.128,4178.205,4213.846,4193.974,4192.564,4237.308,4196.154,4189.615,4214.744000000001,4198.974,4205.769,0,0
419,23,0,0,4199.615,4172.564,4196.795,4098.077,4166.154,4209.872,4182.564,4182.0509999999995,4232.436,4180.128,4181.41,4198.59,4186.154,4193.205,0,0
420,24,0,0,4191.795,4167.821,4187.821,4092.949,4165.255999999999,4208.974,4180.641,4179.359,4221.795,4173.333,4176.282,4188.205,4182.436,4183.846,0,0
421,25,0,0,4192.821,4180.897,4189.487,4095.6409999999996,4177.436,4207.9490000000005,4187.0509999999995,4184.487,4223.077,4176.41,4180.255999999999,4191.41,4186.795,4183.462,0,0
422,26,0,0,4192.564,4180.255999999999,4198.718,4105.255999999999,4168.333,4205.769,4192.308,4189.615,4228.846,4176.154,4186.667,4197.308,4185.128,4183.59,0,0
423,27,0,0,4186.026,4173.846,4195.641,4107.436,4156.667,4206.154,4193.974,4192.308,4223.718,4172.308,4183.333,4193.462,4180.128,4180.385,0,0
424,28,0,0,4180.385,4168.846,4182.436,4100.255999999999,4167.692,4206.026,4190.513,4185.641,4214.615,4162.9490000000005,4173.333,4183.333,4177.692,4177.9490000000005,0,0
425,29,0,0,4179.359,4167.308,4176.923,4103.077,4176.667,4199.359,4177.564,4169.615,4211.41,4159.359,4169.103,4179.103,4178.205,4177.9490000000005,0,0
426,30,0,0,4175.513,4166.923,4178.59,4107.9490000000005,4166.026,4195.897,4170.513,4164.103,4212.821,4161.538,4169.231,4179.231,4176.026,4174.103,0,0
427,31,0,0,4172.436,4157.436,4180.897,4103.718,4157.9490000000005,4203.974,4184.359,4183.077,4219.615,4159.359,4169.744000000001,4180.641,4174.872,4170.385,0,0
428,32,0,0,4180.128,4158.077,4186.41,4113.205,4166.538,4213.974,4202.179,4202.0509999999995,4229.872,4168.077,4173.59,4189.231,4180.897,4180.385,0,0
429,33,0,0,4181.538,4170.897,4185.513,4119.359,4172.308,4210.897,4197.179,4192.821,4225.385,4174.872,4173.846,4190.128,4176.667,4180.0,0,0
430,34,0,0,4170.128,4173.077,4172.9490000000005,4112.821,4166.667,4199.487,4187.436,4174.487,4214.615,4166.667,4166.154,4176.154,4168.077,4160.255999999999,0,0
431,35,0,0,4175.769,4172.821,4177.9490000000005,4125.255999999999,4170.128,4204.487,4196.923,4185.897,4221.538,4167.564,4170.769,4178.846,4179.103,4163.333,0,0
432,36,0,0,4185.385,4177.9490000000005,4192.0509999999995,4134.615,4180.769,4211.41,4197.692,4205.128,4235.0,4182.564,4184.487,4196.026,4190.255999999999,4186.538,0,0
433,37,0,0,4183.462,4175.128,4189.231,4120.897,4180.769,4205.128,4182.436,4196.026,4236.282,4189.615,4186.154,4201.795,4184.231,4193.718,0,0
434,38,0,0,4183.59,4166.923,4183.846,4118.205,4168.333,4199.231,4179.615,4182.9490000000005,4227.179,4183.333,4185.128,4197.9490000000005,4181.795,4191.282,0,0
435,39,0,0,4187.308,4161.282,4193.333,4126.026,4156.026,4203.718,4187.0509999999995,4187.308,4219.872,4173.077,4186.538,4198.333,4179.744000000001,4190.128,0,0
436,40,0,0,4174.359,4158.205,4183.974,4119.103,4158.59,4200.385,4181.41,4183.333,4215.897,4165.769,4175.641,4191.667,4168.077,4177.179,0,0
437,41,0,0,4166.795,4166.154,4169.103,4122.692,4171.538,4200.128,4178.718,4170.385,4210.0,4166.667,4166.795,4184.231,4165.128,4168.59,0,0
438,42,0,0,4177.821,4178.333,4182.564,4143.077,4173.333,4208.974,4183.462,4175.255999999999,4210.385,4170.513,4179.103,4193.718,4176.282,4181.026,0,0
439,43,0,0,4184.744000000001,4176.282,4192.564,4144.615,4164.615,4211.154,4175.769,4178.462,4213.718,4165.255999999999,4185.0,4198.462,4178.846,4186.923,0,0
440,44,0,0,4180.641,4171.667,4180.128,4134.615,4169.359,4201.154,4169.487,4173.462,4215.385,4166.41,4176.923,4189.615,4176.026,4179.103,0,0
441,45,0,0,4189.103,4183.846,4187.436,4144.615,4183.333,4201.538,4182.436,4191.795,4227.564,4184.872,4187.9490000000005,4200.128,4186.282,4188.59,0,0
442,46,0,0,4205.128,4197.179,4212.9490000000005,4164.231,4190.128,4211.538,4197.436,4216.154,4243.59,4202.436,4206.538,4223.846,4197.179,4206.41,0,0
443,47,0,0,4200.0,4189.615,4206.41,4168.077,4186.923,4210.128,4189.359,4206.282,4233.077,4192.9490000000005,4196.667,4216.795,4186.154,4198.846,0,0
444,48,0,0,4183.718,4170.385,4181.41,4147.692,4172.692,4201.538,4172.436,4184.231,4214.103,4175.385,4180.769,4192.564,4175.255999999999,4184.103,0,0
445,49,0,0,4183.718,4159.359,4179.359,4130.513,4164.872,4201.154,4172.179,4190.641,4219.615,4177.692,4184.487,4188.718,4182.564,4188.846,0,0
446,50,0,0,4187.821,4161.538,4185.513,4139.103,4167.821,4202.564,4170.641,4191.538,4215.128,4172.179,4177.308,4188.333,4171.282,4185.513,0,0
447,51,0,0,4176.667,4175.897,4175.513,4150.385,4170.897,4193.846,4154.615,4168.59,4196.026,4154.744000000001,4163.718,4178.718,4152.308,4170.0,0,0
448,52,0,0,4182.564,4194.744000000001,4181.154,4155.385,4178.974,4195.385,4161.667,4170.385,4206.923,4166.923,4181.282,4188.462,4170.128,4185.0,0,0
449,53,0,0,4202.436,4203.59,4202.179,4172.0509999999995,4187.0509999999995,4205.513,4186.538,4199.103,4230.641,4200.255999999999,4207.564,4207.436,4197.0509999999995,4209.487,0,0
450,54,0,0,4201.41,4197.9490000000005,4199.615,4176.923,4182.564,4208.077,4181.154,4201.41,4228.205,4201.282,4202.436,4204.231,4193.077,4201.923,0,0
451,55,0,0,4182.179,4187.821,4182.179,4153.205,4177.0509999999995,4197.9490000000005,4159.103,4180.255999999999,4212.564,4177.308,4184.103,4187.564,4180.513,4183.333,0,0
452,56,0,0,4182.9490000000005,4185.769,4189.231,4153.718,4175.0,4191.795,4161.026,4179.744000000001,4206.795,4173.718,4183.974,4188.205,4182.0509999999995,4188.333,0,0
453,57,0,0,4194.744000000001,4188.462,4197.9490000000005,4174.231,4166.923,4194.103,4174.872,4190.769,4211.154,4182.179,4192.308,4195.255999999999,4186.41,4196.41,0,0
454,58,0,0,4191.282,4181.923,4180.128,4164.103,4168.974,4193.846,4172.821,4183.205,4212.0509999999995,4180.641,4183.077,4186.282,4180.897,4183.718,0,0
455,59,0,0,4178.59,4177.9490000000005,4167.436,4148.077,4178.846,4190.255999999999,4162.9490000000005,4170.641,4204.744000000001,4174.103,4165.641,4175.0,4167.436,4169.872,0,0
456,60,0,0,4183.59,4177.9490000000005,4188.462,4156.282,4176.538,4195.641,4168.077,4178.846,4209.744000000001,4178.462,4171.41,4186.282,4166.923,4178.974,0,0
457,61,0,0,4198.846,4187.564,4204.615,4176.41,4188.846,4206.538,4181.538,4194.231,4228.59,4195.128,4190.513,4205.0,4188.974,4197.0509999999995,0,0
458,62,0,0,4196.41,4203.077,4190.0,4190.385,4203.462,4211.154,4183.718,4192.0509999999995,4232.9490000000005,4200.128,4191.282,4200.897,4199.615,4196.026,0,0
459,63,0,0,4187.308,4200.385,4186.538,4191.41,4187.9490000000005,4206.795,4177.564,4192.179,4228.974,4192.564,4185.641,4193.974,4188.974,4190.0,0,0
460,64,0,3122,4187.436,4187.308,4194.103,4181.026,4181.538,4202.436,4172.436,4195.641,4230.641,4187.564,4186.923,4198.205,4180.769,4193.718,0,0
461,65,0,3329,4185.128,4183.846,4181.795,4165.641,4201.026,4204.744000000001,4169.103,4187.821,4220.128,4178.846,4177.821,4193.59,4173.846,4188.846,0,0
462,66,0,2841,4175.385,4185.641,4171.538,4159.615,4199.103,4202.9490000000005,4173.974,4190.769,4211.667,4168.846,4168.974,4182.692,4166.538,4177.564,0,0
463,67,0,3507,4177.692,4181.667,4183.59,4172.564,4177.692,4200.0,4177.9490000000005,4203.333,4221.923,4171.667,4174.359,4186.154,4172.564,4181.026,0,0
464,68,0,3503,4187.308,4189.231,4192.692,4189.487,4187.308,4206.154,4188.077,4202.9490000000005,4235.385,4189.359,4185.641,4197.692,4188.59,4195.128,0,0
465,69,0,1726,4195.0,4205.255999999999,4200.0,4193.462,4209.744000000001,4213.59,4200.513,4194.487,4236.41,4198.462,4195.769,4208.077,4197.692,4203.846,0,0
466,70,0,3261,4186.282,4199.872,4188.846,4184.744000000001,4200.769,4201.282,4182.564,4177.436,4221.41,4186.154,4187.564,4196.923,4184.872,4188.974,0,0
467,71,0,3397,4177.692,4183.846,4174.103,4177.564,4178.974,4194.872,4166.154,4167.692,4213.333,4178.077,4174.872,4181.538,4170.385,4172.692,0,0
468,72,0,3148,4185.255999999999,4185.897,4187.821,4185.641,4184.872,4203.718,4179.744000000001,4189.103,4226.923,4192.564,4183.846,4192.179,4179.103,4185.769,0,0
469,73,0,3555,4191.154,4197.436,4195.897,4192.0509999999995,4207.308,4206.795,4185.385,4204.744000000001,4234.231,4196.026,4192.179,4201.282,4187.692,4197.436,0,0
470,74,0,3410,4184.231,4197.821,4178.077,4185.641,4208.718,4199.487,4175.255999999999,4196.026,4227.308,4185.0,4184.359,4192.308,4179.103,4185.0,0,0
471,75,0,3258,4186.538,4193.59,4176.282,4189.487,4191.41,4196.154,4180.255999999999,4193.59,4226.667,4192.436,4183.462,4191.667,4181.41,4180.385,0,0
472,76,0,3094,4187.821,4190.769,4186.923,4194.615,4182.436,4196.154,4182.692,4193.077,4230.385,4200.897,4184.615,4194.103,4191.667,4184.872,0,0
473,77,0,3227,4174.487,4186.923,4176.154,4184.615,4191.667,4200.0,4173.333,4187.0509999999995,4226.154,4190.0,4176.667,4184.359,4181.795,4176.667,0,0
474,78,0,3410,4175.641,4183.718,4174.615,4186.026,4203.59,4207.436,4175.255999999999,4190.641,4227.436,4187.821,4179.615,4186.667,4176.667,4181.282,0,0
475,79,0,3258,4187.436,4182.692,4186.026,4196.667,4199.231,4208.333,4177.821,4193.205,4227.692,4196.538,4188.333,4193.59,4183.59,4192.9490000000005,0,0
476,80,0,3094,4181.795,4189.487,4179.872,4188.205,4183.462,4204.872,4172.564,4184.487,4221.538,4188.718,4181.667,4186.538,4176.667,4181.667,0,0
477,81,0,3227,4175.897,4187.179,4176.282,4177.821,4174.615,4204.744000000001,4171.282,4182.9490000000005,4220.897,4180.641,4173.205,4183.846,4173.462,4175.0,0,0
478,82,0,3410,4185.255999999999,4173.333,4188.077,4192.9490000000005,4178.462,4206.538,4178.974,4193.974,4224.103,4185.0,4179.103,4188.59,4185.0,4187.821,0,0
479,83,0,3258,4184.359,4178.718,4185.0,4203.205,4183.974,4203.333,4180.385,4196.154,4222.821,4186.795,4183.077,4187.0509999999995,4183.59,4192.0509999999995,0,0
480,84,0,3094,4183.462,4192.308,4181.41,4202.9490000000005,4187.308,4204.615,4179.744000000001,4193.077,4221.667,4182.436,4179.744000000001,4191.795,4172.821,4189.615,0,0
481,85,0,3227,4188.846,4190.513,4191.026,4206.154,4190.255999999999,4204.359,4186.41,4196.154,4222.821,4182.821,4182.692,4201.667,4178.59,4193.205,0,0
482,86,0,3410,4189.487,4183.59,4195.897,4208.974,4183.718,4205.0,4189.744000000001,4195.0,4223.077,4186.026,4186.923,4201.923,4188.718,4195.513,0,0
483,87,0,3258,4184.872,4184.103,4188.846,4210.897,4176.667,4208.333,4187.436,4192.308,4225.513,4184.872,4184.103,4193.59,4185.641,4191.795,0,0
484,88,0,3094,4184.615,4186.41,4185.641,4208.077,4184.744000000001,4209.744000000001,4183.333,4197.9490000000005,4227.692,4185.128,4183.59,4191.41,4177.692,4190.897,0,0
485,89,0,3227,4184.103,4187.436,4188.59,4201.154,4188.59,4207.9490000000005,4184.359,4196.667,4225.513,4188.974,4188.077,4195.128,4180.128,4192.436,0,0
486,90,0,3410,4186.282,4187.0509999999995,4194.231,4203.333,4179.872,4209.487,4186.667,4183.59,4220.255999999999,4188.205,4188.718,4198.462,4185.641,4195.513,0,0
487,91,0,3258,4188.462,4187.821,4193.077,4215.385,4180.128,4205.513,4179.359,4175.255999999999,4212.692,4180.897,4185.769,4197.821,4176.154,4194.744000000001,0,0
488,92,0,3094,4188.718,4189.744000000001,4187.821,4217.179,4188.718,4201.667,4172.179,4175.0,4208.59,4175.385,4185.255999999999,4200.255999999999,4164.487,4193.333,0,0
489,93,0,3227,4193.974,4186.026,4194.487,4212.692,4185.128,4205.897,4180.897,4176.795,4210.769,4180.641,4190.897,4206.667,4172.9490000000005,4201.923,0,0
490,94,0,3410,4196.154,4185.255999999999,4197.0509999999995,4215.385,4182.821,4207.179,4186.795,4176.667,4210.769,4181.41,4192.308,4201.795,4179.615,4206.026,0,0
491,95,0,3258,4189.615,4188.59,4188.846,4216.667,4189.615,4202.436,4177.0509999999995,4181.538,4204.615,4173.718,4185.769,4195.897,4170.128,4198.333,0,0
492,96,0,3094,4182.436,4186.795,4186.154,4214.359,4180.128,4201.154,4172.308,4183.846,4199.872,4167.692,4181.667,4195.897,4172.308,4190.0,0,0
493,97,0,3227,4185.0,4183.846,4191.026,4212.179,4167.179,4206.282,4177.821,4177.179,4203.974,4174.103,4185.641,4195.897,4185.385,4190.641,0,0
494,98,0,3410,4188.077,4186.923,4189.744000000001,4215.769,4182.692,4209.872,4182.564,4178.846,4211.667,4186.538,4189.231,4197.436,4187.179,4194.615,0,0
495,99,0,3258,4189.103,4187.692,4187.436,4219.872,4187.179,4208.974,4187.436,4187.179,4211.667,4187.692,4187.0509999999995,4200.641,4183.59,4196.538,0,0
496,100,0,3094,4186.41,4183.205,4185.769,4215.897,4164.872,4202.9490000000005,4188.718,4187.308,4209.872,4179.103,4183.462,4191.41,4178.718,4192.564,0,0
497,101,0,3227,4184.744000000001,4185.385,4183.846,4214.615,4170.255999999999,4202.564,4185.128,4182.821,4209.744000000001,4171.282,4181.667,4183.077,4173.205,4187.179,0,0
498,102,0,3410,4188.846,4185.385,4189.231,4223.974,4192.308,4203.462,4186.667,4187.436,4207.692,4173.718,4184.615,4194.359,4176.282,4197.436,0,0
499,103,0,3258,4202.0509999999995,4185.0,4205.128,4236.41,4187.308,4202.0509999999995,4189.359,4188.846,4205.769,4177.436,4192.179,4207.9490000000005,4181.667,4214.487,0,0
500,104,0,3094,4206.282,4195.128,4206.795,4235.255999999999,4181.538,4197.179,4182.179,4181.026,4202.179,4171.154,4189.615,4203.205,4178.462,4209.359,0,0
501,105,0,3227,4193.846,4191.795,4192.692,4220.769,4184.103,4195.769,4170.255999999999,4167.564,4193.077,4160.255999999999,4172.564,4189.487,4170.641,4187.564,0,0
502,106,0,3410,4181.154,4172.692,4183.333,4210.255999999999,4176.282,4200.0,4167.9490000000005,4162.9490000000005,4192.564,4159.615,4169.359,4185.128,4164.744000000001,4182.308,0,0
503,107,0,3258,4182.692,4169.744000000001,4185.255999999999,4209.103,4170.385,4200.769,4172.0509999999995,4172.821,4199.744000000001,4164.103,4183.974,4191.41,4161.282,4192.821,0,0
504,108,0,3094,4186.923,4180.513,4189.103,4217.436,4172.179,4196.154,4174.487,4176.923,4198.333,4162.692,4186.154,4197.308,4166.795,4193.718,0,0
505,109,0,3227,4188.077,4184.744000000001,4193.846,4233.718,4174.359,4198.846,4184.615,4179.615,4202.0509999999995,4170.128,4180.385,4197.0509999999995,4180.641,4191.026,0,0
506,110,0,3410,4198.718,4186.538,4209.359,4243.077,4183.718,4207.0509999999995,4196.923,4194.359,4217.436,4190.897,4192.179,4204.359,4192.436,4200.769,0,0
507,111,0,3258,4206.538,4186.923,4212.308,4235.513,4189.744000000001,4204.487,4193.718,4207.564,4222.9490000000005,4195.385,4205.255999999999,4213.974,4190.769,4210.128,0,0
508,112,0,3094,4197.692,4183.462,4197.308,4227.0509999999995,4174.231,4197.9490000000005,4180.255999999999,4202.436,4209.487,4181.923,4199.744000000001,4211.538,4178.077,4204.872,0,0
509,113,0,3227,4189.359,4183.59,4194.615,4231.154,4160.897,4198.205,4183.077,4192.179,4205.385,4185.769,4193.59,4206.41,4180.255999999999,4196.538,0,0
510,114,0,3410,4196.41,4186.282,4208.59,4234.744000000001,4175.0,4201.026,4197.692,4204.872,4216.154,4197.0509999999995,4197.0509999999995,4209.487,4182.564,4195.641,0,0
511,115,0,3258,4191.41,4182.692,4205.897,4230.385,4191.667,4195.385,4195.641,4219.359,4216.538,4191.538,4196.154,4205.385,4171.154,4191.538,0,0
512,116,0,3094,4184.103,4176.667,4199.615,4226.282,4181.282,4193.974,4190.897,4204.615,4207.308,4188.59,4192.308,4202.692,4171.41,4190.641,0,0
513,117,0,3227,4191.667,4183.718,4204.487,4236.795,4176.026,4200.255999999999,4199.359,4189.872,4207.308,4197.692,4197.436,4210.128,4187.0509999999995,4200.897,0,0
514,118,0,3410,4201.282,4192.821,4210.0,4242.179,4195.897,4206.154,4203.718,4199.872,4212.564,4197.9490000000005,4202.179,4214.615,4192.179,4211.282,0,0
515,119,0,3258,4198.077,4186.282,4210.255999999999,4233.846,4199.744000000001,4200.641,4197.9490000000005,4205.385,4208.205,4192.821,4202.308,4210.641,4183.59,4208.974,0,0
516,120,0,3094,4193.333,4179.744000000001,4202.179,4232.436,4180.255999999999,4191.282,4191.026,4192.0509999999995,4199.359,4190.513,4198.077,4207.179,4175.769,4200.641,0,0
517,121,0,3227,4187.308,4178.333,4190.641,4224.872,4168.333,4183.59,4180.769,4181.538,4195.128,4182.308,4188.462,4198.205,4172.179,4192.436,0,0
518,122,0,3410,4180.897,4172.0509999999995,4190.0,4215.769,4164.872,4183.205,4169.487,4174.744000000001,4192.564,4172.308,4182.308,4188.718,4170.897,4183.974,0,0
519,123,0,3258,4179.744000000001,4172.0509999999995,4191.667,4228.462,4167.821,4185.0,4171.538,4177.0509999999995,4190.385,4168.333,4185.385,4190.513,4169.103,4183.718,0,0
520,124,0,3094,4188.333,4180.513,4192.692,4240.255999999999,4181.154,4183.846,4185.255999999999,4192.436,4196.923,4177.564,4198.59,4201.667,4177.0509999999995,4199.744000000001,0,0
521,125,0,3227,4201.795,4187.9490000000005,4204.872,4230.255999999999,4195.255999999999,4186.282,4197.564,4202.179,4213.077,4196.538,4212.692,4214.615,4195.128,4215.513,0,0
522,126,0,3410,4206.026,4193.974,4210.513,4235.0,4191.41,4188.846,4192.692,4199.615,4215.897,4199.744000000001,4208.974,4215.641,4188.333,4211.026,0,0
523,127,0,54,4208.462,4206.538,4207.308,4256.923,4184.231,4188.205,4181.538,4198.333,4204.359,4189.103,4201.282,4211.795,4172.179,4206.795,0,0
524,0,0,3116,4227.564,4222.0509999999995,4215.385,4265.385,4189.103,4190.128,4191.667,4208.077,4209.359,4195.513,4216.667,4219.872,4184.103,4225.255999999999,0,0
525,1,0,3309,4251.154,4233.846,4230.641,4267.821,4192.308,4195.897,4206.538,4215.897,4222.436,4209.615,4236.282,4234.487,4198.974,4249.359,0,0
526,2,0,2834,4251.795,4243.846,4226.282,4269.103,4183.462,4192.564,4196.41,4210.128,4215.385,4207.692,4235.255999999999,4232.821,4188.846,4253.077,0,0
527,3,0,3519,4250.513,4255.641,4216.41,4268.333,4182.692,4190.385,4180.128,4199.615,4201.282,4198.718,4227.9490000000005,4224.744000000001,4173.59,4248.846,0,0
528,4,0,3504,4270.255999999999,4266.923,4228.718,4275.385,4205.255999999999,4192.179,4187.821,4200.513,4206.538,4202.821,4233.718,4233.718,4175.897,4258.077,0,0
529,5,0,1741,4292.179,4280.128,4250.641,4296.41,4223.077,4196.667,4206.538,4217.308,4220.641,4218.333,4249.231,4249.744000000001,4191.154,4276.026,0,0
530,6,0,3262,4288.333,4292.0509999999995,4252.308,4309.103,4221.538,4199.231,4214.231,4229.231,4225.255999999999,4228.462,4253.974,4252.0509999999995,4202.179,4282.564,0,0
531,7,0,3395,4277.436,4284.231,4240.641,4298.462,4211.538,4197.436,4203.59,4210.513,4214.231,4215.385,4239.231,4244.359,4193.974,4275.385,0,0
532,8,0,3151,4271.41,4269.103,4227.821,4282.308,4198.59,4189.231,4185.255999999999,4177.436,4196.41,4196.667,4226.667,4232.564,4179.231,4265.0,0,0
533,9,0,3560,4269.615,4267.308,4230.641,4282.179,4201.41,4189.744000000001,4188.077,4179.744000000001,4193.974,4201.795,4232.9490000000005,4229.359,4182.308,4260.255999999999,0,0
534,10,0,3405,4267.9490000000005,4272.564,4241.795,4287.0509999999995,4218.718,4197.692,4202.308,4205.255999999999,4206.154,4215.641,4239.487,4236.667,4192.436,4260.0,0,0
535,11,0,3253,4255.128,4258.205,4233.59,4280.769,4216.923,4196.282,4194.103,4200.128,4199.615,4207.179,4226.538,4230.0,4182.436,4248.59,0,0
536,12,0,3090,4243.077,4228.333,4221.026,4276.41,4196.795,4190.513,4185.513,4188.333,4184.872,4195.385,4218.333,4218.333,4172.308,4235.769,0,0
537,13,0,3226,4243.077,4228.462,4225.769,4276.667,4198.718,4192.564,4199.615,4207.0509999999995,4199.359,4209.615,4230.255999999999,4226.41,4192.436,4238.846,0,0
538,14,0,3405,4231.41,4238.205,4219.231,4266.795,4216.026,4196.026,4203.205,4216.795,4213.205,4213.846,4226.026,4225.641,4205.128,4230.769,0,0
539,15,0,3253,4199.103,4205.385,4187.692,4243.205,4203.718,4188.333,4181.538,4183.59,4188.205,4179.103,4188.718,4193.077,4175.641,4195.128,0,0
540,16,0,0,4192.179,4180.897,4181.282,4236.667,4182.564,4178.462,4173.333,4165.897,4171.538,4157.821,4172.692,4180.641,4162.564,4181.795,0,0
541,17,0,0,4207.9490000000005,4208.718,4199.744000000001,4250.513,4195.255999999999,4179.872,4189.359,4201.026,4199.744000000001,4187.692,4202.821,4205.641,4196.282,4207.821,0,0
542,18,0,0,4211.41,4217.436,4205.641,4253.974,4214.231,4189.231,4203.333,4226.923,4221.667,4211.538,4221.026,4218.846,4215.513,4220.128,0,0
543,19,0,0,4198.846,4192.564,4195.513,4246.538,4202.179,4188.974,4204.487,4217.9490000000005,4215.769,4199.359,4203.974,4206.282,4203.205,4200.0,0,0
544,20,0,0,4194.744000000001,4195.0,4197.0509999999995,4245.513,4185.513,4183.205,4205.769,4213.846,4213.718,4194.744000000001,4195.255999999999,4201.538,4200.897,4187.692,0,0
545,21,0,0,4199.872,4204.744000000001,4203.846,4248.846,4191.41,4182.9490000000005,4213.205,4224.872,4220.385,4210.385,4212.179,4211.795,4210.641,4197.436,0,0
546,22,0,0,4198.718,4182.436,4195.0,4239.744000000001,4192.0509999999995,4186.282,4210.0,4221.538,4216.538,4207.692,4215.513,4211.923,4206.41,4203.59,0,0
547,23,0,0,4179.744000000001,4156.41,4174.487,4222.436,4181.923,4177.436,4190.0,4198.59,4198.077,4182.9490000000005,4187.821,4189.615,4184.744000000001,4186.538,0,0
548,24,0,0,4165.385,4151.923,4167.564,4206.667,4180.128,4170.128,4173.462,4182.0509999999995,4178.718,4164.103,4167.692,4171.795,4167.179,4165.769,0,0
549,25,0,0,4176.538,4160.641,4179.872,4218.59,4183.077,4175.128,4180.641,4189.744000000001,4183.846,4167.436,4176.795,4181.923,4177.821,4168.974,0,0
550,26,0,0,4193.718,4171.41,4192.179,4248.205,4188.59,4183.974,4201.795,4208.718,4205.385,4190.128,4192.9490000000005,4200.897,4200.385,4189.103,0,0
551,27,0,0,4182.308,4171.41,4182.564,4238.077,4185.128,4177.9490000000005,4195.255999999999,4203.077,4199.231,4195.385,4187.179,4195.128,4193.718,4190.513,0,0
552,28,0,0,4165.641,4162.564,4165.769,4209.615,4170.897,4168.333,4172.179,4183.333,4179.103,4173.59,4176.795,4180.769,4174.487,4175.0,0,0
553,29,0,0,4174.103,4163.59,4173.718,4221.026,4163.846,4173.846,4177.692,4182.692,4181.923,4170.641,4174.359,4183.974,4178.077,4171.667,0,0
554,30,0,0,4183.462,4170.255999999999,4186.026,4244.103,4178.718,4180.897,4192.564,4191.795,4191.538,4185.897,4172.692,4188.974,4190.0,4178.205,0,0
555,31,0,0,4176.41,4163.333,4182.692,4220.769,4193.333,4178.333,4181.282,4186.538,4185.769,4179.103,4175.641,4187.821,4186.41,4181.41,0,0
556,32,0,0,4168.974,4152.179,4177.436,4194.615,4182.179,4170.769,4174.103,4180.897,4180.769,4172.9490000000005,4182.821,4183.974,4182.564,4181.667,0,0
557,33,0,0,4169.231,4155.385,4173.333,4216.667,4175.385,4172.564,4192.692,4193.59,4191.154,4187.692,4181.154,4181.41,4187.9490000000005,4181.795,0,0
558,34,0,0,4163.205,4159.872,4162.308,4232.564,4183.077,4175.897,4197.692,4198.974,4197.0509999999995,4186.41,4171.795,4172.9490000000005,4190.641,4169.744000000001,0,0
559,35,0,0,4162.308,4155.255999999999,4164.744000000001,4219.231,4172.564,4175.255999999999,4183.59,4189.359,4192.436,4173.205,4170.641,4169.744000000001,4187.0509999999995,4160.0,0,0
560,36,0,0,4162.308,4150.769,4170.385,4212.436,4154.103,4171.026,4179.103,4184.615,4187.179,4174.487,4172.308,4172.692,4183.077,4163.333,0,0
561,37,0,0,4159.359,4152.692,4166.538,4216.538,4167.9490000000005,4171.923,4190.641,4186.282,4186.41,4175.128,4170.0,4170.897,4182.308,4169.103,0,0
562,38,0,0,4161.538,4161.795,4170.385,4224.487,4197.821,4179.231,4203.846,4194.744000000001,4192.0509999999995,4176.026,4172.692,4171.282,4187.692,4172.821,0,0
563,39,0,0,4170.385,4164.487,4185.128,4232.0509999999995,4202.308,4187.436,4206.667,4205.641,4197.436,4184.231,4176.026,4183.205,4191.667,4178.077,0,0
564,40,0,0,4170.769,4163.846,4185.513,4228.205,4193.333,4187.0509999999995,4203.846,4200.385,4196.923,4186.154,4175.128,4189.487,4188.974,4179.231,0,0
565,41,0,0,4168.462,4166.154,4177.0509999999995,4227.692,4184.615,4185.641,4200.255999999999,4185.641,4188.846,4178.462,4171.667,4182.692,4184.744000000001,4175.0,0,0
566,42,0,0,4170.0,4160.128,4178.718,4235.385,4179.231,4185.641,4198.205,4185.128,4184.872,4176.667,4171.026,4182.692,4182.821,4175.385,0,0
567,43,0,0,4170.128,4153.59,4185.385,4226.923,4181.923,4185.385,4199.615,4191.282,4186.538,4176.795,4172.0509999999995,4187.821,4180.513,4177.564,0,0
568,44,0,0,4170.513,4164.103,4188.462,4224.744000000001,4193.462,4186.154,4205.897,4191.154,4186.667,4177.436,4173.077,4186.923,4183.59,4177.179,0,0
569,45,0,0,4170.897,4176.026,4184.103,4239.744000000001,4201.154,4186.795,4201.795,4190.897,4186.154,4181.41,4168.462,4182.9490000000005,4185.385,4176.026,0,0
570,46,0,0,4170.769,4169.103,4181.282,4236.795,4193.846,4185.641,4188.333,4188.59,4185.641,4179.615,4166.795,4184.872,4179.615,4176.667,0,0
571,47,0,0,4168.59,4163.846,4183.333,4226.667,4189.872,4181.41,4186.026,4179.744000000001,4182.9490000000005,4178.846,4175.897,4188.974,4179.359,4178.59,0,0
572,48,0,0,4171.282,4168.59,4186.282,4232.692,4189.487,4178.59,4184.103,4174.744000000001,4176.154,4185.128,4179.359,4188.718,4183.974,4181.538,0,0
573,49,0,0,4176.282,4170.128,4184.359,4236.282,4182.436,4176.154,4174.359,4181.026,4179.615,4188.462,4175.255999999999,4188.974,4186.41,4185.641,0,0
574,50,0,0,4178.205,4166.923,4181.923,4232.308,4181.538,4175.513,4175.0,4184.872,4187.692,4181.667,4172.564,4191.667,4183.718,4185.513,0,0
575,51,0,0,4168.462,4165.385,4179.744000000001,4230.897,4190.255999999999,4170.385,4181.538,4181.282,4184.359,4174.231,4169.872,4183.59,4180.255999999999,4178.077,0,0
576,52,0,0,4165.255999999999,4167.308,4180.513,4231.795,4191.282,4172.436,4182.564,4183.333,4176.795,4173.59,4171.154,4176.923,4180.255999999999,4174.231,0,0
577,53,0,0,4172.9490000000005,4167.0509999999995,4186.282,4231.923,4188.462,4178.718,4184.103,4189.487,4177.9490000000005,4175.255999999999,4179.231,4183.462,4183.718,4180.255999999999,0,0
578,54,0,0,4177.564,4169.231,4191.282,4239.103,4187.564,4178.846,4185.385,4189.744000000001,4184.615,4174.615,4184.872,4190.513,4187.0509999999995,4184.615,0,0
579,55,0,0,4174.103,4174.744000000001,4185.255999999999,4246.154,4185.255999999999,4177.9490000000005,4184.872,4190.385,4187.308,4172.0509999999995,4186.026,4189.231,4187.564,4181.923,0,0
580,56,0,0,4173.077,4174.615,4176.41,4238.462,4190.385,4181.923,4185.385,4187.821,4181.154,4167.436,4180.0,4181.154,4186.154,4177.692,0,0
581,57,0,0,4172.692,4176.154,4175.897,4233.205,4193.718,4180.0,4181.41,4186.41,4175.641,4162.0509999999995,4167.308,4173.077,4182.308,4170.769,0,0
582,58,0,0,4178.59,4176.923,4189.872,4246.667,4187.308,4181.795,4181.795,4194.872,4179.231,4165.641,4173.205,4181.154,4179.744000000001,4174.103,0,0
583,59,0,0,4186.026,4169.615,4202.821,4249.359,4185.513,4189.103,4193.462,4200.513,4184.615,4172.0509999999995,4190.769,4197.0509999999995,4183.205,4188.205,0,0
584,60,0,0,4178.462,4166.667,4189.615,4235.641,4188.974,4184.103,4191.026,4200.385,4185.128,4170.0,4185.897,4190.255999999999,4179.359,4185.897,0,0
585,61,0,0,4169.872,4171.538,4172.308,4228.077,4185.513,4173.077,4179.872,4200.897,4183.846,4168.974,4171.795,4174.359,4171.795,4169.615,0,0
586,62,0,0,4174.103,4172.308,4179.872,4230.897,4182.0509999999995,4174.103,4190.897,4200.897,4191.41,4177.0509999999995,4179.359,4179.744000000001,4181.923,4169.872,0,0
587,63,0,0,4185.769,4178.59,4202.0509999999995,4246.667,4193.59,4185.897,4209.231,4211.026,4212.179,4190.897,4194.359,4200.128,4206.795,4189.487,0,0
588,64,0,3127,4189.231,4187.308,4204.872,4253.462,4200.128,4192.692,4208.205,4222.821,4221.41,4202.0509999999995,4194.359,4204.231,4212.179,4199.872,0,0
589,65,0,3327,4184.487,4175.769,4193.205,4237.308,4192.179,4189.359,4195.385,4213.718,4203.974,4191.538,4185.769,4192.0509999999995,4197.0509999999995,4193.462,0,0
590,66,0,2839,4172.308,4162.179,4179.103,4227.692,4188.974,4181.538,4187.0509999999995,4196.282,4190.0,4174.359,4176.41,4180.897,4189.744000000001,4179.231,0,0
591,67,0,3537,4171.154,4171.026,4177.436,4234.615,4193.333,4182.692,4186.41,4188.205,4189.744000000001,4177.436,4175.513,4180.769,4188.462,4172.692,0,0
592,68,0,3509,4184.103,4178.718,4188.718,4236.282,4186.667,4186.41,4187.308,4185.255999999999,4185.255999999999,4186.026,4182.179,4188.077,4184.103,4182.564,0,0
593,69,0,1749,4191.282,4172.0509999999995,4196.282,4235.385,4178.846,4186.923,4185.255999999999,4183.205,4181.41,4184.744000000001,4183.718,4192.0509999999995,4183.205,4194.615,0,0
594,70,0,3267,4185.255999999999,4174.872,4190.769,4245.641,4192.0509999999995,4184.359,4184.103,4180.897,4183.077,4183.718,4180.641,4185.641,4188.974,4193.974,0,0
595,71,0,3392,4184.359,4188.718,4189.103,4254.744000000001,4211.026,4187.692,4190.641,4187.0509999999995,4183.205,4186.41,4182.436,4183.846,4192.9490000000005,4186.795,0,0
596,72,0,3153,4182.179,4183.59,4190.128,4248.462,4205.641,4188.59,4190.769,4189.744000000001,4180.897,4185.255999999999,4183.462,4185.128,4189.744000000001,4181.795,0,0
597,73,0,3566,4175.513,4165.513,4183.462,4237.692,4178.974,4182.9490000000005,4183.462,4171.41,4172.692,4176.282,4176.282,4178.462,4183.59,4179.744000000001,0,0
598,74,0,3405,4179.487,4169.615,4183.846,4238.59,4176.538,4181.538,4186.026,4163.462,4175.128,4177.821,4180.128,4183.333,4187.9490000000005,4191.154,0,0
599,75,0,3258,4191.923,4185.513,4194.103,4247.564,4196.282,4187.692,4192.564,4186.154,4193.846,4192.436,4194.487,4199.615,4200.0,4206.538,0,0
600,76,0,3085,4192.179,4187.179,4196.026,4248.718,4195.0,4187.0509999999995,4191.667,4199.231,4197.0509999999995,4197.564,4195.513,4198.846,4200.641,4202.9490000000005,0,0
601,77,0,3233,4181.026,4176.667,4185.385,4238.333,4181.026,4175.641,4188.333,4188.462,4185.255999999999,4189.744000000001,4185.128,4184.359,4192.0509999999995,4190.128,0,0
602,78,0,3405,4180.513,4171.026,4182.308,4228.846,4180.769,4174.231,4187.0509999999995,4187.692,4186.282,4188.718,4183.333,4181.41,4187.436,4189.744000000001,0,0
603,79,0,3258,4181.795,4171.282,4183.077,4229.615,4181.026,4177.436,4181.026,4193.718,4187.308,4191.667,4187.692,4185.0,4187.436,4188.077,0,0
604,80,0,3085,4178.974,4174.231,4179.359,4235.769,4179.231,4177.692,4177.0509999999995,4191.154,4178.462,4187.179,4183.846,4186.026,4185.769,4178.974,0,0
605,81,0,3233,4173.974,4175.385,4173.846,4231.923,4191.538,4177.821,4182.179,4188.718,4178.846,4182.308,4175.641,4180.513,4185.255999999999,4175.255999999999,0,0
606,82,0,3405,4179.359,4163.077,4180.128,4233.333,4186.923,4178.462,4187.821,4188.718,4182.436,4177.564,4170.255999999999,4173.718,4185.897,4178.205,0,0
607,83,0,3258,4186.154,4160.769,4190.255999999999,4248.077,4171.667,4173.205,4188.205,4187.9490000000005,4179.487,4177.692,4170.128,4174.615,4187.564,4179.744000000001,0,0
608,84,0,3085,4179.744000000001,4170.513,4182.0509999999995,4241.282,4177.308,4170.897,4179.231,4177.179,4171.41,4173.974,4168.974,4173.462,4184.231,4176.667,0,0
609,85,0,3233,4170.255999999999,4169.615,4168.333,4223.974,4187.821,4171.026,4173.205,4170.513,4171.026,4170.385,4166.923,4173.205,4180.513,4175.897,0,0
610,86,0,3405,4176.795,4169.231,4176.667,4232.179,4181.41,4174.615,4183.974,4182.692,4183.846,4185.0,4175.641,4185.385,4189.231,4185.0,0,0
611,87,0,3258,4174.615,4166.667,4182.308,4233.333,4165.641,4177.821,4185.897,4183.974,4181.667,4187.564,4172.564,4181.41,4188.59,4182.179,0,0
612,88,0,3085,4168.333,4156.282,4177.564,4222.179,4162.436,4178.59,4177.308,4167.436,4172.9490000000005,4176.667,4163.974,4171.282,4180.769,4172.821,0,0
613,89,0,3233,4181.41,4164.487,4185.513,4234.231,4174.359,4177.436,4187.308,4174.487,4188.718,4190.897,4183.333,4188.205,4194.615,4186.923,0,0
614,90,0,3405,4190.128,4185.0,4192.9490000000005,4244.231,4186.282,4180.0,4200.385,4194.615,4203.974,4209.359,4202.436,4201.282,4208.333,4201.41,0,0
615,91,0,3258,4173.462,4176.282,4178.462,4230.255999999999,4185.128,4178.974,4184.103,4181.41,4189.487,4191.795,4182.821,4184.872,4190.641,4184.487,0,0
616,92,0,3085,4161.154,4154.487,4161.538,4223.462,4173.462,4170.769,4164.231,4163.59,4168.462,4165.385,4158.205,4168.59,4166.923,4166.795,0,0
617,93,0,3233,4177.692,4161.667,4176.41,4231.41,4171.923,4172.179,4175.385,4177.308,4171.923,4170.128,4171.154,4182.692,4178.846,4187.0509999999995,0,0
618,94,0,3405,4191.795,4178.846,4195.769,4238.974,4184.231,4179.359,4192.821,4191.923,4188.462,4184.103,4189.231,4201.923,4197.692,4206.667,0,0
619,95,0,3258,4184.487,4178.462,4187.9490000000005,4242.436,4187.436,4179.231,4188.462,4184.103,4189.103,4178.718,4178.205,4193.718,4189.615,4189.487,0,0
620,96,0,3085,4172.564,4169.872,4172.821,4235.128,4172.9490000000005,4175.255999999999,4180.769,4180.0,4182.436,4172.821,4163.462,4176.154,4181.667,4171.923,0,0
621,97,0,3233,4176.026,4167.0509999999995,4182.821,4229.103,4169.359,4180.385,4188.974,4195.0,4187.821,4184.487,4174.615,4185.769,4191.41,4184.359,0,0
622,98,0,3405,4180.0,4173.077,4189.231,4234.872,4180.0,4182.179,4193.205,4201.282,4193.846,4193.205,4187.692,4198.333,4193.333,4194.872,0,0
623,99,0,3258,4174.487,4169.744000000001,4175.385,4230.0,4166.026,4177.436,4181.41,4185.255999999999,4185.128,4176.795,4175.0,4185.128,4176.667,4183.462,0,0
624,100,0,3085,4171.282,4157.692,4170.769,4223.205,4150.0,4175.255999999999,4176.026,4182.436,4180.385,4167.692,4163.077,4172.436,4172.564,4177.821,0,0
625,101,0,3233,4176.282,4161.282,4182.436,4231.923,4166.795,4180.385,4184.615,4200.897,4186.795,4183.205,4169.103,4179.359,4186.282,4182.9490000000005,0,0
626,102,0,3405,4173.59,4173.333,4180.128,4231.667,4182.436,4179.103,4185.641,4204.231,4187.564,4188.077,4172.564,4183.974,4191.026,4179.359,0,0
627,103,0,3258,4164.103,4164.103,4166.923,4218.974,4172.692,4173.333,4179.359,4192.821,4177.179,4171.41,4166.923,4178.718,4177.308,4169.872,0,0
628,104,0,3085,4166.41,4155.255999999999,4174.231,4226.667,4167.436,4174.487,4191.282,4201.538,4177.308,4173.205,4175.513,4186.923,4175.769,4175.128,0,0
629,105,0,3233,4178.205,4172.821,4192.9490000000005,4241.923,4170.128,4180.128,4205.897,4214.615,4189.744000000001,4190.385,4188.333,4201.282,4188.974,4185.897,0,0
630,106,0,3405,4172.821,4174.872,4188.59,4231.282,4169.231,4177.179,4193.846,4200.769,4184.872,4184.231,4176.538,4190.255999999999,4181.154,4178.077,0,0
631,107,0,3258,4165.255999999999,4156.795,4178.077,4230.769,4173.846,4176.538,4188.205,4195.385,4184.615,4180.255999999999,4167.436,4177.9490000000005,4176.795,4171.923,0,0
632,108,0,3085,4169.615,4156.923,4181.795,4237.564,4174.487,4180.897,4205.641,4217.436,4207.179,4198.462,4176.667,4186.538,4195.769,4174.615,0,0
633,109,0,3233,4156.026,4152.0509999999995,4165.255999999999,4206.923,4161.026,4172.179,4193.974,4208.333,4197.564,4187.179,4164.744000000001,4171.154,4185.897,4153.077,0,0
634,110,0,3405,4144.615,4142.436,4151.667,4195.769,4162.9490000000005,4168.846,4170.385,4180.897,4166.795,4162.179,4148.59,4152.9490000000005,4162.179,4139.359,0,0
635,111,0,3258,4164.359,4163.718,4180.897,4233.462,4192.0509999999995,4181.795,4193.718,4203.205,4186.41,4187.436,4173.846,4183.205,4186.923,4173.462,0,0
636,112,0,3085,4179.744000000001,4181.154,4202.9490000000005,4245.128,4201.667,4182.0509999999995,4217.0509999999995,4226.795,4211.41,4211.667,4194.872,4209.744000000001,4211.282,4196.795,0,0
637,113,0,3233,4165.128,4168.333,4179.872,4226.026,4176.538,4167.436,4195.897,4199.744000000001,4185.513,4190.513,4177.9490000000005,4185.385,4190.385,4175.385,0,0
638,114,0,3405,4166.154,4165.513,4167.692,4230.255999999999,4163.59,4168.077,4181.538,4186.282,4170.641,4178.974,4168.974,4168.462,4181.538,4167.436,0,0
639,115,0,3258,4172.436,4170.769,4174.744000000001,4235.128,4170.897,4171.538,4190.128,4201.026,4186.154,4187.564,4174.872,4175.128,4192.692,4173.846,0,0
640,116,0,3085,4161.538,4157.9490000000005,4171.41,4219.487,4172.436,4168.333,4191.667,4202.0509999999995,4188.077,4180.897,4169.359,4173.333,4187.179,4162.179,0,0
641,117,0,3233,4158.59,4159.103,4170.513,4213.333,4181.41,4169.359,4195.641,4209.231,4192.692,4183.846,4169.615,4175.255999999999,4190.0,4156.41,0,0
642,118,0,3405,4164.231,4176.538,4172.436,4222.436,4193.846,4173.846,4201.795,4212.564,4201.282,4191.667,4174.359,4182.179,4198.077,4164.744000000001,0,0
643,119,0,3258,4151.923,4170.255999999999,4159.744000000001,4225.513,4177.436,4165.385,4186.667,4186.795,4186.667,4168.205,4161.41,4166.795,4173.718,4158.077,0,0
644,120,0,3085,4154.231,4160.0,4163.718,4223.333,4163.077,4161.795,4181.41,4182.9490000000005,4182.179,4162.564,4159.872,4164.744000000001,4162.9490000000005,4161.026,0,0
645,121,0,3233,4175.897,4174.103,4185.513,4227.692,4178.59,4171.282,4201.154,4210.897,4203.974,4195.128,4183.846,4189.359,4195.128,4183.846,0,0
646,122,0,3405,4173.205,4180.385,4182.564,4226.538,4188.077,4173.974,4203.205,4211.667,4204.615,4200.641,4186.41,4189.872,4206.923,4183.077,0,0
647,123,0,3258,4166.538,4172.9490000000005,4177.692,4219.231,4178.59,4171.282,4201.538,4198.59,4188.462,4182.564,4173.462,4180.513,4188.59,4173.462,0,0
648,124,0,3085,4167.436,4164.103,4179.103,4213.462,4174.487,4169.487,4199.231,4199.231,4181.667,4177.692,4170.385,4180.0,4178.205,4170.897,0,0
649,125,0,3233,4160.128,4155.128,4169.359,4211.282,4186.154,4169.744000000001,4184.359,4203.462,4184.872,4176.282,4167.9490000000005,4172.179,4178.59,4163.077,0,0
650,126,0,3405,4161.795,4175.255999999999,4169.615,4227.692,4194.615,4172.564,4191.923,4213.846,4202.564,4185.769,4172.692,4175.897,4191.538,4165.0,0,0
651,127,0,54,4172.308,4203.462,4179.872,4243.846,4193.333,4179.744000000001,4215.641,4226.41,4216.282,4206.154,4182.308,4191.154,4208.974,4175.641,0,0
652,0,0,3124,4162.179,4194.744000000001,4168.462,4232.564,4193.462,4179.744000000001,4210.769,4224.359,4204.872,4201.667,4175.769,4181.538,4203.59,4167.821,0,0
653,1,0,3322,4156.538,4177.179,4165.641,4230.128,4187.692,4177.179,4194.615,4207.692,4188.333,4180.897,4165.128,4169.744000000001,4186.154,4163.846,0,0
654,2,0,2846,4166.795,4187.9490000000005,4177.564,4243.718,4187.436,4172.692,4197.692,4195.641,4189.231,4185.0,4170.255999999999,4175.513,4187.692,4177.308,0,0
655,3,0,3531,4169.359,4189.615,4173.974,4231.795,4197.564,4169.103,4204.744000000001,4202.0509999999995,4195.255999999999,4199.615,4178.205,4176.538,4196.795,4179.487,0,0
656,4,0,3515,4169.103,4180.641,4171.41,4220.513,4189.359,4172.821,4210.385,4214.615,4195.769,4203.59,4183.077,4178.462,4196.923,4175.641,0,0
657,5,0,1744,4176.282,4193.718,4184.615,4240.255999999999,4176.667,4178.333,4208.974,4211.282,4192.0509999999995,4200.255999999999,4188.077,4189.744000000001,4191.026,4180.897,0,0
658,6,0,3266,4171.154,4201.41,4183.846,4246.538,4188.59,4169.359,4191.538,4195.513,4183.846,4187.692,4180.897,4187.436,4182.308,4178.462,0,0
659,7,0,3398,4169.231,4197.9490000000005,4179.231,4236.026,4199.231,4163.974,4192.0509999999995,4197.0509999999995,4180.769,4182.9490000000005,4178.333,4185.641,4179.872,4180.769,0,0
660,8,0,3152,4175.0,4200.255999999999,4180.255999999999,4230.128,4187.9490000000005,4169.872,4202.692,4198.718,4180.385,4186.026,4185.255999999999,4191.282,4182.0509999999995,4189.359,0,0
661,9,0,3564,4169.231,4195.513,4173.333,4225.769,4176.154,4173.205,4197.179,4187.692,4175.897,4178.462,4179.103,4183.205,4176.538,4179.615,0,0
662,10,0,3417,4171.667,4199.359,4180.128,4241.41,4189.615,4175.255999999999,4203.718,4200.128,4187.308,4185.128,4176.667,4181.282,4184.744000000001,4175.255999999999,0,0
663,11,0,3259,4183.974,4213.974,4190.385,4260.769,4205.255999999999,4179.359,4218.333,4216.41,4201.154,4198.205,4186.538,4192.436,4200.513,4188.333,0,0
664,12,0,3091,4176.667,4204.744000000001,4179.359,4251.282,4180.385,4176.538,4203.974,4192.436,4184.487,4180.0,4180.128,4186.667,4188.205,4182.821,0,0
665,13,0,3233,4167.179,4178.59,4175.128,4235.513,4160.897,4172.564,4190.513,4178.333,4175.385,4171.795,4172.692,4177.436,4178.846,4170.641,0,0
666,14,0,3417,4182.692,4187.692,4192.821,4249.487,4190.897,4180.641,4210.0,4209.615,4201.923,4203.718,4191.41,4192.564,4202.436,4186.923,0,0
667,15,0,3259,4185.0,4212.564,4190.255999999999,4263.205,4217.821,4185.769,4220.0,4221.154,4214.615,4217.436,4201.795,4199.231,4217.179,4198.077,0,0
668,16,0,0,4168.718,4207.436,4173.462,4250.513,4205.769,4182.0509999999995,4201.923,4202.0509999999995,4197.179,4200.513,4187.0509999999995,4185.128,4199.231,4182.564,0,0
669,17,0,0,4164.487,4193.077,4173.333,4242.0509999999995,4188.205,4179.103,4188.59,4197.0509999999995,4189.359,4193.462,4179.359,4179.487,4185.641,4173.59,0,0
670,18,0,0,4176.538,4195.128,4184.872,4247.564,4186.026,4184.872,4193.59,4197.436,4196.795,4194.615,4189.359,4191.026,4190.255999999999,4185.128,0,0
671,19,0,0,4179.744000000001,4201.026,4188.205,4248.205,4190.897,4186.026,4202.821,4194.359,4198.59,4194.872,4198.718,4200.255999999999,4197.692,4195.641,0,0
672,20,0,0,4177.821,4196.41,4190.641,4248.718,4192.821,4186.923,4204.615,4196.923,4194.103,4196.923,4197.308,4203.333,4199.487,4195.255999999999,0,0
673,21,0,0,4176.795,4186.795,4192.692,4252.0509999999995,4183.333,4185.769,4198.462,4192.179,4185.513,4189.615,4189.103,4199.744000000001,4190.641,4192.0509999999995,0,0
674,22,0,0,4172.308,4180.385,4182.692,4238.974,4176.154,4172.436,4186.538,4171.41,4170.769,4173.077,4181.41,4187.308,4175.128,4188.59,0,0
675,23,0,0,4172.821,4187.179,4178.59,4234.744000000001,4183.462,4170.641,4186.282,4171.795,4171.026,4171.667,4182.692,4187.308,4176.538,4190.769,0,0
676,24,0,0,4190.0,4210.513,4200.255999999999,4262.821,4187.564,4202.179,4203.718,4200.513,4193.59,4194.359,4196.026,4208.846,4199.615,4205.897,0,0
677,25,0,0,4200.0,4214.872,4214.359,4272.9490000000005,4183.333,4222.821,4212.436,4208.718,4201.026,4209.103,4206.538,4217.821,4202.308,4214.744000000001,0,0
678,26,0,0,4187.308,4197.692,4200.513,4252.692,4180.0,4211.795,4199.103,4190.385,4185.897,4199.744000000001,4198.974,4202.821,4185.513,4202.0509999999995,0,0
679,27,0,0,4174.744000000001,4191.026,4188.333,4245.128,4178.077,4205.769,4184.359,4178.974,4177.564,4189.359,4188.462,4196.41,4185.769,4191.795,0,0
680,28,0,0,4168.462,4179.231,4181.923,4240.513,4167.692,4203.077,4172.821,4171.923,4172.436,4181.923,4184.103,4190.769,4182.821,4189.359,0,0
681,29,0,0,4172.9490000000005,4172.692,4180.128,4237.0509999999995,4164.359,4196.667,4173.974,4169.359,4170.769,4177.436,4182.564,4182.436,4174.487,4188.462,0,0
682,30,0,0,4186.026,4196.923,4187.308,4255.513,4180.128,4198.205,4188.333,4176.795,4180.769,4180.769,4183.974,4187.0509999999995,4185.255999999999,4193.974,0,0
683,31,0,0,4186.795,4204.359,4193.333,4258.333,4188.205,4205.128,4188.846,4181.667,4183.462,4180.255999999999,4183.462,4192.564,4191.41,4197.0509999999995,0,0
684,32,0,0,4174.744000000001,4180.0,4191.667,4238.974,4185.897,4205.385,4182.436,4184.359,4178.205,4177.436,4182.436,4187.179,4179.744000000001,4191.667,0,0
685,33,0,0,4178.205,4180.128,4191.667,4246.026,4176.538,4204.231,4185.513,4181.795,4176.923,4179.359,4184.231,4187.0509999999995,4174.615,4192.436,0,0
686,34,0,0,4186.026,4201.667,4188.333,4265.0,4171.923,4198.59,4183.59,4171.538,4171.154,4178.462,4181.923,4190.128,4177.692,4199.487,0,0
687,35,0,0,4187.821,4202.436,4193.974,4261.795,4196.282,4199.872,4180.128,4174.231,4168.333,4182.9490000000005,4184.744000000001,4195.128,4184.615,4206.41,0,0
688,36,0,0,4187.9490000000005,4198.462,4203.462,4257.692,4203.974,4204.872,4184.103,4187.436,4178.974,4203.462,4197.9490000000005,4202.179,4198.462,4207.9490000000005,0,0
689,37,0,0,4186.667,4199.103,4194.103,4256.41,4174.615,4203.974,4185.255999999999,4188.205,4184.615,4210.513,4199.872,4199.231,4199.744000000001,4199.615,0,0
690,38,0,0,4176.923,4195.128,4178.205,4247.308,4170.255999999999,4200.641,4182.692,4183.205,4177.9490000000005,4195.128,4187.692,4188.846,4189.744000000001,4191.282,0,0
691,39,0,0,4168.462,4182.436,4174.744000000001,4242.0509999999995,4189.231,4197.9490000000005,4178.205,4176.026,4166.923,4180.0,4181.667,4181.538,4178.59,4185.255999999999,0,0
692,40,0,0,4166.923,4168.59,4174.744000000001,4232.821,4176.923,4193.462,4169.615,4162.821,4157.179,4172.821,4179.744000000001,4176.026,4166.923,4178.718,0,0
693,41,0,0,4176.282,4174.615,4181.795,4233.077,4163.718,4197.821,4177.692,4169.231,4165.385,4178.974,4183.718,4181.538,4172.308,4188.59,0,0
694,42,0,0,4185.769,4190.128,4193.846,4249.872,4175.255999999999,4202.308,4192.821,4182.179,4179.615,4190.769,4191.667,4195.769,4184.359,4201.667,0,0
695,43,0,0,4183.718,4196.923,4191.795,4256.795,4184.744000000001,4198.974,4188.846,4177.692,4180.513,4193.333,4190.769,4199.231,4184.359,4198.974,0,0
696,44,0,0,4185.769,4193.846,4189.744000000001,4255.0,4191.41,4203.462,4183.59,4175.0,4180.385,4189.231,4191.282,4198.718,4188.077,4201.026,0,0
697,45,0,0,4192.436,4185.897,4196.795,4253.718,4184.231,4202.179,4182.692,4174.103,4178.077,4186.282,4193.846,4199.487,4194.103,4207.9490000000005,0,0
698,46,0,0,4195.641,4188.077,4203.974,4253.205,4175.897,4191.154,4182.436,4173.974,4174.487,4184.359,4190.641,4200.513,4186.923,4206.795,0,0
699,47,0,0,4193.846,4203.205,4204.615,4257.308,4191.795,4195.128,4196.41,4188.846,4188.59,4193.462,4193.974,4203.59,4189.103,4207.564,0,0
700,48,0,0,4193.846,4201.795,4199.359,4259.744000000001,4194.744000000001,4209.359,4207.436,4199.615,4200.128,4205.513,4203.462,4203.205,4200.897,4205.513,0,0
701,49,0,0,4186.282,4187.436,4190.641,4247.821,4178.718,4201.795,4195.385,4185.897,4189.103,4203.205,4200.513,4194.615,4192.9490000000005,4193.205,0,0
702,50,0,0,4183.205,4184.615,4194.231,4235.513,4174.744000000001,4192.0509999999995,4185.769,4175.769,4177.436,4191.667,4191.923,4191.923,4178.462,4192.308,0,0
703,51,0,0,4180.255999999999,4176.282,4190.128,4229.872,4170.641,4193.846,4178.718,4171.026,4171.282,4177.436,4182.564,4185.128,4172.692,4189.359,0,0
704,52,0,0,4177.179,4170.897,4182.564,4238.077,4155.255999999999,4193.333,4173.846,4164.615,4170.0,4173.974,4178.077,4178.077,4173.333,4183.462,0,0
705,53,0,0,4193.077,4197.564,4200.897,4262.308,4175.385,4194.744000000001,4203.846,4195.513,4199.487,4203.333,4203.205,4202.692,4199.744000000001,4205.769,0,0
706,54,0,0,4206.795,4217.436,4207.9490000000005,4259.103,4207.9490000000005,4202.308,4226.282,4222.308,4217.692,4226.026,4222.9490000000005,4221.154,4221.41,4220.255999999999,0,0
707,55,0,0,4191.154,4195.897,4188.333,4232.821,4192.9490000000005,4200.769,4198.974,4197.692,4190.513,4206.538,4200.513,4197.9490000000005,4199.615,4197.564,0,0
708,56,0,0,4179.103,4174.103,4187.692,4229.872,4172.179,4194.359,4180.513,4176.795,4174.487,4187.308,4180.769,4185.128,4177.692,4184.487,0,0
709,57,0,0,4188.333,4178.974,4199.487,4240.0,4182.0509999999995,4193.718,4191.154,4184.744000000001,4186.41,4193.462,4193.718,4200.641,4189.359,4195.128,0,0
710,58,0,0,4193.333,4187.436,4192.436,4247.179,4189.359,4197.308,4193.462,4189.744000000001,4191.41,4199.487,4205.128,4204.231,4200.255999999999,4197.436,0,0
711,59,0,0,4191.282,4185.641,4187.564,4246.667,4181.41,4199.744000000001,4191.538,4193.718,4190.769,4200.0,4198.077,4198.846,4195.513,4196.282,0,0
712,60,0,0,4190.641,4183.974,4193.718,4237.436,4180.513,4197.0509999999995,4200.385,4202.821,4196.41,4200.641,4198.846,4201.538,4193.462,4201.923,0,0
713,61,0,0,4192.821,4188.077,4200.128,4241.282,4175.769,4193.718,4200.128,4195.897,4193.205,4196.667,4202.821,4203.846,4192.0509999999995,4203.205,0,0
714,62,0,0,4183.077,4179.615,4190.641,4239.744000000001,4164.359,4188.462,4181.154,4176.282,4179.872,4188.846,4190.385,4191.538,4184.231,4188.718,0,0
715,63,0,0,4171.795,4165.0,4177.179,4214.872,4167.0509999999995,4187.436,4173.077,4168.718,4174.487,4185.385,4180.385,4180.255999999999,4180.0,4176.923,0,0
716,64,0,3130,4182.436,4173.718,4185.769,4215.641,4177.308,4193.718,4190.0,4183.205,4187.692,4199.744000000001,4194.615,4193.205,4191.154,4193.718,0,0
717,65,0,3328,4206.538,4194.744000000001,4211.795,4251.154,4188.974,4202.564,4208.333,4202.9490000000005,4205.897,4218.718,4213.846,4216.795,4207.179,4218.846,0,0
718,66,0,2846,4200.255999999999,4190.897,4207.436,4255.0,4191.923,4196.41,4203.59,4198.846,4202.308,4212.308,4207.308,4208.077,4204.872,4210.255999999999,0,0
719,67,0,3535,4179.872,4173.846,4180.513,4228.846,4182.821,4193.333,4192.821,4181.923,4185.128,4192.179,4187.821,4184.231,4190.641,4186.41,0,0
720,68,0,3514,4180.255999999999,4178.077,4176.282,4225.255999999999,4175.769,4198.718,4195.128,4183.333,4182.821,4191.154,4185.641,4184.103,4185.128,4186.667,0,0
721,69,0,1745,4183.333,4180.255999999999,4185.769,4232.564,4165.0,4194.231,4191.538,4183.974,4183.974,4191.154,4188.718,4183.718,4182.436,4190.255999999999,0,0
722,70,0,3266,4175.769,4168.462,4181.282,4227.564,4152.564,4188.718,4186.923,4175.641,4179.744000000001,4181.026,4182.692,4175.385,4181.282,4181.282,0,0
723,71,0,3402,4170.641,4164.744000000001,4170.128,4220.385,4153.077,4195.0,4188.846,4171.154,4175.385,4177.179,4178.974,4174.872,4180.385,4175.255999999999,0,0
724,72,0,3153,4166.282,4164.359,4169.744000000001,4223.205,4155.641,4194.615,4183.333,4165.641,4168.462,4176.282,4178.333,4174.231,4171.667,4171.41,0,0
725,73,0,3568,4174.103,4170.255999999999,4186.795,4238.462,4164.615,4194.103,4182.0509999999995,4171.538,4171.154,4183.59,4183.462,4180.385,4175.128,4177.308,0,0
726,74,0,3418,4198.59,4195.128,4210.513,4254.231,4201.154,4205.385,4199.872,4194.103,4187.821,4207.0509999999995,4203.205,4203.846,4200.255999999999,4205.0,0,0
727,75,0,3265,4206.538,4204.359,4208.205,4248.974,4220.769,4208.205,4204.744000000001,4197.436,4193.205,4216.538,4216.795,4212.9490000000005,4211.282,4221.41,0,0
728,76,0,3094,4186.667,4178.846,4183.462,4227.179,4194.359,4197.9490000000005,4182.308,4168.974,4170.897,4194.103,4197.308,4191.41,4190.128,4198.333,0,0
729,77,0,3237,4176.538,4173.333,4182.821,4226.667,4182.308,4191.538,4179.872,4160.769,4157.0509999999995,4180.641,4181.667,4181.538,4178.974,4183.846,0,0
730,78,0,3418,4193.974,4191.667,4205.255999999999,4246.282,4192.308,4198.718,4199.872,4181.538,4174.615,4193.846,4196.41,4199.103,4192.436,4206.154,0,0
731,79,0,3265,4197.9490000000005,4184.231,4205.128,4239.744000000001,4177.308,4202.564,4200.513,4186.538,4185.385,4199.231,4204.615,4204.615,4194.615,4212.821,0,0
732,80,0,3094,4185.897,4172.308,4191.667,4219.872,4168.59,4196.795,4191.154,4177.564,4174.487,4189.231,4197.0509999999995,4195.385,4180.513,4196.154,0,0
733,81,0,3237,4181.538,4182.179,4187.308,4226.026,4187.436,4189.615,4195.385,4178.718,4175.641,4191.41,4196.41,4193.462,4182.0509999999995,4192.308,0,0
734,82,0,3418,4185.641,4183.974,4188.205,4236.795,4184.103,4191.538,4198.205,4185.385,4185.769,4197.9490000000005,4196.667,4195.513,4190.255999999999,4196.795,0,0
735,83,0,3265,4180.0,4174.872,4183.59,4225.513,4173.846,4191.667,4187.821,4183.205,4181.795,4191.795,4188.59,4190.0,4186.923,4187.564,0,0
736,84,0,3094,4174.231,4166.538,4179.231,4211.538,4178.59,4187.564,4180.0,4175.513,4172.821,4183.974,4179.615,4184.231,4182.692,4176.026,0,0
737,85,0,3237,4176.923,4159.487,4177.308,4215.0,4168.205,4186.538,4174.359,4165.641,4167.0509999999995,4178.974,4173.974,4179.103,4180.0,4175.0,0,0
738,86,0,3418,4192.0509999999995,4171.538,4186.282,4227.821,4169.359,4193.59,4178.462,4166.41,4170.641,4183.077,4180.255999999999,4186.154,4189.872,4190.385,0,0
739,87,0,3265,4206.282,4192.821,4202.692,4236.538,4197.308,4201.154,4197.0509999999995,4180.897,4186.795,4196.795,4197.179,4206.667,4206.923,4209.487,0,0
740,88,0,3094,4197.308,4185.513,4199.231,4226.538,4205.128,4197.436,4196.41,4178.462,4185.897,4191.795,4194.615,4204.359,4192.9490000000005,4203.59,0,0
741,89,0,3237,4179.872,4163.846,4184.231,4210.0,4182.9490000000005,4185.128,4178.205,4159.231,4163.974,4169.872,4176.41,4185.513,4166.795,4185.255999999999,0,0
742,90,0,3418,4188.205,4166.154,4190.641,4217.179,4177.308,4185.128,4187.179,4162.308,4166.282,4175.255999999999,4179.872,4190.769,4176.282,4189.744000000001,0,0
743,91,0,3265,4201.154,4181.282,4204.872,4235.513,4195.385,4193.974,4205.513,4184.103,4185.513,4192.308,4193.974,4205.641,4191.538,4202.564,0,0
744,92,0,3094,4191.154,4184.487,4193.59,4233.846,4201.154,4187.0509999999995,4192.436,4185.513,4183.846,4188.205,4191.923,4199.359,4185.385,4197.179,0,0
745,93,0,3237,4183.846,4174.103,4178.59,4218.846,4179.487,4177.0509999999995,4173.974,4170.385,4169.359,4176.923,4184.231,4189.487,4183.462,4188.205,0,0
746,94,0,3418,4181.667,4162.9490000000005,4175.385,4214.872,4156.923,4177.692,4168.59,4161.41,4162.9490000000005,4168.333,4181.41,4182.436,4180.128,4185.128,0,0
747,95,0,3265,4184.103,4170.897,4178.077,4219.872,4175.385,4179.872,4171.795,4169.615,4171.154,4171.538,4182.308,4183.333,4175.897,4189.103,0,0
748,96,0,3094,4192.564,4181.923,4183.333,4223.974,4198.59,4176.795,4186.026,4187.308,4186.667,4191.538,4189.231,4196.154,4189.487,4196.026,0,0
749,97,0,3237,4194.615,4175.255999999999,4183.462,4223.718,4181.41,4180.513,4189.487,4185.0,4185.128,4191.282,4187.0509999999995,4193.59,4189.231,4190.897,0,0
750,98,0,3418,4184.744000000001,4170.255999999999,4172.308,4216.154,4169.103,4180.0,4177.308,4168.846,4168.462,4168.59,4173.846,4172.692,4170.255999999999,4179.231,0,0
751,99,0,3265,4181.795,4171.282,4167.564,4210.897,4182.436,4178.077,4175.385,4168.59,4165.641,4164.103,4168.718,4171.667,4166.282,4177.179,0,0
752,100,0,3094,4181.282,4167.436,4172.821,4211.667,4189.103,4180.255999999999,4184.103,4177.0509999999995,4173.846,4174.103,4171.282,4182.564,4174.487,4181.795,0,0
753,101,0,3237,4188.077,4176.795,4188.462,4221.795,4190.769,4185.897,4194.744000000001,4184.872,4183.077,4188.077,4182.564,4193.077,4189.487,4192.564,0,0
754,102,0,3418,4202.0509999999995,4194.103,4203.077,4234.231,4206.923,4187.436,4204.872,4199.103,4196.667,4205.255999999999,4202.179,4204.872,4205.641,4203.974,0,0
755,103,0,3265,4192.692,4182.179,4191.795,4227.564,4200.897,4179.615,4195.641,4192.436,4191.154,4195.128,4196.026,4195.255999999999,4193.205,4191.795,0,0
756,104,0,3094,4170.255999999999,4162.9490000000005,4170.255999999999,4208.974,4173.59,4173.718,4175.641,4169.872,4173.59,4170.897,4169.872,4173.462,4171.538,4171.538,0,0
757,105,0,3237,4168.077,4164.359,4169.487,4200.128,4164.744000000001,4177.821,4170.0,4169.359,4175.897,4171.282,4166.282,4171.41,4173.333,4167.564,0,0
758,106,0,3418,4176.795,4165.513,4176.026,4202.436,4161.41,4179.744000000001,4171.41,4171.538,4182.564,4176.667,4173.205,4175.385,4179.615,4169.744000000001,0,0
759,107,0,3265,4172.564,4160.0,4164.231,4199.872,4154.231,4176.795,4168.718,4161.667,4181.282,4169.872,4168.718,4166.026,4175.128,4168.718,0,0
760,108,0,3094,4166.41,4158.333,4161.795,4197.9490000000005,4154.359,4181.538,4173.077,4167.564,4187.308,4171.41,4168.718,4166.282,4176.41,4170.128,0,0
761,109,0,3237,4161.538,4151.923,4167.0509999999995,4198.205,4146.923,4179.487,4178.205,4175.385,4185.897,4174.103,4167.436,4169.103,4174.744000000001,4165.897,0,0
762,110,0,3418,4172.564,4155.769,4177.179,4209.615,4148.462,4180.255999999999,4188.205,4178.718,4185.128,4181.667,4175.128,4180.385,4183.846,4174.487,0,0
763,111,0,3265,4188.333,4182.564,4188.974,4227.692,4180.897,4188.846,4201.923,4194.615,4208.59,4201.41,4197.308,4201.538,4209.359,4197.179,0,0
764,112,0,3094,4186.795,4193.59,4185.513,4225.641,4201.154,4188.333,4198.846,4198.59,4214.359,4201.026,4200.641,4200.0,4208.333,4196.154,0,0
765,113,0,3237,4175.0,4174.615,4174.103,4209.231,4177.821,4177.9490000000005,4184.615,4180.255999999999,4190.641,4181.154,4181.41,4178.077,4184.359,4177.564,0,0
766,114,0,3418,4174.231,4162.692,4175.769,4207.179,4152.308,4176.667,4178.718,4169.615,4179.615,4167.821,4168.718,4168.846,4170.897,4171.41,0,0
767,115,0,3265,4174.872,4173.333,4178.59,4212.692,4160.897,4177.436,4178.846,4174.487,4185.255999999999,4169.231,4172.179,4175.641,4173.462,4173.462,0,0
768,116,0,3094,4174.872,4180.255999999999,4176.282,4209.103,4177.436,4177.308,4180.897,4183.974,4192.308,4180.385,4182.436,4180.385,4180.641,4177.308,0,0
769,117,0,3237,4177.821,4173.077,4176.41,4200.0,4174.744000000001,4175.255999999999,4183.205,4184.872,4196.667,4186.795,4184.231,4175.255999999999,4186.026,4177.0509999999995,0,0
