,COUNTER, INTERPOLATED, RAW_CQ, AF3, F7, F3, FC5, T7, P7, O1, O2, P8, T8, FC6, F4, F8, AF4, MARKER_HARDWARE, MARKER
0,77,0,3218,4194.103,4192.692,4198.462,4188.333,4192.821,4187.179,4186.41,4206.795,4199.487,4202.692,4183.205,4173.077,4187.179,4186.538,0,0
1,78,0,3260,4197.692,4188.718,4196.154,4185.897,4191.667,4185.897,4186.41,4201.026,4191.667,4192.821,4188.974,4173.846,4188.462,4187.564,0,0
2,79,0,2977,4196.667,4188.462,4191.795,4185.641,4190.641,4184.487,4185.641,4198.205,4187.692,4185.513,4191.795,4175.128,4185.0,4188.333,0,0
3,80,0,2703,4189.872,4190.897,4191.667,4188.974,4190.897,4184.872,4186.923,4201.923,4190.897,4183.846,4188.59,4174.744000000001,4182.179,4189.615,0,0
4,81,0,3218,4183.974,4186.538,4189.615,4185.513,4189.487,4183.333,4184.872,4193.462,4189.744000000001,4185.0,4183.462,4169.872,4185.641,4186.282,0,0
5,82,0,3260,4183.846,4183.462,4185.0,4179.615,4185.0,4179.872,4182.308,4183.462,4186.026,4190.769,4182.179,4166.795,4185.769,4181.667,0,0
6,83,0,2977,4187.0509999999995,4186.154,4184.615,4182.564,4188.077,4180.513,4184.615,4188.333,4186.282,4192.564,4187.0509999999995,4170.897,4182.436,4184.103,0,0
7,84,0,2703,4187.0509999999995,4185.641,4192.564,4187.692,4192.436,4183.846,4185.897,4190.128,4188.846,4187.692,4188.974,4174.103,4185.255999999999,4186.795,0,0
8,85,0,3218,4183.846,4186.41,4197.0509999999995,4186.667,4191.667,4183.718,4183.462,4186.026,4186.41,4186.41,4186.795,4172.9490000000005,4188.846,4185.897,0,0
9,86,0,3260,4183.974,4189.744000000001,4189.872,4184.231,4189.231,4183.59,4180.897,4190.769,4184.615,4191.667,4184.103,4170.769,4185.513,4183.462,0,0
10,87,0,2977,4184.359,4187.0509999999995,4188.205,4186.282,4190.128,4186.41,4183.59,4198.846,4191.923,4195.128,4183.718,4169.231,4184.615,4183.077,0,0
11,88,0,2703,4184.359,4184.872,4197.821,4187.0509999999995,4195.897,4187.436,4186.923,4202.821,4198.974,4193.718,4186.667,4170.385,4189.487,4185.385,0,0
12,89,0,3218,4192.9490000000005,4195.513,4205.128,4184.615,4200.769,4186.795,4186.282,4202.692,4192.436,4187.821,4186.923,4173.718,4188.846,4185.641,0,0
13,90,0,3260,4201.923,4202.0509999999995,4204.359,4190.0,4200.0,4189.359,4188.59,4200.897,4185.769,4191.795,4187.692,4179.615,4184.615,4189.615,0,0
14,91,0,2977,4199.872,4193.974,4205.897,4195.128,4200.0,4189.744000000001,4191.41,4201.282,4194.359,4205.385,4194.103,4184.487,4185.897,4198.462,0,0
15,92,0,2703,4200.128,4194.103,4211.667,4190.128,4200.641,4186.41,4189.487,4204.487,4201.154,4200.0,4199.359,4185.385,4188.333,4202.308,0,0
16,93,0,3218,4205.0,4197.692,4212.9490000000005,4183.846,4195.641,4184.487,4186.538,4202.821,4196.41,4185.897,4198.333,4186.41,4187.436,4200.769,0,0
17,94,0,3260,4204.103,4192.692,4210.641,4184.487,4191.795,4182.821,4184.103,4197.308,4191.154,4191.538,4191.026,4186.923,4185.641,4199.872,0,0
18,95,0,2977,4200.385,4193.974,4209.744000000001,4188.462,4191.923,4180.641,4181.538,4198.205,4188.974,4205.513,4187.179,4184.359,4183.333,4200.897,0,0
19,96,0,2703,4196.154,4196.282,4208.205,4188.846,4188.59,4183.077,4182.821,4199.103,4189.872,4202.308,4195.128,4183.077,4184.487,4201.923,0,0
20,97,0,3218,4191.667,4187.692,4203.077,4185.641,4187.179,4186.41,4187.0509999999995,4197.308,4190.385,4186.667,4198.205,4181.026,4188.077,4198.974,0,0
21,98,0,3260,4186.667,4183.077,4199.615,4182.0509999999995,4187.564,4183.846,4184.744000000001,4193.333,4188.077,4182.564,4186.41,4172.9490000000005,4185.513,4188.462,0,0
22,99,0,2977,4181.154,4186.667,4197.308,4182.564,4188.205,4181.154,4180.385,4189.103,4185.128,4193.59,4181.667,4166.41,4180.255999999999,4181.795,0,0
23,100,0,2703,4181.538,4186.41,4196.026,4183.846,4190.641,4184.231,4182.564,4191.026,4188.077,4195.641,4189.359,4168.59,4182.436,4185.385,0,0
24,101,0,3218,4185.513,4184.231,4199.487,4182.308,4188.462,4183.846,4182.564,4193.077,4190.897,4188.718,4192.564,4173.718,4187.692,4188.205,0,0
25,102,0,3260,4183.846,4186.154,4201.282,4182.179,4185.128,4176.923,4176.667,4187.308,4187.821,4192.436,4192.308,4174.872,4183.846,4185.385,0,0
26,103,0,2977,4181.026,4188.846,4201.41,4185.641,4190.385,4173.718,4172.179,4182.9490000000005,4185.255999999999,4192.0509999999995,4191.41,4173.59,4175.255999999999,4184.615,0,0
27,104,0,2703,4183.974,4188.333,4199.487,4187.9490000000005,4192.821,4173.846,4172.436,4186.026,4184.487,4185.255999999999,4186.795,4172.436,4173.718,4187.436,0,0
28,105,0,3218,4183.974,4186.667,4197.308,4185.897,4187.9490000000005,4170.0,4171.667,4186.538,4183.462,4187.179,4184.487,4171.795,4179.487,4186.282,0,0
29,106,0,3260,4182.308,4187.179,4199.615,4184.231,4186.667,4171.667,4170.0,4184.744000000001,4184.359,4190.385,4185.128,4168.59,4182.821,4181.923,0,0
30,107,0,2977,4183.718,4189.231,4201.795,4185.128,4189.744000000001,4181.538,4175.128,4187.564,4187.308,4193.846,4185.513,4169.359,4184.487,4182.179,0,0
31,108,0,2703,4185.385,4192.692,4200.255999999999,4186.538,4192.564,4186.41,4185.385,4189.231,4188.846,4194.231,4187.179,4176.667,4187.308,4185.128,0,0
32,109,0,3218,4184.103,4192.9490000000005,4202.821,4187.9490000000005,4191.795,4185.385,4184.615,4187.308,4189.231,4186.154,4189.487,4177.821,4186.923,4186.154,0,0
33,110,0,3260,4177.564,4185.0,4202.564,4185.0,4186.538,4180.769,4173.59,4184.872,4187.9490000000005,4188.077,4185.769,4170.769,4184.359,4181.667,0,0
34,111,0,2977,4170.128,4178.718,4191.923,4181.41,4183.718,4175.255999999999,4170.897,4183.974,4185.769,4198.205,4182.0509999999995,4167.179,4180.641,4171.538,0,0
35,112,0,2703,4170.128,4182.0509999999995,4190.641,4183.333,4186.923,4176.282,4174.487,4183.846,4186.538,4190.513,4184.359,4168.333,4178.846,4167.821,0,0
36,113,0,3218,4177.308,4186.538,4201.282,4186.154,4187.308,4177.308,4173.077,4186.154,4187.821,4181.667,4187.564,4170.128,4181.667,4176.923,0,0
37,114,0,3260,4184.103,4186.923,4204.744000000001,4187.564,4182.821,4172.0509999999995,4170.128,4186.667,4186.026,4185.769,4187.821,4176.026,4181.282,4184.103,0,0
38,115,0,2977,4185.769,4185.513,4202.821,4188.846,4182.692,4170.385,4170.128,4187.0509999999995,4186.282,4185.897,4187.436,4184.615,4181.026,4182.564,0,0
39,116,0,2703,4187.308,4186.282,4204.744000000001,4188.846,4186.282,4173.718,4172.564,4191.795,4188.846,4190.128,4187.692,4186.538,4182.179,4184.103,0,0
40,117,0,3218,4187.821,4186.154,4204.231,4188.462,4184.103,4174.103,4175.255999999999,4191.795,4188.59,4190.385,4187.308,4179.615,4174.872,4188.077,0,0
41,118,0,3260,4186.026,4181.923,4204.487,4188.077,4179.744000000001,4171.538,4178.077,4186.282,4187.308,4179.744000000001,4185.385,4176.667,4168.462,4185.385,0,0
42,119,0,2977,4191.41,4185.513,4213.718,4191.154,4183.077,4172.564,4182.692,4188.718,4189.103,4185.128,4189.487,4182.436,4175.769,4185.128,0,0
43,120,0,2703,4202.0509999999995,4194.487,4219.103,4195.0,4188.59,4178.59,4182.692,4193.205,4190.385,4198.205,4199.615,4187.692,4183.333,4196.667,0,0
44,121,0,3218,4202.0509999999995,4193.205,4213.718,4191.282,4185.769,4182.564,4174.615,4189.359,4189.103,4198.077,4200.128,4188.077,4184.744000000001,4203.333,0,0
45,122,0,3260,4189.615,4184.103,4201.41,4185.897,4182.436,4180.513,4171.282,4187.0509999999995,4187.9490000000005,4198.846,4190.641,4183.077,4184.103,4193.846,0,0
46,123,0,2977,4175.641,4176.026,4188.846,4182.0509999999995,4186.667,4176.923,4172.308,4182.179,4181.923,4191.538,4183.077,4173.974,4177.9490000000005,4177.9490000000005,0,0
47,124,0,2703,4167.692,4169.615,4183.333,4175.769,4182.0509999999995,4174.744000000001,4169.615,4175.513,4175.513,4172.692,4177.436,4163.718,4169.744000000001,4170.513,0,0
48,125,0,3218,4166.538,4169.103,4183.974,4176.795,4174.359,4172.0509999999995,4169.103,4181.41,4181.282,4174.231,4175.641,4160.513,4168.974,4171.923,0,0
49,126,0,3260,4170.128,4178.974,4183.974,4186.154,4179.872,4171.923,4170.128,4189.359,4188.333,4182.0509999999995,4182.821,4164.615,4175.769,4172.0509999999995,0,0
50,127,0,52,4174.744000000001,4189.487,4183.846,4186.923,4185.255999999999,4173.974,4169.872,4187.564,4186.282,4176.41,4183.077,4166.923,4181.667,4169.872,0,0
51,0,0,2694,4172.821,4183.333,4185.897,4181.026,4180.0,4173.59,4171.923,4185.513,4184.103,4177.308,4172.564,4160.641,4178.718,4167.9490000000005,0,0
52,1,0,2055,4166.667,4172.436,4185.255999999999,4181.667,4177.436,4173.205,4173.59,4186.41,4186.41,4180.385,4167.0509999999995,4151.667,4170.255999999999,4166.923,0,0
53,2,0,3433,4171.282,4177.564,4185.128,4185.385,4176.282,4171.923,4171.154,4181.41,4185.641,4171.923,4169.231,4156.282,4170.897,4165.128,0,0
54,3,0,3402,4182.692,4189.359,4192.692,4187.821,4172.9490000000005,4172.564,4171.923,4183.077,4185.0,4174.231,4177.821,4166.923,4180.769,4168.718,0,0
55,4,0,2775,4187.692,4187.821,4200.513,4186.154,4174.103,4177.821,4178.077,4194.872,4192.564,4193.205,4186.667,4172.308,4187.564,4179.231,0,0
56,5,0,2623,4189.231,4184.359,4201.795,4185.641,4173.59,4183.59,4183.718,4196.795,4197.436,4201.154,4187.821,4177.564,4186.795,4185.128,0,0
57,6,0,2508,4190.128,4187.692,4201.795,4191.282,4175.897,4184.231,4182.179,4189.872,4193.205,4195.897,4185.513,4181.538,4186.41,4184.359,0,0
58,7,0,3023,4188.59,4188.205,4202.436,4193.205,4184.744000000001,4176.923,4174.744000000001,4186.667,4187.308,4187.821,4185.641,4177.0509999999995,4186.795,4184.487,0,0
59,8,0,2535,4187.179,4187.308,4197.9490000000005,4188.462,4183.974,4170.513,4168.205,4186.026,4184.744000000001,4179.744000000001,4187.436,4171.282,4178.718,4182.179,0,0
60,9,0,3501,4184.231,4186.538,4189.744000000001,4184.615,4177.692,4173.974,4170.641,4184.103,4183.462,4178.333,4183.077,4171.154,4170.385,4174.359,0,0
61,10,0,3259,4183.205,4184.103,4187.9490000000005,4184.872,4181.667,4184.359,4182.0509999999995,4188.077,4185.385,4186.154,4175.255999999999,4171.026,4171.026,4174.487,0,0
62,11,0,2970,4186.282,4184.231,4190.513,4185.128,4187.692,4188.205,4189.744000000001,4191.667,4189.359,4188.333,4174.744000000001,4171.795,4173.718,4182.692,0,0
63,12,0,2701,4180.897,4184.872,4188.462,4185.513,4188.59,4183.462,4189.231,4186.923,4188.077,4182.692,4182.692,4173.333,4172.308,4179.615,0,0
64,13,0,3215,4175.641,4183.59,4186.154,4186.026,4183.59,4184.744000000001,4187.0509999999995,4186.026,4186.026,4183.974,4183.718,4171.538,4172.308,4173.462,0,0
65,14,0,3259,4178.462,4177.821,4187.564,4178.974,4174.359,4184.103,4185.128,4187.0509999999995,4185.255999999999,4182.0509999999995,4176.667,4168.846,4172.821,4174.487,0,0
66,15,0,2970,4176.026,4172.308,4189.103,4175.641,4173.846,4176.923,4183.974,4183.974,4183.462,4176.026,4171.795,4165.641,4171.923,4174.872,0,0
67,16,0,0,4172.436,4177.0509999999995,4190.513,4180.769,4180.641,4173.974,4181.667,4181.538,4183.462,4180.385,4169.872,4166.282,4174.615,4174.359,0,0
68,17,0,0,4173.59,4181.282,4190.0,4179.359,4182.692,4173.974,4175.769,4178.974,4184.103,4180.128,4171.667,4165.769,4174.744000000001,4173.462,0,0
69,18,0,0,4170.513,4173.205,4186.41,4172.308,4178.077,4171.41,4168.718,4172.564,4182.436,4163.718,4173.718,4159.103,4169.872,4169.231,0,0
70,19,0,0,4167.179,4167.821,4185.641,4172.436,4179.359,4170.513,4166.538,4168.59,4180.255999999999,4157.9490000000005,4171.795,4159.615,4169.359,4168.077,0,0
71,20,0,0,4169.744000000001,4172.9490000000005,4186.538,4173.974,4182.9490000000005,4173.462,4169.744000000001,4173.462,4183.077,4172.0509999999995,4171.282,4167.9490000000005,4173.205,4172.821,0,0
72,21,0,0,4167.564,4173.718,4184.615,4171.282,4177.821,4172.564,4170.897,4178.974,4185.513,4177.179,4170.385,4167.0509999999995,4172.179,4172.9490000000005,0,0
73,22,0,0,4164.872,4169.487,4183.59,4171.923,4176.026,4172.308,4169.231,4181.538,4184.872,4173.718,4170.641,4164.487,4170.769,4170.769,0,0
74,23,0,0,4169.231,4169.872,4182.436,4173.333,4183.974,4174.231,4174.872,4183.846,4183.974,4175.255999999999,4173.205,4165.641,4172.308,4172.179,0,0
75,24,0,0,4168.205,4171.026,4182.692,4173.974,4183.718,4172.692,4181.923,4183.462,4183.718,4171.923,4172.436,4161.026,4172.179,4171.154,0,0
76,25,0,0,4168.333,4172.821,4185.641,4173.59,4172.9490000000005,4170.897,4176.667,4183.077,4184.872,4171.538,4173.462,4161.41,4177.179,4173.846,0,0
77,26,0,0,4175.385,4173.718,4186.923,4172.9490000000005,4170.0,4169.231,4169.359,4185.513,4187.436,4184.744000000001,4182.0509999999995,4169.487,4184.231,4185.385,0,0
78,27,0,0,4176.795,4171.795,4190.255999999999,4177.9490000000005,4171.923,4169.231,4170.0,4187.436,4187.564,4190.897,4186.667,4172.692,4184.615,4190.769,0,0
79,28,0,0,4171.41,4175.385,4190.897,4177.692,4174.872,4168.846,4167.692,4184.487,4184.872,4182.179,4182.308,4168.59,4183.333,4180.513,0,0
80,29,0,0,4169.103,4182.692,4186.41,4171.41,4182.0509999999995,4170.255999999999,4169.487,4183.846,4185.641,4182.821,4181.026,4162.692,4186.282,4176.667,0,0
81,30,0,0,4171.667,4185.0,4190.385,4176.154,4184.359,4177.564,4182.179,4189.615,4189.231,4193.59,4184.615,4161.795,4189.615,4185.897,0,0
82,31,0,0,4173.846,4185.255999999999,4196.026,4184.359,4185.0,4184.103,4187.821,4190.385,4187.564,4187.564,4182.821,4165.641,4188.718,4182.564,0,0
83,32,0,0,4173.846,4183.974,4188.59,4180.641,4188.077,4183.462,4185.255999999999,4186.538,4183.077,4176.154,4176.795,4166.795,4181.282,4172.564,0,0
84,33,0,0,4170.513,4174.872,4184.103,4171.923,4186.41,4181.795,4184.744000000001,4186.41,4180.385,4181.795,4170.385,4164.872,4171.282,4178.205,0,0
85,34,0,0,4171.41,4170.769,4193.333,4172.0509999999995,4183.59,4184.231,4184.231,4186.154,4180.128,4184.487,4168.846,4169.872,4169.487,4184.359,0,0
86,35,0,0,4180.641,4180.255999999999,4201.41,4180.255999999999,4187.308,4184.231,4183.333,4186.923,4182.692,4177.308,4177.179,4181.026,4173.333,4183.462,0,0
87,36,0,0,4186.923,4183.59,4202.9490000000005,4185.769,4190.0,4182.692,4184.359,4193.205,4186.41,4178.974,4187.179,4186.667,4172.0509999999995,4190.897,0,0
88,37,0,0,4190.0,4181.026,4202.308,4184.487,4186.795,4182.0509999999995,4184.359,4198.077,4186.795,4186.282,4185.385,4185.513,4170.128,4197.179,0,0
89,38,0,0,4195.128,4187.0509999999995,4204.744000000001,4188.59,4188.462,4182.0509999999995,4183.205,4199.872,4186.026,4193.077,4181.154,4192.564,4177.564,4196.41,0,0
90,39,0,0,4195.641,4186.026,4208.59,4188.718,4192.308,4182.692,4183.333,4197.821,4187.308,4197.9490000000005,4186.154,4203.718,4184.615,4197.179,0,0
91,40,0,0,4180.128,4170.255999999999,4200.769,4173.974,4185.128,4179.359,4182.564,4187.692,4186.41,4190.0,4188.077,4195.385,4177.9490000000005,4191.923,0,0
92,41,0,0,4170.0,4169.615,4194.615,4174.744000000001,4178.462,4178.462,4182.179,4182.692,4185.641,4179.615,4183.59,4183.718,4169.103,4184.615,0,0
93,42,0,0,4180.0,4179.744000000001,4196.795,4189.744000000001,4186.154,4183.333,4182.436,4187.436,4185.769,4184.487,4183.205,4183.718,4175.128,4187.179,0,0
94,43,0,0,4181.795,4176.923,4191.923,4185.513,4191.538,4185.255999999999,4183.974,4187.436,4187.0509999999995,4193.077,4183.718,4178.333,4185.0,4188.846,0,0
95,44,0,0,4174.487,4176.667,4186.538,4176.795,4182.308,4184.103,4182.9490000000005,4184.359,4191.026,4199.872,4184.872,4170.897,4185.641,4184.487,0,0
96,45,0,0,4180.769,4185.769,4196.667,4183.077,4176.667,4182.179,4174.872,4186.538,4191.795,4203.974,4187.564,4172.9490000000005,4184.231,4183.59,0,0
97,46,0,0,4189.231,4188.205,4200.128,4186.667,4182.308,4178.077,4170.769,4187.179,4187.436,4196.538,4186.923,4174.744000000001,4183.846,4185.0,0,0
98,47,0,0,4181.538,4181.795,4189.359,4181.923,4187.692,4176.923,4175.0,4187.564,4185.513,4189.744000000001,4180.513,4171.923,4181.41,4183.718,0,0
99,48,0,0,4172.436,4172.692,4186.795,4180.641,4185.897,4180.897,4174.872,4187.9490000000005,4184.872,4180.769,4172.9490000000005,4167.821,4180.769,4177.9490000000005,0,0
100,49,0,0,4171.667,4175.769,4190.0,4181.026,4182.692,4183.462,4172.692,4187.308,4181.795,4172.436,4175.897,4164.615,4179.359,4172.179,0,0
101,50,0,0,4172.179,4185.0,4188.718,4183.718,4184.231,4181.538,4175.513,4191.282,4185.128,4184.615,4183.718,4165.897,4177.436,4171.795,0,0
102,51,0,0,4171.154,4177.821,4186.154,4182.179,4185.128,4175.641,4175.0,4191.667,4192.564,4197.179,4179.744000000001,4168.077,4180.641,4173.846,0,0
103,52,0,0,4171.282,4171.41,4186.667,4178.59,4183.205,4178.077,4173.718,4185.641,4194.231,4195.255999999999,4176.41,4169.615,4186.795,4178.846,0,0
104,53,0,0,4172.692,4183.718,4187.821,4182.564,4182.9490000000005,4183.333,4175.769,4184.103,4189.231,4188.205,4183.333,4171.154,4187.9490000000005,4183.59,0,0
105,54,0,0,4171.154,4186.026,4186.667,4184.872,4183.718,4176.282,4173.205,4179.231,4180.255999999999,4177.0509999999995,4184.487,4167.564,4178.333,4182.0509999999995,0,0
106,55,0,0,4175.128,4178.333,4184.872,4180.769,4183.846,4174.487,4169.231,4169.487,4177.821,4175.255999999999,4181.41,4165.385,4169.359,4180.769,0,0
107,56,0,0,4180.641,4182.821,4184.359,4180.255999999999,4187.564,4181.282,4170.128,4169.103,4179.231,4187.821,4181.923,4168.59,4171.41,4184.103,0,0
108,57,0,0,4176.538,4188.205,4187.179,4185.513,4189.615,4177.821,4170.255999999999,4171.154,4175.128,4188.846,4181.282,4169.487,4176.923,4184.487,0,0
109,58,0,0,4172.821,4183.974,4187.0509999999995,4181.795,4186.154,4173.205,4168.462,4170.897,4173.333,4177.308,4179.359,4165.769,4171.538,4180.128,0,0
110,59,0,0,4178.846,4181.282,4185.897,4175.897,4185.769,4181.026,4176.667,4181.667,4182.0509999999995,4182.436,4182.821,4171.41,4168.077,4182.9490000000005,0,0
111,60,0,0,4187.436,4184.744000000001,4187.821,4180.385,4187.692,4186.026,4183.718,4191.795,4188.846,4185.385,4188.205,4186.154,4179.103,4191.026,0,0
112,61,0,0,4185.769,4188.205,4188.333,4185.641,4186.41,4180.0,4176.538,4186.538,4186.538,4178.974,4189.231,4185.769,4181.923,4190.385,0,0
113,62,0,0,4175.641,4187.692,4185.0,4185.255999999999,4184.487,4175.641,4168.333,4182.179,4184.744000000001,4191.026,4186.154,4172.692,4174.103,4185.255999999999,0,0
114,63,0,0,4168.462,4180.128,4184.359,4180.255999999999,4183.205,4175.897,4171.282,4184.231,4184.487,4197.564,4183.974,4171.538,4173.718,4183.462,0,0
115,64,0,2690,4168.462,4173.077,4185.897,4175.513,4182.308,4179.231,4174.744000000001,4184.872,4186.026,4187.9490000000005,4181.026,4175.255999999999,4182.179,4180.513,0,0
116,65,0,2047,4169.231,4173.718,4183.846,4176.282,4185.0,4181.154,4172.9490000000005,4186.282,4187.564,4182.9490000000005,4178.333,4170.255999999999,4183.333,4181.282,0,0
117,66,0,3431,4168.59,4177.821,4181.923,4182.308,4187.821,4180.128,4169.872,4179.744000000001,4180.0,4175.0,4183.333,4167.564,4174.615,4181.538,0,0
118,67,0,3399,4165.897,4182.308,4183.462,4183.974,4185.0,4174.487,4165.385,4169.615,4175.385,4168.333,4184.103,4167.179,4170.0,4173.974,0,0
119,68,0,2769,4161.026,4186.667,4183.974,4177.821,4185.0,4170.128,4166.667,4172.821,4182.821,4181.282,4173.333,4161.795,4176.41,4169.359,0,0
120,69,0,2621,4155.385,4182.179,4178.462,4172.821,4188.462,4175.641,4169.872,4179.487,4186.538,4189.615,4167.308,4153.718,4182.821,4164.744000000001,0,0
121,70,0,2504,4154.487,4176.41,4176.41,4174.872,4187.179,4182.179,4170.897,4180.255999999999,4183.718,4184.359,4173.333,4150.128,4180.897,4157.9490000000005,0,0
122,71,0,3022,4162.821,4177.9490000000005,4182.692,4182.179,4186.026,4184.103,4174.487,4181.795,4185.897,4181.026,4182.692,4157.9490000000005,4181.538,4163.333,0,0
123,72,0,2535,4170.255999999999,4179.744000000001,4186.282,4185.128,4188.974,4184.744000000001,4177.308,4185.385,4187.692,4177.308,4187.436,4169.103,4186.026,4174.231,0,0
124,73,0,3482,4168.077,4178.974,4183.333,4180.385,4188.974,4183.718,4179.744000000001,4185.255999999999,4185.513,4187.9490000000005,4185.641,4171.667,4183.974,4176.282,0,0
125,74,0,3259,4173.462,4184.615,4185.897,4181.154,4187.692,4181.538,4185.385,4186.923,4188.077,4203.077,4184.744000000001,4172.436,4182.0509999999995,4182.692,0,0
126,75,0,2970,4187.692,4189.744000000001,4191.667,4187.436,4189.487,4182.436,4184.744000000001,4189.103,4188.205,4193.462,4187.692,4175.769,4185.128,4191.923,0,0
127,76,0,2697,4187.308,4189.103,4190.385,4187.564,4188.59,4183.718,4175.641,4181.282,4179.103,4178.077,4182.692,4168.974,4183.462,4185.513,0,0
128,77,0,3214,4177.436,4188.59,4187.179,4184.487,4186.282,4178.333,4171.41,4170.769,4172.179,4166.282,4172.821,4158.846,4175.641,4173.974,0,0
129,78,0,3259,4167.821,4182.9490000000005,4181.538,4182.692,4182.821,4171.026,4170.513,4165.385,4169.359,4154.744000000001,4166.667,4151.538,4170.769,4165.128,0,0
130,79,0,2970,4157.821,4173.333,4172.436,4177.179,4176.795,4171.795,4168.59,4165.897,4170.769,4167.308,4164.359,4141.923,4168.974,4156.282,0,0
131,80,0,2697,4154.615,4169.744000000001,4168.974,4172.692,4179.615,4178.462,4169.744000000001,4166.026,4177.692,4187.179,4166.923,4140.513,4169.231,4152.179,0,0
132,81,0,3214,4155.255999999999,4173.077,4169.744000000001,4173.846,4182.179,4177.9490000000005,4171.667,4167.692,4183.59,4184.103,4168.846,4148.205,4176.026,4152.821,0,0
133,82,0,3259,4154.744000000001,4167.436,4170.0,4172.564,4173.333,4170.897,4167.436,4172.564,4186.154,4182.9490000000005,4170.641,4153.846,4184.487,4154.359,0,0
134,83,0,2970,4152.436,4156.538,4168.846,4168.718,4165.897,4167.9490000000005,4159.872,4170.641,4185.897,4186.026,4179.615,4152.821,4183.462,4158.718,0,0
135,84,0,2697,4152.692,4159.744000000001,4169.744000000001,4167.564,4168.205,4170.897,4160.255999999999,4170.769,4183.077,4182.9490000000005,4182.692,4151.41,4181.538,4165.128,0,0
136,85,0,3214,4160.128,4168.205,4175.897,4169.487,4171.026,4172.0509999999995,4168.846,4182.0509999999995,4182.436,4187.9490000000005,4176.282,4157.692,4185.513,4170.897,0,0
137,86,0,3259,4172.179,4174.615,4185.385,4177.0509999999995,4171.538,4170.0,4172.436,4186.923,4184.487,4194.359,4179.231,4168.462,4186.282,4180.641,0,0
138,87,0,2970,4182.0509999999995,4181.538,4189.231,4184.872,4172.436,4171.026,4167.564,4173.974,4182.821,4189.615,4182.436,4165.641,4183.462,4183.462,0,0
139,88,0,2697,4185.769,4186.667,4188.205,4185.513,4177.308,4177.0509999999995,4166.026,4168.59,4179.744000000001,4182.0509999999995,4176.538,4152.0509999999995,4184.872,4176.538,0,0
140,89,0,3214,4184.615,4188.077,4188.59,4184.615,4186.538,4181.538,4170.641,4177.0509999999995,4182.179,4184.231,4181.026,4156.282,4185.897,4178.718,0,0
141,90,0,3259,4181.41,4189.231,4187.564,4187.179,4187.179,4178.974,4171.667,4176.667,4184.487,4196.154,4188.462,4168.718,4183.974,4185.641,0,0
142,91,0,2970,4184.103,4186.538,4186.282,4186.923,4181.282,4177.9490000000005,4168.718,4173.59,4183.59,4199.359,4185.0,4168.846,4184.487,4183.718,0,0
143,92,0,2697,4186.026,4181.026,4186.154,4182.9490000000005,4182.692,4182.436,4168.205,4176.154,4182.821,4194.487,4183.077,4166.282,4185.513,4181.795,0,0
144,93,0,3214,4182.0509999999995,4183.205,4188.333,4184.103,4186.795,4184.359,4170.128,4179.487,4183.718,4196.667,4187.9490000000005,4172.436,4184.615,4183.974,0,0
145,94,0,3259,4183.333,4188.077,4195.641,4190.0,4186.41,4184.231,4171.282,4182.436,4184.103,4196.026,4192.821,4182.564,4182.9490000000005,4184.487,0,0
146,95,0,2970,4185.641,4188.333,4196.026,4191.923,4190.513,4184.872,4171.667,4181.923,4181.538,4189.744000000001,4191.923,4182.179,4175.513,4186.026,0,0
147,96,0,2697,4184.872,4187.564,4193.333,4189.615,4195.385,4184.359,4170.255999999999,4179.487,4180.897,4191.538,4185.641,4178.077,4171.282,4186.154,0,0
148,97,0,3214,4188.718,4191.282,4199.231,4189.103,4191.154,4184.103,4170.897,4178.846,4184.359,4194.615,4184.359,4185.385,4177.821,4186.795,0,0
149,98,0,3259,4185.513,4184.615,4198.333,4186.795,4185.897,4185.255999999999,4171.923,4179.872,4183.846,4189.231,4184.103,4183.718,4175.897,4186.795,0,0
150,99,0,2970,4173.077,4170.513,4185.128,4183.333,4185.513,4184.744000000001,4170.255999999999,4180.385,4181.923,4184.615,4181.154,4168.974,4168.462,4178.59,0,0
151,100,0,2697,4174.744000000001,4174.615,4183.333,4184.615,4186.026,4185.641,4176.795,4184.872,4184.487,4186.923,4185.0,4173.718,4177.308,4175.897,0,0
152,101,0,3214,4184.487,4187.308,4194.615,4187.821,4190.641,4188.718,4184.615,4186.795,4185.385,4191.282,4187.436,4184.487,4188.462,4183.333,0,0
153,102,0,3259,4185.128,4187.436,4198.205,4188.59,4198.59,4188.333,4177.436,4185.255999999999,4183.974,4191.026,4182.179,4176.154,4183.59,4183.333,0,0
154,103,0,2970,4183.974,4183.59,4194.872,4188.974,4198.462,4185.128,4169.615,4186.282,4181.667,4185.897,4181.538,4171.154,4175.255999999999,4177.821,0,0
155,104,0,2697,4184.744000000001,4187.308,4191.538,4189.744000000001,4198.205,4185.255999999999,4174.231,4181.154,4176.026,4183.333,4184.744000000001,4176.538,4172.821,4180.897,0,0
156,105,0,3214,4182.821,4191.923,4189.231,4188.718,4198.205,4183.205,4176.282,4173.077,4173.462,4182.436,4185.385,4176.026,4175.641,4185.128,0,0
157,106,0,3259,4179.872,4192.564,4188.077,4187.308,4189.872,4175.0,4172.179,4174.744000000001,4179.231,4183.205,4185.255999999999,4174.359,4183.205,4181.795,0,0
158,107,0,2970,4175.897,4188.846,4185.769,4186.667,4183.846,4173.077,4171.154,4182.308,4184.103,4184.744000000001,4184.615,4173.077,4188.205,4177.9490000000005,0,0
159,108,0,2697,4172.9490000000005,4184.103,4184.231,4185.128,4179.872,4178.462,4172.0509999999995,4184.744000000001,4184.359,4186.41,4183.077,4168.846,4189.872,4175.769,0,0
160,109,0,3214,4172.821,4183.205,4184.103,4183.846,4175.513,4180.641,4171.923,4184.103,4184.744000000001,4193.077,4182.821,4168.462,4190.513,4172.564,0,0
161,110,0,3259,4170.385,4182.9490000000005,4182.9490000000005,4184.872,4179.231,4181.41,4172.821,4185.128,4185.255999999999,4194.487,4183.59,4168.59,4190.385,4169.744000000001,0,0
162,111,0,2970,4171.795,4184.103,4183.205,4184.744000000001,4186.026,4186.923,4177.692,4185.897,4185.0,4185.897,4186.795,4170.897,4192.179,4173.718,0,0
163,112,0,2697,4181.538,4184.231,4184.744000000001,4181.667,4186.667,4189.103,4182.179,4185.641,4184.872,4185.0,4187.0509999999995,4177.821,4191.923,4182.179,0,0
164,113,0,3214,4186.923,4183.718,4186.667,4181.795,4188.462,4188.333,4182.821,4187.308,4184.487,4195.897,4187.179,4184.103,4188.333,4185.255999999999,0,0
165,114,0,3259,4186.923,4185.897,4193.59,4186.795,4192.308,4188.59,4184.103,4192.692,4184.744000000001,4202.692,4192.0509999999995,4187.436,4187.308,4184.872,0,0
166,115,0,2970,4191.026,4183.333,4198.333,4188.462,4188.974,4180.513,4184.103,4191.538,4184.615,4200.385,4192.821,4186.026,4188.718,4188.205,0,0
167,116,0,2697,4197.9490000000005,4184.103,4198.462,4187.821,4187.436,4175.128,4181.026,4184.487,4184.103,4196.923,4195.255999999999,4188.974,4185.769,4196.026,0,0
168,117,0,3214,4202.436,4195.641,4200.0,4190.513,4195.0,4180.128,4181.795,4188.205,4185.897,4197.564,4202.308,4198.462,4185.385,4202.308,0,0
169,118,0,3259,4207.436,4201.667,4205.641,4191.282,4196.282,4180.513,4187.308,4197.821,4187.564,4200.769,4201.41,4202.179,4191.41,4202.692,0,0
170,119,0,2970,4214.487,4198.59,4209.231,4194.103,4187.179,4177.179,4187.821,4199.615,4189.231,4200.769,4196.026,4200.897,4193.846,4201.667,0,0
171,120,0,2697,4214.872,4196.41,4207.436,4198.333,4183.974,4182.0509999999995,4186.41,4200.385,4193.077,4200.513,4201.795,4202.821,4192.0509999999995,4201.667,0,0
172,121,0,3214,4206.923,4194.615,4202.564,4193.077,4185.255999999999,4185.513,4188.718,4200.255999999999,4193.077,4200.769,4205.385,4202.179,4189.231,4194.103,0,0
173,122,0,3259,4199.872,4188.974,4198.205,4185.897,4181.41,4182.308,4191.538,4197.308,4188.077,4200.385,4193.59,4197.436,4186.538,4183.333,0,0
174,123,0,2970,4199.359,4188.077,4199.359,4188.59,4180.897,4184.744000000001,4190.255999999999,4197.9490000000005,4188.333,4200.769,4189.359,4195.255999999999,4186.538,4187.692,0,0
175,124,0,2697,4203.59,4194.872,4201.026,4190.769,4184.359,4186.282,4187.821,4194.231,4191.026,4197.692,4196.923,4191.282,4188.462,4199.487,0,0
176,125,0,3214,4201.923,4197.0509999999995,4196.154,4186.667,4184.359,4183.333,4187.564,4183.974,4185.513,4189.744000000001,4194.744000000001,4186.538,4186.667,4196.154,0,0
177,126,0,3259,4191.795,4190.769,4187.9490000000005,4185.385,4184.487,4182.692,4185.385,4180.769,4181.282,4180.641,4188.59,4185.0,4183.333,4189.744000000001,0,0
178,127,0,52,4187.308,4184.615,4186.026,4185.385,4184.487,4179.487,4181.667,4183.462,4184.872,4182.308,4191.026,4183.077,4184.615,4195.385,0,0
179,0,0,2690,4192.9490000000005,4189.744000000001,4190.255999999999,4184.872,4183.718,4177.692,4182.0509999999995,4186.795,4187.9490000000005,4195.769,4191.923,4186.026,4187.436,4201.282,0,0
180,1,0,2054,4191.667,4187.308,4189.359,4183.077,4186.538,4179.615,4181.923,4186.795,4186.795,4202.692,4186.538,4185.769,4187.308,4196.667,0,0
181,2,0,3438,4182.179,4173.846,4185.513,4180.385,4188.462,4181.923,4180.769,4184.231,4186.026,4196.538,4185.641,4175.769,4185.513,4188.077,0,0
182,3,0,3409,4181.923,4173.59,4186.41,4181.282,4187.0509999999995,4185.513,4185.385,4189.231,4188.077,4196.154,4193.462,4175.513,4188.205,4185.0,0,0
183,4,0,2771,4187.179,4180.897,4189.359,4184.744000000001,4187.436,4188.974,4188.462,4196.154,4188.974,4205.128,4201.282,4181.538,4189.872,4185.641,0,0
184,5,0,2621,4185.641,4180.513,4188.718,4186.282,4186.667,4185.769,4181.795,4189.744000000001,4188.077,4200.0,4196.41,4175.255999999999,4187.692,4183.974,0,0
185,6,0,2506,4185.255999999999,4180.897,4186.923,4185.641,4184.231,4180.641,4179.487,4183.077,4186.538,4191.41,4185.0,4168.462,4192.179,4181.41,0,0
186,7,0,3025,4189.359,4191.026,4187.692,4185.385,4190.897,4184.103,4184.615,4187.0509999999995,4188.974,4199.487,4184.487,4171.667,4197.821,4184.615,0,0
187,8,0,2535,4187.692,4200.255999999999,4187.308,4186.538,4198.077,4182.692,4180.641,4183.462,4187.9490000000005,4201.795,4186.026,4170.255999999999,4191.154,4182.692,0,0
188,9,0,3479,4182.0509999999995,4197.0509999999995,4182.692,4187.436,4191.41,4173.077,4169.872,4168.333,4176.154,4183.59,4180.128,4165.769,4176.667,4175.128,0,0
189,10,0,3259,4183.205,4187.0509999999995,4180.385,4184.615,4188.205,4173.59,4169.487,4163.974,4171.41,4175.0,4180.769,4167.179,4174.487,4176.667,0,0
190,11,0,2974,4186.026,4187.9490000000005,4185.0,4182.179,4199.359,4182.821,4178.846,4177.692,4180.255999999999,4192.692,4187.0509999999995,4168.205,4185.385,4185.128,0,0
191,12,0,2709,4186.538,4199.231,4187.9490000000005,4186.795,4203.462,4185.0,4183.205,4186.667,4187.0509999999995,4200.128,4187.564,4173.718,4189.359,4193.718,0,0
192,13,0,3217,4192.0509999999995,4201.41,4187.692,4191.282,4192.692,4183.333,4181.667,4182.308,4186.026,4188.333,4186.026,4182.692,4184.359,4199.359,0,0
193,14,0,3259,4199.872,4197.564,4192.692,4189.872,4186.667,4187.179,4184.744000000001,4188.846,4186.026,4191.026,4191.282,4185.897,4190.641,4199.744000000001,0,0
194,15,0,2974,4201.154,4195.641,4198.59,4187.436,4193.077,4188.333,4190.513,4202.821,4192.436,4202.179,4201.795,4185.897,4201.026,4198.974,0,0
195,16,0,0,4199.231,4190.128,4196.923,4186.026,4194.615,4186.923,4191.923,4203.462,4199.744000000001,4197.692,4201.41,4185.769,4195.897,4199.231,0,0
196,17,0,0,4203.077,4186.026,4196.667,4185.0,4189.231,4190.385,4190.769,4198.333,4199.231,4197.308,4190.128,4185.255999999999,4193.846,4200.128,0,0
197,18,0,0,4204.359,4188.974,4197.692,4186.154,4188.462,4190.255999999999,4188.59,4194.487,4190.385,4206.154,4184.359,4180.769,4197.821,4198.846,0,0
198,19,0,0,4193.59,4189.487,4189.615,4187.179,4191.923,4185.897,4184.872,4186.667,4185.641,4195.255999999999,4187.0509999999995,4172.308,4191.154,4191.667,0,0
199,20,0,0,4183.718,4185.0,4182.0509999999995,4186.667,4191.667,4185.897,4183.59,4182.564,4186.282,4178.077,4188.462,4166.538,4184.231,4184.487,0,0
200,21,0,0,4187.308,4187.0509999999995,4186.154,4186.667,4191.538,4187.692,4185.513,4185.897,4187.308,4185.769,4185.769,4171.538,4188.077,4186.538,0,0
201,22,0,0,4193.333,4197.821,4189.231,4188.205,4192.0509999999995,4184.615,4186.795,4185.769,4188.846,4201.795,4185.128,4176.282,4191.538,4188.205,0,0
202,23,0,0,4190.255999999999,4199.103,4184.744000000001,4188.462,4187.692,4181.667,4184.487,4184.487,4188.077,4199.744000000001,4187.436,4173.846,4187.179,4187.436,0,0
203,24,0,0,4190.897,4187.9490000000005,4189.615,4187.436,4186.41,4182.9490000000005,4183.59,4185.128,4186.923,4190.128,4186.795,4173.718,4182.179,4194.231,0,0
204,25,0,0,4198.974,4184.231,4197.436,4186.795,4186.41,4182.564,4182.436,4181.154,4186.154,4188.462,4186.282,4177.0509999999995,4184.872,4201.538,0,0
205,26,0,0,4198.846,4188.205,4192.308,4186.667,4183.333,4181.026,4175.255999999999,4177.0509999999995,4183.846,4187.308,4188.333,4175.0,4185.897,4196.795,0,0
206,27,0,0,4194.103,4187.179,4185.385,4184.615,4181.026,4182.9490000000005,4169.359,4179.615,4182.821,4181.026,4186.026,4171.282,4176.41,4187.821,0,0
207,28,0,0,4196.667,4184.744000000001,4188.974,4183.59,4178.718,4184.487,4172.436,4185.897,4184.359,4180.385,4182.436,4176.923,4174.231,4185.897,0,0
208,29,0,0,4201.41,4187.436,4194.359,4186.667,4178.974,4182.564,4174.359,4187.9490000000005,4186.41,4184.103,4186.41,4184.103,4184.103,4190.385,0,0
209,30,0,0,4200.255999999999,4194.231,4195.641,4188.974,4183.205,4181.923,4171.667,4184.872,4187.0509999999995,4183.718,4189.103,4183.205,4184.615,4198.205,0,0
210,31,0,0,4201.026,4201.154,4196.41,4189.103,4186.026,4180.128,4171.538,4181.667,4184.744000000001,4185.0,4184.231,4178.59,4175.769,4198.59,0,0
211,32,0,0,4202.692,4200.897,4191.923,4188.333,4182.821,4175.128,4171.923,4182.179,4182.9490000000005,4180.0,4181.667,4173.974,4171.154,4188.846,0,0
212,33,0,0,4196.538,4196.41,4185.769,4187.564,4184.872,4170.897,4170.255999999999,4180.769,4185.641,4173.846,4184.487,4171.538,4170.0,4183.974,0,0
213,34,0,0,4185.897,4190.385,4183.846,4187.821,4189.744000000001,4172.9490000000005,4170.385,4173.077,4182.564,4177.179,4183.205,4169.103,4170.128,4184.359,0,0
214,35,0,0,4180.897,4186.538,4183.59,4185.513,4188.846,4177.9490000000005,4170.769,4169.231,4177.692,4176.026,4176.538,4161.923,4169.231,4176.667,0,0
215,36,0,0,4183.718,4190.641,4180.641,4183.846,4187.308,4177.308,4171.026,4169.103,4179.359,4171.282,4169.487,4154.231,4167.821,4169.359,0,0
216,37,0,0,4183.205,4191.667,4177.692,4186.154,4187.564,4174.103,4172.692,4165.897,4176.282,4169.487,4169.615,4157.821,4169.487,4174.744000000001,0,0
217,38,0,0,4184.359,4186.026,4181.41,4182.179,4181.41,4176.923,4172.179,4171.154,4173.59,4170.641,4178.205,4167.179,4171.795,4182.179,0,0
218,39,0,0,4191.154,4185.897,4184.487,4176.795,4172.692,4182.436,4171.795,4185.769,4183.205,4177.436,4182.0509999999995,4170.255999999999,4176.667,4183.718,0,0
219,40,0,0,4191.282,4187.692,4184.231,4180.641,4172.9490000000005,4184.359,4177.436,4189.615,4189.359,4185.641,4179.359,4168.462,4183.333,4182.692,0,0
220,41,0,0,4191.282,4184.231,4187.179,4184.103,4176.026,4184.359,4183.205,4185.0,4186.538,4183.846,4182.564,4171.282,4185.641,4185.128,0,0
221,42,0,0,4197.436,4186.538,4191.154,4182.821,4177.821,4183.59,4185.385,4186.282,4187.308,4181.795,4189.615,4176.41,4183.846,4189.103,0,0
222,43,0,0,4196.667,4190.769,4189.744000000001,4185.128,4180.641,4179.231,4183.205,4190.0,4186.538,4186.538,4186.41,4175.513,4185.128,4188.333,0,0
223,44,0,0,4188.077,4187.179,4185.255999999999,4186.667,4182.9490000000005,4173.846,4175.255999999999,4182.308,4183.59,4182.436,4180.385,4170.641,4182.692,4186.538,0,0
224,45,0,0,4184.615,4191.795,4183.077,4185.255999999999,4184.872,4172.9490000000005,4169.744000000001,4175.0,4180.897,4173.846,4183.59,4165.128,4172.692,4181.795,0,0
225,46,0,0,4184.744000000001,4201.41,4183.077,4187.436,4187.821,4177.179,4172.9490000000005,4177.179,4175.769,4173.846,4182.9490000000005,4159.359,4168.718,4175.769,0,0
226,47,0,0,4184.103,4197.821,4182.179,4189.615,4188.59,4174.615,4173.846,4175.128,4174.487,4175.513,4172.0509999999995,4156.154,4171.41,4173.59,0,0
227,48,0,0,4183.974,4192.821,4181.282,4190.128,4185.385,4169.615,4170.0,4168.077,4176.026,4171.41,4166.282,4154.872,4170.897,4172.564,0,0
228,49,0,0,4185.897,4199.615,4183.077,4188.462,4185.255999999999,4175.385,4171.923,4168.077,4177.0509999999995,4168.718,4175.385,4157.308,4170.128,4173.462,0,0
229,50,0,0,4193.462,4201.667,4185.0,4185.255999999999,4186.026,4179.487,4173.205,4172.9490000000005,4180.897,4173.718,4184.359,4163.846,4175.641,4179.744000000001,0,0
230,51,0,0,4198.846,4195.641,4184.103,4187.0509999999995,4183.974,4174.359,4169.487,4178.333,4184.103,4173.205,4183.846,4168.846,4181.282,4184.487,0,0
231,52,0,0,4201.026,4196.923,4190.897,4188.462,4184.615,4175.385,4173.462,4192.0509999999995,4185.385,4176.026,4183.462,4170.641,4184.231,4186.282,0,0
232,53,0,0,4203.462,4201.41,4199.872,4187.308,4187.0509999999995,4183.333,4183.077,4204.359,4191.026,4192.9490000000005,4187.0509999999995,4172.564,4187.564,4189.231,0,0
233,54,0,0,4203.718,4200.641,4195.513,4191.282,4189.487,4187.179,4185.641,4201.026,4193.462,4198.077,4188.718,4173.974,4188.333,4192.9490000000005,0,0
234,55,0,0,4202.179,4203.59,4187.821,4196.41,4189.487,4186.795,4183.462,4191.538,4188.333,4189.359,4186.667,4175.641,4187.436,4193.59,0,0
235,56,0,0,4201.795,4208.462,4188.462,4198.846,4187.436,4186.026,4184.103,4184.103,4183.333,4179.231,4186.923,4173.974,4186.667,4190.769,0,0
236,57,0,0,4201.538,4206.41,4190.641,4198.077,4191.282,4185.128,4181.282,4183.077,4181.154,4171.667,4188.077,4168.846,4183.59,4186.923,0,0
237,58,0,0,4198.077,4201.154,4187.0509999999995,4191.538,4196.026,4185.0,4174.231,4185.385,4183.205,4177.179,4183.718,4165.897,4181.667,4185.641,0,0
238,59,0,0,4191.154,4201.154,4183.718,4185.128,4191.795,4184.487,4169.615,4181.538,4180.769,4186.026,4180.0,4161.667,4181.538,4184.487,0,0
239,60,0,0,4186.795,4198.077,4182.9490000000005,4187.821,4185.0,4181.538,4168.462,4171.154,4172.9490000000005,4176.154,4181.41,4156.154,4177.0509999999995,4182.308,0,0
240,61,0,0,4185.513,4190.513,4180.769,4188.462,4185.255999999999,4179.487,4168.718,4166.282,4168.205,4161.154,4182.179,4159.359,4171.282,4181.154,0,0
241,62,0,0,4186.026,4193.333,4182.0509999999995,4186.282,4187.179,4181.154,4168.718,4173.59,4171.667,4169.231,4184.359,4167.692,4174.744000000001,4181.154,0,0
242,63,0,0,4193.077,4201.282,4189.744000000001,4190.641,4188.974,4185.128,4172.308,4182.692,4179.744000000001,4184.103,4187.179,4171.41,4185.385,4185.0,0,0
243,64,0,2692,4201.923,4200.513,4194.615,4192.0509999999995,4191.282,4187.179,4180.641,4185.513,4184.744000000001,4188.59,4185.769,4172.436,4189.359,4190.128,0,0
244,65,0,2047,4201.667,4198.333,4189.487,4187.821,4188.205,4186.282,4187.436,4184.872,4185.255999999999,4187.821,4183.846,4175.641,4186.154,4188.59,0,0
245,66,0,3435,4200.255999999999,4198.974,4186.923,4188.333,4185.128,4186.538,4186.923,4185.897,4185.513,4185.128,4187.821,4181.282,4184.872,4190.0,0,0
246,67,0,3404,4204.487,4200.385,4195.641,4190.897,4187.692,4189.744000000001,4187.821,4190.769,4188.59,4188.333,4193.333,4186.667,4187.179,4200.255999999999,0,0
247,68,0,2771,4204.744000000001,4197.179,4199.231,4188.333,4189.615,4185.769,4190.769,4188.077,4189.744000000001,4193.462,4191.026,4183.974,4188.846,4200.769,0,0
248,69,0,2621,4199.231,4190.641,4188.462,4184.872,4182.564,4174.359,4182.9490000000005,4174.487,4181.667,4181.667,4182.308,4172.821,4181.667,4187.436,0,0
249,70,0,2506,4198.077,4192.436,4185.897,4187.308,4176.026,4174.487,4174.872,4173.462,4177.179,4163.077,4180.769,4169.615,4177.308,4184.103,0,0
250,71,0,3025,4202.692,4201.154,4196.154,4194.744000000001,4185.897,4183.333,4174.231,4186.282,4183.974,4174.103,4185.769,4176.282,4181.154,4190.641,0,0
251,72,0,2535,4203.718,4200.255999999999,4196.795,4201.154,4197.436,4183.205,4172.436,4181.538,4184.615,4192.0509999999995,4183.846,4173.462,4178.846,4187.564,0,0
252,73,0,3482,4200.255999999999,4196.026,4191.795,4197.564,4193.333,4177.821,4173.846,4165.385,4172.821,4177.564,4181.41,4168.462,4169.615,4182.179,0,0
253,74,0,3260,4199.487,4201.41,4194.359,4191.154,4184.744000000001,4175.255999999999,4178.205,4167.308,4168.59,4165.513,4183.974,4176.41,4167.436,4185.0,0,0
254,75,0,2975,4201.41,4199.103,4192.692,4189.103,4183.974,4177.179,4172.692,4173.846,4172.308,4170.385,4183.333,4179.744000000001,4168.59,4186.026,0,0
255,76,0,2710,4197.179,4189.231,4185.641,4188.205,4187.179,4182.564,4165.897,4168.462,4172.436,4168.846,4182.564,4173.077,4167.436,4184.615,0,0
256,77,0,3217,4189.872,4187.821,4186.282,4188.718,4190.128,4185.641,4175.255999999999,4171.795,4177.0509999999995,4172.821,4185.385,4175.897,4173.718,4186.667,0,0
257,78,0,3260,4193.077,4188.846,4189.359,4191.154,4188.974,4183.59,4181.538,4183.462,4185.128,4185.641,4186.795,4182.308,4182.821,4186.795,0,0
258,79,0,2975,4195.897,4192.436,4187.0509999999995,4190.255999999999,4186.795,4182.692,4175.255999999999,4182.564,4184.359,4186.538,4185.641,4176.154,4183.462,4184.103,0,0
259,80,0,2710,4190.513,4198.205,4185.769,4188.077,4187.564,4181.154,4173.59,4178.333,4181.538,4185.897,4185.641,4170.641,4182.308,4187.0509999999995,0,0
260,81,0,3217,4187.9490000000005,4195.128,4184.103,4191.282,4188.59,4178.462,4175.769,4178.718,4182.179,4182.564,4186.282,4172.564,4183.59,4187.692,0,0
261,82,0,3260,4181.923,4184.744000000001,4175.769,4191.282,4186.538,4176.282,4172.0509999999995,4173.333,4177.564,4172.179,4185.128,4170.769,4177.308,4175.128,0,0
262,83,0,2975,4173.333,4183.718,4166.923,4183.077,4186.282,4173.462,4168.077,4166.41,4169.103,4177.179,4182.692,4166.41,4170.128,4170.897,0,0
263,84,0,2710,4180.128,4187.9490000000005,4174.359,4181.667,4186.026,4176.923,4171.026,4171.41,4174.615,4188.59,4185.897,4171.538,4177.821,4183.974,0,0
264,85,0,3217,4192.179,4187.564,4185.513,4187.308,4183.59,4183.205,4175.641,4177.9490000000005,4184.872,4185.0,4191.923,4179.615,4186.154,4189.359,0,0
265,86,0,3260,4187.179,4186.026,4183.846,4188.205,4182.9490000000005,4183.462,4181.026,4181.41,4185.641,4186.795,4190.0,4178.077,4184.615,4183.462,0,0
266,87,0,2975,4182.308,4185.128,4180.641,4186.026,4185.255999999999,4180.128,4182.308,4187.0509999999995,4187.0509999999995,4200.897,4185.769,4174.744000000001,4186.795,4183.59,0,0
267,88,0,2710,4192.9490000000005,4188.846,4184.487,4187.564,4186.282,4181.667,4175.128,4189.359,4190.128,4200.385,4190.255999999999,4179.615,4191.667,4187.9490000000005,0,0
268,89,0,3217,4197.821,4191.923,4185.641,4190.385,4185.385,4183.462,4172.821,4187.179,4186.282,4187.9490000000005,4194.744000000001,4184.359,4189.231,4188.718,0,0
269,90,0,3260,4190.641,4186.41,4182.436,4188.462,4184.487,4178.59,4175.385,4184.744000000001,4181.795,4185.128,4190.769,4182.564,4187.179,4187.692,0,0
270,91,0,2975,4190.641,4183.077,4183.974,4186.41,4185.641,4177.436,4174.103,4184.487,4184.744000000001,4185.641,4186.667,4182.9490000000005,4187.9490000000005,4185.641,0,0
271,92,0,2710,4199.487,4190.128,4187.692,4192.179,4186.795,4182.821,4176.923,4182.0509999999995,4186.282,4185.128,4185.255999999999,4182.179,4185.385,4184.487,0,0
272,93,0,3217,4197.564,4191.923,4186.667,4197.436,4185.128,4183.333,4183.462,4175.385,4180.0,4184.359,4180.128,4172.9490000000005,4183.974,4185.385,0,0
273,94,0,3260,4188.333,4184.487,4184.359,4193.205,4182.692,4176.282,4183.846,4172.308,4173.077,4180.897,4178.333,4168.333,4183.846,4185.0,0,0
274,95,0,2975,4186.282,4185.385,4184.487,4187.308,4181.538,4171.923,4179.231,4173.333,4171.154,4173.974,4176.667,4170.513,4178.077,4178.205,0,0
275,96,0,2710,4186.026,4186.667,4182.179,4186.667,4180.769,4174.872,4177.179,4171.538,4172.308,4167.821,4170.641,4168.846,4170.255999999999,4172.9490000000005,0,0
276,97,0,3217,4185.641,4178.974,4175.128,4185.769,4183.974,4176.41,4175.128,4167.9490000000005,4172.821,4168.59,4173.846,4165.641,4169.487,4173.846,0,0
277,98,0,3260,4185.385,4178.59,4170.641,4182.436,4181.667,4172.564,4173.462,4167.308,4169.744000000001,4168.462,4183.846,4166.667,4170.385,4174.872,0,0
278,99,0,2975,4183.462,4185.0,4173.077,4183.333,4173.333,4171.026,4177.436,4167.692,4169.744000000001,4167.692,4183.846,4168.974,4171.538,4177.436,0,0
279,100,0,2710,4183.333,4179.103,4174.103,4185.769,4175.513,4176.667,4183.846,4171.923,4180.641,4176.795,4181.154,4170.128,4179.359,4177.436,0,0
280,101,0,3217,4182.564,4169.872,4169.359,4183.205,4185.641,4180.769,4185.385,4175.641,4187.9490000000005,4188.205,4185.128,4167.821,4185.641,4171.026,0,0
281,102,0,3260,4183.846,4177.436,4175.128,4180.897,4187.436,4182.564,4185.641,4173.59,4184.872,4188.462,4189.487,4168.59,4187.308,4175.128,0,0
282,103,0,2975,4188.205,4185.641,4184.359,4186.538,4186.026,4182.179,4188.718,4172.9490000000005,4183.59,4183.462,4187.308,4173.974,4188.333,4185.769,0,0
283,104,0,2710,4180.255999999999,4174.487,4175.897,4183.205,4185.0,4175.255999999999,4182.692,4170.769,4177.436,4173.846,4175.513,4167.0509999999995,4180.128,4176.538,0,0
284,105,0,3217,4164.487,4162.308,4163.718,4170.513,4183.462,4170.513,4174.487,4166.795,4166.538,4162.0509999999995,4166.41,4152.179,4167.0509999999995,4162.821,0,0
285,106,0,3260,4164.615,4166.667,4166.667,4170.0,4186.026,4173.333,4176.282,4169.103,4167.308,4158.718,4170.641,4151.41,4166.41,4166.795,0,0
286,107,0,2975,4171.923,4168.846,4171.41,4173.974,4186.538,4172.9490000000005,4174.231,4172.436,4174.103,4160.513,4170.897,4157.0509999999995,4170.897,4170.641,0,0
287,108,0,2710,4169.615,4159.359,4164.744000000001,4171.282,4183.59,4170.769,4166.026,4169.744000000001,4172.179,4162.436,4165.128,4155.897,4165.641,4167.436,0,0
288,109,0,3217,4166.41,4156.667,4157.692,4170.897,4182.436,4172.436,4167.0509999999995,4170.128,4169.744000000001,4164.231,4167.179,4154.231,4161.795,4167.9490000000005,0,0
289,110,0,3260,4167.0509999999995,4160.385,4161.282,4172.308,4182.308,4172.9490000000005,4171.41,4172.179,4169.487,4161.41,4169.359,4156.026,4165.513,4168.462,0,0
290,111,0,2975,4166.923,4159.359,4168.59,4169.872,4184.487,4171.923,4170.769,4170.0,4169.359,4156.154,4166.41,4155.641,4167.9490000000005,4166.538,0,0
291,112,0,2710,4167.0509999999995,4161.282,4168.846,4170.641,4181.795,4173.077,4177.692,4170.769,4172.821,4155.897,4167.564,4155.385,4167.9490000000005,4166.923,0,0
292,113,0,3217,4165.641,4168.333,4167.308,4172.179,4175.255999999999,4174.359,4182.0509999999995,4173.077,4173.974,4161.41,4169.103,4155.0,4170.513,4168.59,0,0
293,114,0,3260,4165.641,4166.795,4167.821,4169.231,4177.821,4173.462,4172.436,4169.103,4171.154,4167.436,4166.795,4152.564,4172.821,4167.179,0,0
294,115,0,2975,4164.103,4159.231,4168.205,4170.128,4184.231,4171.41,4167.436,4167.692,4170.385,4168.333,4166.538,4152.179,4171.667,4165.897,0,0
295,116,0,2710,4160.897,4155.641,4169.231,4173.462,4185.0,4172.308,4171.282,4178.205,4174.359,4165.769,4167.9490000000005,4153.333,4170.385,4169.615,0,0
296,117,0,3217,4158.846,4158.077,4165.897,4171.026,4184.744000000001,4173.462,4171.026,4186.795,4175.769,4169.231,4167.821,4152.9490000000005,4169.231,4170.513,0,0
297,118,0,3260,4157.0509999999995,4162.564,4162.179,4167.821,4183.205,4173.333,4175.128,4184.103,4173.462,4165.897,4167.821,4153.333,4169.231,4167.9490000000005,0,0
298,119,0,2975,4159.872,4162.0509999999995,4166.154,4170.641,4182.821,4173.077,4183.205,4182.692,4177.564,4159.744000000001,4167.436,4156.154,4170.385,4169.744000000001,0,0
299,120,0,2710,4166.026,4160.513,4169.744000000001,4172.692,4181.41,4172.179,4177.179,4182.692,4179.872,4165.255999999999,4166.538,4155.897,4170.513,4169.744000000001,0,0
300,121,0,3217,4169.744000000001,4165.0,4169.872,4172.692,4178.718,4171.41,4171.923,4178.974,4175.897,4172.0509999999995,4172.0509999999995,4155.769,4170.897,4169.103,0,0
301,122,0,3260,4166.923,4168.974,4169.103,4170.897,4176.538,4171.41,4177.821,4178.718,4175.513,4169.359,4174.872,4161.795,4171.154,4175.769,0,0
302,123,0,2975,4166.026,4166.41,4170.897,4167.692,4175.641,4170.513,4181.282,4183.974,4182.436,4165.769,4170.769,4168.462,4175.897,4181.923,0,0
303,124,0,2710,4175.385,4169.615,4179.872,4173.333,4176.795,4169.231,4182.821,4187.692,4186.667,4171.667,4177.564,4172.436,4185.128,4183.974,0,0
304,125,0,3217,4185.0,4176.923,4186.282,4183.077,4178.974,4168.846,4180.128,4187.308,4185.385,4176.667,4187.179,4172.0509999999995,4186.795,4187.0509999999995,0,0
305,126,0,3260,4186.026,4179.359,4183.462,4183.846,4180.0,4168.333,4172.9490000000005,4184.231,4183.077,4172.564,4183.205,4169.231,4180.513,4186.795,0,0
306,127,0,52,4185.255999999999,4184.231,4185.641,4181.667,4181.41,4170.0,4176.795,4185.0,4182.436,4169.615,4180.0,4170.385,4181.538,4183.718,0,0
307,0,0,2695,4188.077,4187.436,4189.487,4184.872,4183.59,4172.308,4185.897,4188.59,4182.564,4171.538,4181.538,4173.205,4181.795,4183.077,0,0
308,1,0,2053,4186.538,4184.231,4186.026,4185.385,4180.769,4170.897,4182.821,4184.744000000001,4177.821,4174.487,4178.205,4170.255999999999,4173.974,4183.205,0,0
309,2,0,3439,4185.385,4184.872,4183.974,4183.077,4180.128,4170.769,4181.154,4179.744000000001,4172.179,4171.154,4172.564,4163.59,4175.385,4182.179,0,0
310,3,0,3414,4188.59,4187.436,4183.974,4183.974,4183.846,4173.718,4184.744000000001,4182.564,4176.667,4167.9490000000005,4172.692,4161.538,4183.846,4178.846,0,0
311,4,0,2763,4187.9490000000005,4186.538,4184.231,4185.641,4181.41,4175.513,4180.255999999999,4186.026,4183.462,4175.0,4175.641,4165.897,4184.231,4178.59,0,0
312,5,0,2624,4187.564,4188.077,4185.769,4187.0509999999995,4181.41,4174.359,4178.974,4186.667,4183.718,4183.59,4178.59,4169.872,4182.436,4182.179,0,0
313,6,0,2506,4186.667,4188.974,4180.385,4184.744000000001,4184.615,4172.179,4181.282,4184.872,4181.923,4184.615,4176.026,4163.333,4181.154,4177.9490000000005,0,0
314,7,0,3029,4180.385,4186.154,4176.41,4179.359,4181.538,4170.641,4175.128,4185.128,4182.9490000000005,4183.205,4172.564,4161.026,4179.615,4171.795,0,0
315,8,0,2534,4174.615,4184.103,4177.9490000000005,4174.103,4173.462,4169.231,4169.359,4184.231,4180.769,4179.231,4176.41,4165.769,4180.255999999999,4174.359,0,0
316,9,0,3480,4172.9490000000005,4182.0509999999995,4180.128,4174.231,4169.744000000001,4166.667,4171.026,4176.667,4175.513,4170.641,4181.41,4164.615,4175.0,4175.513,0,0
317,10,0,3260,4174.231,4182.179,4178.59,4178.718,4171.282,4166.026,4173.974,4173.205,4171.538,4162.692,4184.872,4159.615,4167.9490000000005,4171.154,0,0
318,11,0,2978,4180.0,4183.462,4177.436,4179.744000000001,4175.641,4168.846,4177.436,4182.0509999999995,4170.769,4164.359,4180.769,4160.897,4175.0,4171.41,0,0
319,12,0,2706,4181.795,4181.538,4176.795,4179.103,4180.641,4171.282,4182.308,4185.385,4177.564,4176.923,4176.41,4163.205,4181.667,4172.692,0,0
320,13,0,3220,4176.538,4183.205,4175.128,4182.821,4182.692,4171.282,4182.308,4174.487,4183.205,4184.487,4178.333,4159.744000000001,4175.513,4172.692,0,0
321,14,0,3260,4173.59,4183.846,4172.436,4181.41,4184.615,4172.692,4183.59,4172.564,4178.462,4173.718,4175.385,4155.641,4173.846,4171.154,0,0
322,15,0,2978,4172.821,4173.846,4169.103,4173.846,4185.897,4178.846,4187.0509999999995,4181.667,4175.769,4165.255999999999,4174.103,4153.846,4179.487,4168.718,0,0
323,16,0,0,4170.0,4168.205,4172.308,4175.385,4185.0,4183.974,4186.795,4185.128,4182.692,4175.513,4180.513,4155.769,4181.923,4169.744000000001,0,0
324,17,0,0,4169.103,4170.769,4175.128,4180.897,4182.692,4180.255999999999,4185.128,4185.385,4185.513,4185.0,4183.974,4157.0509999999995,4182.692,4171.154,0,0
325,18,0,0,4173.462,4171.282,4174.615,4176.41,4179.231,4173.462,4185.897,4188.205,4182.0509999999995,4182.9490000000005,4184.103,4157.9490000000005,4184.872,4172.821,0,0
326,19,0,0,4174.615,4171.795,4174.487,4171.667,4180.641,4173.718,4186.538,4191.026,4183.718,4181.282,4187.436,4162.821,4186.154,4175.897,0,0
327,20,0,0,4171.795,4174.615,4174.231,4177.9490000000005,4180.897,4174.744000000001,4185.513,4190.641,4187.308,4185.513,4186.538,4166.282,4186.538,4175.255999999999,0,0
328,21,0,0,4173.59,4178.077,4172.821,4184.487,4173.718,4171.41,4183.59,4187.692,4185.0,4186.795,4183.205,4167.179,4185.255999999999,4171.923,0,0
329,22,0,0,4181.667,4183.333,4171.538,4184.487,4173.077,4169.487,4180.128,4183.205,4180.255999999999,4182.179,4186.923,4166.41,4183.205,4177.308,0,0
330,23,0,0,4185.641,4188.205,4179.103,4185.255999999999,4183.205,4171.795,4182.9490000000005,4185.769,4182.692,4181.795,4191.026,4170.0,4184.744000000001,4185.255999999999,0,0
331,24,0,0,4179.231,4188.205,4183.59,4185.769,4186.795,4173.846,4186.795,4189.744000000001,4186.923,4184.744000000001,4190.641,4172.692,4188.59,4183.974,0,0
332,25,0,0,4177.308,4185.641,4178.205,4183.59,4182.308,4171.795,4180.769,4183.974,4184.615,4187.0509999999995,4186.41,4168.974,4189.103,4179.872,0,0
333,26,0,0,4184.615,4185.641,4178.205,4183.077,4182.692,4169.359,4178.462,4188.718,4182.821,4187.308,4186.41,4166.41,4187.308,4181.41,0,0
334,27,0,0,4188.462,4187.9490000000005,4185.128,4182.179,4179.744000000001,4168.205,4183.846,4201.026,4184.744000000001,4186.41,4188.077,4169.359,4186.923,4184.231,0,0
335,28,0,0,4185.513,4187.0509999999995,4185.385,4178.333,4174.103,4168.718,4184.487,4195.0,4185.513,4188.462,4185.0,4169.744000000001,4188.205,4185.255999999999,0,0
336,29,0,0,4186.282,4184.615,4184.744000000001,4183.077,4176.667,4171.923,4181.923,4183.846,4184.359,4190.255999999999,4191.795,4170.0,4189.103,4186.795,0,0
337,30,0,0,4189.359,4185.769,4188.59,4184.231,4183.59,4172.564,4180.769,4186.795,4184.615,4184.487,4201.154,4174.359,4187.436,4187.0509999999995,0,0
338,31,0,0,4180.897,4182.308,4183.974,4174.487,4183.205,4170.385,4178.846,4187.692,4183.333,4180.513,4192.564,4173.718,4183.974,4186.026,0,0
339,32,0,0,4171.154,4174.615,4175.641,4176.41,4179.487,4171.538,4181.154,4183.59,4181.538,4186.667,4180.897,4165.128,4183.718,4182.308,0,0
340,33,0,0,4169.231,4170.128,4171.026,4181.41,4183.205,4172.436,4183.846,4184.744000000001,4183.462,4183.462,4181.026,4156.282,4185.0,4174.615,0,0
341,34,0,0,4166.667,4169.615,4170.0,4172.564,4180.897,4169.744000000001,4184.872,4185.385,4181.538,4170.128,4177.564,4151.538,4183.59,4166.667,0,0
342,35,0,0,4164.872,4175.897,4172.564,4171.667,4174.744000000001,4168.718,4193.333,4190.641,4176.026,4166.795,4171.282,4152.564,4182.9490000000005,4165.0,0,0
343,36,0,0,4169.231,4183.333,4173.974,4182.821,4180.255999999999,4169.872,4199.103,4200.641,4178.462,4171.667,4175.128,4159.615,4183.974,4168.333,0,0
344,37,0,0,4174.359,4183.333,4176.026,4185.641,4187.179,4172.9490000000005,4197.308,4201.41,4185.385,4172.692,4181.795,4167.821,4183.077,4170.641,0,0
345,38,0,0,4178.59,4183.205,4181.667,4182.692,4185.255999999999,4176.282,4199.103,4198.59,4185.0,4171.154,4185.128,4170.897,4184.103,4173.333,0,0
346,39,0,0,4183.077,4186.795,4185.0,4183.846,4183.462,4175.897,4198.205,4196.282,4184.359,4174.872,4185.255999999999,4171.667,4188.333,4179.487,0,0
347,40,0,0,4179.103,4184.744000000001,4183.205,4183.974,4184.744000000001,4173.974,4190.128,4189.359,4186.923,4181.538,4183.077,4172.436,4188.077,4181.026,0,0
348,41,0,0,4170.513,4179.487,4179.872,4178.59,4182.436,4172.564,4183.718,4183.077,4180.897,4183.077,4182.0509999999995,4170.385,4182.821,4174.103,0,0
349,42,0,0,4169.615,4181.282,4174.744000000001,4175.128,4180.385,4170.513,4181.41,4184.231,4177.308,4183.974,4181.667,4167.0509999999995,4181.667,4170.385,0,0
350,43,0,0,4173.718,4185.641,4177.436,4182.692,4183.59,4170.385,4182.179,4181.795,4181.538,4185.897,4185.0,4169.103,4186.923,4173.333,0,0
351,44,0,0,4173.846,4182.821,4182.308,4184.872,4185.385,4169.487,4184.359,4172.9490000000005,4176.41,4177.9490000000005,4186.667,4165.897,4184.744000000001,4172.564,0,0
352,45,0,0,4168.59,4172.9490000000005,4174.103,4175.385,4177.564,4163.974,4181.667,4167.179,4167.564,4164.872,4178.205,4155.897,4175.769,4168.846,0,0
353,46,0,0,4166.923,4171.795,4169.744000000001,4176.026,4168.077,4162.564,4178.846,4167.692,4169.615,4167.308,4168.59,4152.692,4172.692,4167.436,0,0
354,47,0,0,4169.231,4176.026,4175.255999999999,4183.718,4173.333,4166.41,4181.667,4169.231,4171.667,4174.872,4166.026,4155.385,4173.462,4166.154,0,0
355,48,0,0,4168.462,4174.487,4175.513,4181.538,4180.769,4169.231,4182.9490000000005,4166.795,4167.179,4170.897,4167.9490000000005,4154.615,4172.179,4167.692,0,0
356,49,0,0,4170.385,4176.154,4174.615,4180.0,4177.0509999999995,4170.128,4177.564,4165.385,4167.436,4166.41,4176.026,4158.333,4170.513,4172.179,0,0
357,50,0,0,4174.359,4182.564,4174.487,4184.231,4172.9490000000005,4169.231,4171.923,4166.923,4169.487,4167.308,4182.436,4166.538,4170.0,4170.641,0,0
358,51,0,0,4175.0,4185.128,4172.564,4185.641,4175.0,4169.615,4171.41,4169.231,4170.897,4167.821,4184.872,4169.615,4173.333,4169.359,0,0
359,52,0,0,4176.667,4185.385,4178.205,4183.718,4175.128,4166.154,4172.0509999999995,4170.641,4173.59,4167.692,4183.462,4168.718,4175.897,4172.0509999999995,0,0
360,53,0,0,4181.538,4186.282,4184.103,4182.821,4172.308,4159.872,4170.769,4170.0,4173.59,4167.692,4176.026,4168.462,4172.436,4171.795,0,0
361,54,0,0,4183.59,4188.59,4181.923,4184.231,4172.308,4162.308,4171.154,4171.923,4172.436,4168.974,4173.846,4169.359,4170.385,4175.128,0,0
362,55,0,0,4186.923,4191.923,4182.0509999999995,4187.436,4175.385,4169.487,4172.9490000000005,4179.872,4175.385,4168.974,4178.846,4167.564,4173.59,4181.41,0,0
363,56,0,0,4184.359,4188.846,4178.59,4186.41,4173.205,4167.692,4173.077,4182.564,4174.615,4167.0509999999995,4173.59,4158.846,4171.154,4174.615,0,0
364,57,0,0,4172.564,4180.769,4168.846,4178.077,4167.692,4165.0,4177.308,4177.564,4168.718,4167.308,4162.179,4148.718,4165.128,4162.821,0,0
365,58,0,0,4172.179,4182.692,4172.308,4176.026,4174.744000000001,4170.0,4183.59,4181.667,4173.718,4168.333,4165.641,4152.0509999999995,4172.0509999999995,4169.615,0,0
366,59,0,0,4184.872,4191.923,4183.205,4184.744000000001,4182.9490000000005,4172.9490000000005,4184.231,4189.615,4185.128,4170.385,4176.538,4163.077,4187.0509999999995,4185.385,0,0
367,60,0,0,4192.308,4198.333,4187.564,4189.487,4175.255999999999,4171.667,4185.897,4189.359,4185.128,4176.795,4185.0,4170.513,4191.026,4188.718,0,0
368,61,0,0,4191.795,4199.615,4188.205,4187.179,4171.923,4173.077,4190.128,4192.179,4180.255999999999,4182.9490000000005,4188.59,4178.205,4184.615,4186.154,0,0
369,62,0,0,4187.0509999999995,4198.077,4187.9490000000005,4187.564,4181.923,4174.231,4190.255999999999,4199.103,4182.821,4184.103,4186.154,4184.103,4185.128,4187.0509999999995,0,0
370,63,0,0,4186.667,4200.0,4190.513,4188.59,4185.641,4172.9490000000005,4189.487,4201.923,4186.41,4182.179,4186.923,4184.872,4191.667,4189.359,0,0
371,64,0,2695,4195.897,4199.615,4195.769,4186.154,4180.769,4174.744000000001,4189.615,4197.821,4184.103,4172.564,4186.795,4183.846,4184.103,4188.59,0,0
372,65,0,2052,4197.821,4192.9490000000005,4192.564,4186.923,4180.897,4176.667,4187.0509999999995,4188.59,4181.538,4166.795,4182.821,4183.846,4172.179,4187.308,0,0
373,66,0,3439,4188.718,4191.538,4185.641,4188.077,4183.718,4175.513,4186.795,4184.359,4181.282,4177.9490000000005,4181.795,4182.821,4176.154,4186.923,0,0
374,67,0,3409,4190.385,4198.718,4191.41,4186.026,4186.154,4175.513,4189.359,4191.282,4182.9490000000005,4182.564,4183.718,4182.9490000000005,4185.0,4185.641,0,0
375,68,0,2770,4198.846,4202.179,4200.897,4190.255999999999,4185.128,4176.795,4189.103,4200.128,4181.795,4174.103,4186.41,4186.154,4185.0,4186.538,0,0
376,69,0,2623,4200.128,4200.385,4201.41,4200.255999999999,4183.333,4174.487,4187.179,4197.9490000000005,4177.821,4176.538,4188.59,4185.255999999999,4182.436,4189.231,0,0
377,70,0,2506,4197.564,4200.385,4198.846,4198.846,4185.513,4171.667,4186.795,4193.718,4178.59,4184.615,4186.538,4183.462,4182.308,4189.359,0,0
378,71,0,3029,4195.128,4200.385,4196.795,4186.795,4185.513,4172.692,4187.564,4193.846,4182.821,4180.128,4183.333,4183.077,4182.564,4188.974,0,0
379,72,0,2534,4195.897,4193.59,4194.231,4184.231,4182.308,4172.692,4186.154,4192.564,4183.205,4168.974,4186.538,4183.846,4179.231,4190.769,0,0
380,73,0,3482,4196.282,4190.0,4195.128,4188.59,4181.41,4171.154,4182.308,4187.179,4179.872,4166.538,4186.41,4184.231,4171.538,4190.128,0,0
381,74,0,3260,4192.692,4194.744000000001,4197.564,4187.436,4183.718,4171.538,4182.564,4185.0,4180.897,4177.179,4181.026,4179.615,4173.205,4187.308,0,0
382,75,0,2978,4193.59,4196.538,4193.846,4186.538,4185.641,4174.359,4185.641,4193.462,4183.205,4186.667,4182.436,4177.308,4183.333,4187.436,0,0
383,76,0,2698,4195.641,4189.744000000001,4188.333,4188.077,4185.0,4176.667,4185.128,4197.179,4182.0509999999995,4182.179,4188.205,4181.154,4184.359,4186.282,0,0
384,77,0,3216,4189.615,4186.282,4187.821,4187.179,4182.436,4175.385,4185.513,4190.641,4183.718,4181.667,4186.667,4180.0,4182.692,4185.769,0,0
385,78,0,3260,4185.128,4188.718,4188.462,4184.615,4177.308,4173.974,4187.179,4186.667,4185.769,4187.436,4181.538,4172.0509999999995,4184.231,4183.462,0,0
386,79,0,2978,4186.282,4183.974,4185.769,4182.692,4173.846,4175.128,4187.0509999999995,4188.718,4183.077,4181.923,4179.744000000001,4167.0509999999995,4182.821,4174.615,0,0
387,80,0,2698,4180.255999999999,4178.205,4182.308,4182.0509999999995,4173.333,4176.667,4187.0509999999995,4188.718,4183.333,4179.103,4182.436,4168.974,4182.0509999999995,4169.487,0,0
388,81,0,3216,4173.846,4180.769,4180.769,4182.0509999999995,4172.179,4172.436,4187.692,4185.0,4187.0509999999995,4182.0509999999995,4184.231,4169.103,4182.564,4172.564,0,0
389,82,0,3260,4174.231,4185.385,4184.615,4183.846,4175.128,4170.255999999999,4187.821,4186.026,4184.487,4174.359,4177.179,4161.795,4182.821,4172.821,0,0
390,83,0,2978,4173.205,4185.513,4184.487,4185.641,4183.59,4173.718,4187.0509999999995,4182.0509999999995,4180.769,4166.154,4170.255999999999,4153.59,4181.667,4168.59,0,0
391,84,0,2698,4172.821,4180.255999999999,4175.897,4185.0,4187.0509999999995,4172.821,4183.333,4172.692,4181.667,4170.769,4171.538,4152.821,4174.103,4167.179,0,0
392,85,0,3216,4173.205,4179.359,4172.692,4183.333,4184.872,4170.513,4180.255999999999,4170.513,4184.103,4176.923,4171.667,4155.641,4169.615,4167.0509999999995,0,0
393,86,0,3260,4169.744000000001,4182.9490000000005,4173.974,4182.179,4186.282,4172.179,4183.846,4173.205,4185.255999999999,4171.795,4168.462,4154.359,4173.974,4166.795,0,0
394,87,0,2978,4167.821,4185.769,4172.436,4182.0509999999995,4187.308,4171.795,4182.564,4172.821,4182.308,4168.846,4170.128,4153.462,4174.103,4168.077,0,0
395,88,0,2698,4172.9490000000005,4186.538,4172.564,4184.744000000001,4184.487,4170.769,4173.718,4171.538,4177.564,4174.872,4173.462,4154.103,4170.255999999999,4171.538,0,0
396,89,0,3216,4174.359,4183.077,4174.744000000001,4182.179,4184.103,4171.538,4170.769,4171.923,4174.744000000001,4176.538,4170.769,4154.615,4171.282,4173.462,0,0
397,90,0,3260,4169.231,4175.641,4171.667,4172.0509999999995,4183.333,4168.333,4170.897,4166.923,4171.923,4166.154,4166.538,4155.769,4170.897,4170.0,0,0
398,91,0,2978,4168.205,4172.179,4168.462,4167.692,4185.128,4166.923,4167.0509999999995,4164.872,4169.615,4160.769,4168.077,4156.667,4168.846,4170.0,0,0
399,92,0,2698,4166.154,4173.974,4169.872,4169.744000000001,4184.744000000001,4170.769,4167.9490000000005,4170.128,4170.641,4166.154,4170.128,4157.0509999999995,4169.872,4173.718,0,0
400,93,0,3216,4156.538,4169.487,4168.846,4169.615,4175.897,4170.897,4173.333,4173.333,4172.0509999999995,4170.0,4169.103,4155.385,4170.897,4171.667,0,0
401,94,0,3260,4149.872,4165.255999999999,4166.795,4169.744000000001,4175.385,4168.718,4173.205,4168.462,4172.179,4169.487,4169.744000000001,4154.231,4168.462,4167.436,0,0
402,95,0,2978,4150.513,4168.846,4166.538,4170.513,4182.179,4169.872,4170.641,4165.385,4171.026,4166.026,4167.0509999999995,4154.231,4166.154,4166.538,0,0
403,96,0,2698,4150.897,4171.282,4167.821,4170.385,4183.077,4171.795,4169.872,4173.333,4170.897,4167.179,4162.9490000000005,4154.359,4169.231,4166.154,0,0
404,97,0,3216,4150.641,4171.282,4168.205,4171.538,4182.692,4172.821,4172.692,4182.564,4177.692,4172.564,4166.923,4155.0,4173.077,4166.795,0,0
405,98,0,3260,4150.769,4169.872,4162.179,4172.564,4182.821,4172.9490000000005,4175.0,4179.359,4184.103,4171.667,4172.0509999999995,4155.128,4175.0,4167.9490000000005,0,0
406,99,0,2978,4149.487,4172.821,4158.59,4172.179,4180.255999999999,4171.41,4171.282,4170.641,4180.255999999999,4167.9490000000005,4169.615,4153.462,4175.0,4165.128,0,0
407,100,0,2698,4153.333,4177.308,4163.718,4172.436,4178.846,4170.897,4176.026,4176.795,4177.564,4169.744000000001,4171.154,4152.821,4175.385,4166.026,0,0
408,101,0,3216,4158.59,4174.744000000001,4169.744000000001,4171.795,4176.923,4169.487,4185.255999999999,4185.897,4182.564,4172.436,4175.769,4155.128,4179.487,4172.179,0,0
409,102,0,3260,4157.308,4175.897,4170.385,4170.769,4170.769,4167.692,4182.179,4183.846,4184.615,4171.795,4172.692,4155.513,4181.026,4171.282,0,0
410,103,0,2978,4159.487,4185.385,4169.487,4171.667,4171.538,4169.615,4179.103,4180.897,4181.795,4172.436,4169.359,4157.692,4176.282,4169.872,0,0
411,104,0,2698,4167.9490000000005,4189.872,4172.308,4174.103,4172.9490000000005,4171.923,4182.308,4183.077,4181.026,4172.692,4172.0509999999995,4165.513,4173.077,4177.308,0,0
412,105,0,3216,4170.0,4187.0509999999995,4176.667,4175.385,4169.872,4170.641,4180.769,4186.154,4183.718,4171.667,4174.103,4167.179,4172.9490000000005,4179.231,0,0
413,106,0,3260,4165.0,4185.641,4176.538,4172.564,4174.744000000001,4169.615,4175.0,4181.026,4182.692,4170.769,4170.255999999999,4159.487,4168.846,4170.128,0,0
414,107,0,2978,4165.255999999999,4185.128,4171.667,4170.513,4183.718,4171.795,4173.462,4173.205,4176.026,4170.641,4168.718,4157.0509999999995,4167.0509999999995,4166.026,0,0
415,108,0,2698,4167.692,4186.795,4169.359,4173.333,4182.436,4171.923,4170.641,4167.436,4174.231,4167.9490000000005,4169.359,4158.846,4168.333,4168.462,0,0
416,109,0,3216,4164.744000000001,4190.0,4172.179,4175.0,4178.974,4170.128,4170.513,4170.641,4181.923,4167.308,4167.692,4155.897,4172.821,4168.205,0,0
417,110,0,3260,4162.179,4186.538,4172.821,4172.821,4185.128,4170.641,4176.923,4180.513,4187.821,4177.564,4167.564,4155.128,4182.564,4167.179,0,0
418,111,0,2978,4165.769,4184.231,4171.667,4174.872,4182.436,4172.179,4181.538,4181.154,4184.103,4185.641,4168.718,4156.026,4182.179,4167.308,0,0
419,112,0,2698,4171.667,4188.333,4174.487,4180.128,4173.59,4172.0509999999995,4182.564,4176.667,4181.538,4185.128,4169.231,4156.923,4174.231,4167.692,0,0
420,113,0,3216,4171.923,4190.513,4177.308,4178.59,4177.436,4171.795,4181.923,4179.872,4185.255999999999,4181.282,4170.255999999999,4157.308,4173.462,4168.333,0,0
421,114,0,3260,4169.359,4185.385,4172.9490000000005,4170.897,4177.436,4172.564,4183.205,4186.154,4185.0,4176.538,4171.026,4154.487,4174.487,4166.41,0,0
422,115,0,2978,4168.205,4184.615,4168.718,4170.897,4172.692,4173.205,4185.897,4183.077,4182.9490000000005,4175.897,4171.667,4157.179,4175.385,4166.667,0,0
423,116,0,2698,4170.897,4193.718,4176.667,4178.974,4181.923,4177.9490000000005,4188.974,4183.974,4190.513,4181.795,4171.026,4166.923,4183.462,4172.436,0,0
424,117,0,3216,4179.231,4202.436,4185.0,4185.385,4191.41,4183.462,4190.769,4198.462,4198.718,4186.026,4169.872,4170.769,4186.538,4176.538,0,0
425,118,0,3260,4181.154,4201.282,4180.0,4186.026,4187.564,4180.769,4188.59,4204.231,4195.0,4184.231,4176.538,4168.974,4182.692,4174.359,0,0
426,119,0,2978,4172.564,4192.0509999999995,4172.9490000000005,4177.692,4186.41,4174.487,4186.538,4194.615,4190.385,4184.615,4181.667,4169.872,4185.0,4172.308,0,0
427,120,0,2698,4166.154,4184.744000000001,4172.308,4175.513,4187.179,4173.077,4182.821,4184.744000000001,4189.103,4183.333,4173.974,4168.59,4183.333,4172.0509999999995,0,0
428,121,0,3216,4168.718,4185.0,4173.974,4182.692,4183.59,4174.103,4181.538,4182.564,4185.897,4183.718,4169.359,4166.41,4172.9490000000005,4170.513,0,0
429,122,0,3260,4171.41,4188.462,4173.59,4180.897,4185.128,4174.359,4183.59,4183.077,4184.359,4184.359,4172.692,4168.462,4169.487,4170.769,0,0
430,123,0,2978,4170.255999999999,4187.0509999999995,4172.179,4174.487,4186.795,4178.205,4180.769,4177.821,4182.821,4174.231,4172.564,4168.59,4172.179,4172.436,0,0
431,124,0,2698,4169.872,4186.538,4172.692,4179.103,4185.769,4182.308,4178.846,4172.179,4181.026,4169.744000000001,4171.41,4168.59,4170.897,4172.0509999999995,0,0
432,125,0,3216,4171.41,4194.231,4175.897,4186.538,4186.667,4185.255999999999,4182.564,4173.718,4184.231,4180.897,4172.0509999999995,4167.692,4171.026,4170.641,0,0
433,126,0,3260,4171.282,4197.308,4174.744000000001,4180.513,4186.154,4186.538,4184.744000000001,4178.333,4187.436,4188.846,4169.744000000001,4160.769,4178.462,4171.026,0,0
434,127,0,52,4163.077,4190.0,4168.59,4174.103,4182.692,4178.846,4183.077,4179.744000000001,4187.179,4184.487,4170.128,4152.436,4184.744000000001,4167.564,0,0
435,0,0,2695,4154.487,4184.103,4166.795,4173.333,4182.436,4170.128,4178.718,4181.795,4186.795,4182.692,4171.538,4151.538,4181.41,4159.487,0,0
436,1,0,2052,4152.692,4185.769,4171.154,4173.59,4185.641,4176.667,4177.436,4185.385,4187.308,4182.9490000000005,4167.821,4154.359,4173.718,4154.744000000001,0,0
437,2,0,3439,4150.641,4186.282,4170.0,4173.205,4185.513,4183.205,4181.667,4183.59,4185.385,4177.692,4164.615,4151.923,4174.103,4153.59,0,0
438,3,0,3407,4153.205,4185.0,4168.59,4174.359,4183.974,4177.821,4184.103,4182.436,4184.615,4178.718,4168.333,4151.154,4183.846,4157.436,0,0
439,4,0,2773,4165.513,4186.282,4178.077,4180.769,4184.103,4172.564,4183.205,4185.385,4186.795,4184.231,4171.667,4160.769,4185.128,4166.795,0,0
440,5,0,2623,4169.359,4185.128,4185.128,4182.821,4184.744000000001,4172.0509999999995,4184.744000000001,4183.333,4185.0,4183.333,4169.615,4167.9490000000005,4175.255999999999,4171.41,0,0
441,6,0,2506,4166.154,4187.692,4183.077,4184.103,4184.615,4176.154,4185.769,4181.41,4183.718,4183.205,4173.718,4167.9490000000005,4175.128,4170.769,0,0
442,7,0,3027,4176.538,4198.077,4185.513,4188.718,4184.744000000001,4183.205,4186.41,4187.308,4191.923,4188.205,4182.692,4175.255999999999,4186.026,4178.846,0,0
443,8,0,2534,4188.077,4201.026,4189.615,4187.564,4185.128,4184.231,4190.641,4190.513,4198.077,4188.974,4186.026,4182.179,4190.0,4188.333,0,0
444,9,0,3485,4183.077,4195.128,4184.359,4184.744000000001,4184.103,4182.436,4190.897,4184.231,4195.513,4189.744000000001,4184.359,4174.615,4188.077,4185.641,0,0
445,10,0,3263,4174.744000000001,4198.205,4182.692,4187.821,4185.128,4185.255999999999,4189.615,4186.41,4196.026,4197.436,4178.59,4167.821,4187.692,4181.795,0,0
446,11,0,2978,4172.564,4199.872,4182.692,4188.077,4188.333,4186.282,4190.0,4194.487,4201.923,4201.154,4176.282,4170.513,4187.436,4184.359,0,0
447,12,0,2696,4171.026,4191.41,4173.333,4182.0509999999995,4187.564,4183.846,4187.821,4191.667,4200.128,4200.0,4182.564,4170.769,4188.462,4181.923,0,0
448,13,0,3216,4169.487,4191.795,4169.872,4181.923,4186.538,4183.846,4185.769,4187.692,4191.026,4197.9490000000005,4187.179,4169.744000000001,4191.154,4179.615,0,0
449,14,0,3263,4169.872,4196.538,4173.846,4186.154,4187.821,4181.667,4187.692,4189.359,4189.359,4191.026,4184.359,4169.487,4188.846,4182.308,0,0
450,15,0,2978,4168.462,4188.846,4171.282,4182.179,4186.41,4181.923,4193.974,4192.436,4195.897,4184.872,4182.179,4168.846,4186.026,4178.077,0,0
451,16,0,0,4165.513,4181.667,4167.308,4174.615,4183.718,4184.615,4199.231,4196.41,4199.744000000001,4187.179,4175.769,4168.462,4187.692,4169.744000000001,0,0
452,17,0,0,4166.538,4184.359,4170.513,4172.179,4180.0,4183.718,4199.103,4198.462,4195.897,4189.872,4168.59,4164.615,4188.846,4170.0,0,0
453,18,0,0,4169.615,4186.026,4173.333,4177.308,4173.59,4183.718,4199.231,4197.564,4191.41,4186.026,4176.538,4163.462,4185.641,4173.205,0,0
454,19,0,0,4170.513,4184.487,4172.564,4182.436,4174.359,4185.385,4198.077,4197.692,4191.538,4181.41,4180.0,4167.436,4181.667,4171.795,0,0
455,20,0,0,4170.641,4184.487,4173.718,4182.821,4183.718,4185.128,4191.538,4197.179,4194.615,4184.231,4174.231,4170.769,4181.41,4172.821,0,0
456,21,0,0,4166.795,4184.359,4173.974,4183.077,4185.641,4185.769,4188.333,4197.179,4197.9490000000005,4186.282,4176.923,4170.0,4183.462,4173.077,0,0
457,22,0,0,4161.026,4184.231,4172.821,4184.359,4182.436,4186.154,4189.103,4202.179,4197.692,4185.255999999999,4178.462,4167.564,4184.872,4168.718,0,0
458,23,0,0,4162.692,4184.615,4172.564,4185.897,4186.667,4183.205,4185.897,4198.205,4191.538,4193.205,4172.0509999999995,4165.897,4185.255999999999,4167.821,0,0
459,24,0,0,4167.692,4185.385,4173.59,4181.538,4184.103,4182.564,4185.128,4187.692,4187.436,4201.282,4175.513,4165.255999999999,4185.255999999999,4170.0,0,0
460,25,0,0,4169.103,4184.744000000001,4172.0509999999995,4173.462,4172.0509999999995,4184.744000000001,4189.359,4185.769,4194.231,4193.846,4182.564,4168.205,4185.128,4169.615,0,0
461,26,0,0,4168.462,4181.667,4170.641,4174.359,4173.846,4181.41,4189.231,4186.667,4196.154,4185.513,4176.154,4168.974,4185.385,4169.231,0,0
462,27,0,0,4168.846,4186.795,4176.538,4183.205,4183.462,4180.513,4186.923,4185.255999999999,4186.923,4192.564,4176.667,4169.615,4186.154,4176.538,0,0
463,28,0,0,4176.026,4195.897,4184.487,4184.615,4179.231,4183.333,4187.179,4187.0509999999995,4185.641,4201.923,4187.179,4177.308,4187.436,4186.538,0,0
464,29,0,0,4182.821,4192.436,4185.0,4180.513,4172.308,4177.9490000000005,4186.795,4188.846,4190.128,4199.231,4190.255999999999,4182.821,4187.692,4189.103,0,0
465,30,0,0,4178.59,4183.718,4180.897,4181.154,4174.872,4170.769,4187.179,4187.821,4187.308,4189.359,4185.0,4176.41,4186.41,4183.205,0,0
466,31,0,0,4173.59,4186.538,4183.974,4183.718,4174.359,4172.9490000000005,4187.436,4181.795,4183.974,4184.487,4176.795,4168.718,4186.154,4182.0509999999995,0,0
467,32,0,0,4173.846,4190.128,4182.436,4184.487,4171.667,4173.974,4183.462,4173.333,4183.974,4185.769,4172.179,4169.615,4186.667,4188.077,0,0
468,33,0,0,4171.923,4187.179,4173.077,4183.846,4172.0509999999995,4170.769,4180.513,4173.718,4183.077,4184.487,4171.154,4169.103,4184.231,4182.9490000000005,0,0
469,34,0,0,4171.538,4189.615,4176.41,4185.385,4171.667,4175.513,4183.974,4182.564,4184.487,4181.923,4169.103,4165.385,4182.436,4174.359,0,0
470,35,0,0,4173.846,4191.795,4183.205,4187.564,4177.692,4182.9490000000005,4188.333,4186.154,4187.564,4185.641,4171.795,4168.333,4185.0,4177.9490000000005,0,0
471,36,0,0,4171.667,4185.641,4181.538,4184.359,4183.462,4180.897,4188.205,4184.487,4187.0509999999995,4190.641,4176.538,4167.436,4186.282,4179.359,0,0
472,37,0,0,4168.846,4183.077,4181.026,4180.769,4176.795,4176.154,4187.821,4182.308,4184.103,4181.923,4174.231,4157.692,4182.436,4171.667,0,0
473,38,0,0,4170.128,4186.923,4180.641,4182.179,4170.128,4178.846,4188.333,4182.436,4183.333,4172.564,4168.077,4156.154,4180.385,4170.897,0,0
474,39,0,0,4172.9490000000005,4189.359,4177.0509999999995,4185.128,4173.846,4185.0,4189.872,4187.692,4185.897,4181.923,4166.795,4166.538,4184.744000000001,4174.487,0,0
475,40,0,0,4175.385,4191.923,4179.359,4185.513,4176.154,4184.359,4190.769,4189.103,4186.154,4186.41,4177.0509999999995,4169.744000000001,4187.436,4176.154,0,0
476,41,0,0,4178.077,4199.487,4184.359,4184.487,4176.41,4178.077,4188.718,4182.0509999999995,4181.795,4175.897,4183.333,4165.769,4183.846,4177.436,0,0
477,42,0,0,4181.282,4197.821,4183.462,4183.333,4175.513,4177.692,4187.0509999999995,4180.513,4180.897,4173.718,4174.487,4168.333,4181.026,4175.513,0,0
478,43,0,0,4184.615,4189.744000000001,4184.744000000001,4184.103,4172.0509999999995,4182.821,4188.333,4184.615,4185.769,4180.385,4171.282,4172.564,4183.974,4177.308,0,0
479,44,0,0,4186.538,4188.462,4187.821,4183.846,4178.462,4183.462,4189.359,4186.41,4188.333,4186.538,4182.564,4173.59,4185.513,4184.231,0,0
480,45,0,0,4182.9490000000005,4188.974,4185.385,4182.179,4184.744000000001,4183.205,4190.128,4184.615,4185.0,4191.282,4185.513,4171.795,4182.308,4183.59,0,0
481,46,0,0,4179.615,4186.154,4183.462,4185.0,4176.923,4186.154,4190.897,4183.846,4184.744000000001,4189.872,4181.538,4170.385,4183.974,4181.026,0,0
482,47,0,0,4181.795,4185.128,4183.974,4187.308,4170.385,4183.59,4189.744000000001,4185.0,4186.538,4184.872,4183.462,4172.692,4184.615,4183.333,0,0
483,48,0,0,4182.692,4186.41,4184.103,4183.59,4176.538,4176.795,4188.077,4184.872,4185.0,4182.308,4183.974,4173.077,4176.026,4182.692,0,0
484,49,0,0,4181.795,4189.231,4184.615,4183.205,4180.385,4179.872,4187.308,4183.077,4184.359,4180.0,4183.077,4171.538,4175.0,4181.795,0,0
485,50,0,0,4186.41,4197.9490000000005,4187.436,4188.59,4177.179,4185.513,4186.282,4183.462,4185.385,4183.205,4181.154,4174.615,4185.128,4185.897,0,0
486,51,0,0,4189.103,4199.103,4188.718,4188.59,4174.231,4180.0,4186.667,4183.333,4185.513,4189.872,4177.564,4174.231,4186.282,4185.128,0,0
487,52,0,0,4185.128,4190.255999999999,4185.513,4185.769,4172.0509999999995,4176.026,4188.59,4182.9490000000005,4187.0509999999995,4190.255999999999,4182.308,4168.333,4181.154,4181.795,0,0
488,53,0,0,4185.128,4189.103,4184.615,4186.41,4171.795,4184.487,4186.923,4186.026,4189.359,4190.255999999999,4186.923,4168.333,4183.846,4183.846,0,0
489,54,0,0,4182.692,4190.255999999999,4184.487,4185.897,4172.9490000000005,4185.255999999999,4183.718,4181.667,4187.179,4188.333,4180.255999999999,4170.513,4185.641,4181.538,0,0
490,55,0,0,4174.872,4183.846,4179.359,4181.795,4173.205,4173.59,4182.821,4169.359,4182.9490000000005,4181.41,4175.0,4168.462,4180.897,4173.205,0,0
491,56,0,0,4178.333,4182.308,4178.462,4182.0509999999995,4170.897,4175.385,4184.872,4167.436,4183.205,4183.846,4182.436,4168.59,4181.154,4172.0509999999995,0,0
492,57,0,0,4186.667,4186.923,4182.564,4186.154,4169.487,4182.821,4186.795,4171.667,4183.718,4191.923,4185.385,4170.128,4184.231,4176.41,0,0
493,58,0,0,4178.333,4177.179,4175.897,4179.872,4169.487,4175.128,4185.641,4168.205,4175.513,4182.436,4172.821,4167.564,4175.255999999999,4175.641,0,0
494,59,0,0,4167.564,4165.513,4167.564,4172.179,4166.667,4172.821,4186.154,4165.641,4168.077,4168.59,4164.744000000001,4165.385,4167.179,4170.769,0,0
495,60,0,0,4172.308,4176.026,4175.641,4178.846,4168.333,4185.255999999999,4188.846,4170.0,4174.231,4172.179,4170.128,4163.846,4177.0509999999995,4169.231,0,0
496,61,0,0,4176.41,4184.359,4182.436,4186.667,4173.205,4186.282,4188.333,4170.0,4177.9490000000005,4177.179,4174.359,4162.821,4183.974,4171.282,0,0
497,62,0,0,4172.692,4176.795,4178.333,4184.872,4172.179,4173.974,4186.667,4167.308,4171.026,4172.308,4171.795,4162.692,4175.385,4171.923,0,0
498,63,0,0,4170.769,4171.667,4175.897,4178.974,4169.103,4171.667,4181.795,4165.897,4169.231,4172.308,4169.872,4161.026,4169.103,4169.487,0,0
499,64,0,2695,4171.154,4173.718,4175.128,4175.255999999999,4170.769,4178.718,4173.718,4162.0509999999995,4175.513,4176.026,4172.308,4162.436,4172.0509999999995,4169.231,0,0
500,65,0,2050,4170.255999999999,4171.923,4175.897,4172.179,4171.282,4181.795,4172.821,4157.692,4175.513,4170.641,4171.923,4167.308,4171.026,4171.538,0,0
501,66,0,3438,4171.538,4174.103,4180.641,4173.59,4170.769,4180.769,4182.564,4160.255999999999,4171.923,4170.513,4169.231,4168.718,4167.308,4171.667,0,0
502,67,0,3407,4174.872,4184.231,4182.0509999999995,4178.846,4174.872,4181.923,4185.255999999999,4166.282,4177.436,4177.9490000000005,4173.205,4165.255999999999,4171.538,4171.026,0,0
503,68,0,2776,4175.128,4186.026,4177.564,4178.974,4175.255999999999,4184.615,4174.487,4167.564,4182.9490000000005,4177.9490000000005,4177.0509999999995,4160.513,4177.179,4170.897,0,0
504,69,0,2623,4173.462,4181.923,4179.103,4180.128,4175.641,4184.359,4172.179,4166.026,4179.615,4177.564,4170.897,4156.41,4174.615,4171.923,0,0
505,70,0,2506,4173.077,4182.179,4180.769,4180.385,4182.564,4181.538,4178.205,4167.692,4177.179,4183.077,4166.538,4157.0509999999995,4171.154,4172.564,0,0
506,71,0,3026,4173.077,4184.615,4176.538,4177.179,4185.641,4180.769,4175.385,4169.872,4182.564,4184.744000000001,4170.897,4158.974,4175.255999999999,4170.385,0,0
507,72,0,2534,4171.667,4183.205,4174.231,4177.564,4183.718,4182.436,4169.615,4168.846,4184.615,4181.282,4172.179,4156.795,4175.0,4170.385,0,0
508,73,0,3485,4171.41,4181.154,4175.769,4183.59,4183.718,4179.744000000001,4171.795,4167.821,4175.897,4183.462,4170.897,4157.0509999999995,4169.744000000001,4173.462,0,0
509,74,0,3263,4173.077,4183.205,4175.897,4185.255999999999,4178.462,4173.59,4173.205,4167.179,4170.385,4185.897,4171.41,4157.308,4171.026,4173.333,0,0
510,75,0,2978,4170.897,4183.205,4172.436,4180.385,4172.179,4174.359,4170.641,4166.538,4176.923,4184.872,4170.897,4156.923,4172.564,4170.769,0,0
511,76,0,2704,4168.462,4180.255999999999,4173.974,4181.41,4176.923,4174.872,4172.436,4167.821,4180.769,4184.103,4168.59,4162.0509999999995,4169.359,4171.282,0,0
512,77,0,3221,4171.282,4180.255999999999,4176.795,4184.231,4183.974,4170.897,4172.436,4170.513,4176.923,4183.846,4172.821,4167.0509999999995,4172.9490000000005,4172.179,0,0
513,78,0,3263,4174.744000000001,4186.923,4175.385,4181.41,4185.513,4178.718,4171.41,4173.333,4180.897,4187.9490000000005,4181.667,4168.718,4183.077,4171.795,0,0
514,79,0,2978,4172.692,4185.513,4173.462,4175.513,4184.487,4186.026,4172.436,4173.205,4188.205,4190.0,4179.487,4170.513,4185.0,4174.615,0,0
515,80,0,2704,4166.154,4174.487,4170.769,4170.0,4180.385,4177.179,4168.718,4168.59,4179.615,4185.641,4169.103,4165.0,4176.154,4174.359,0,0
516,81,0,3221,4165.255999999999,4175.385,4169.487,4169.615,4179.359,4172.821,4165.897,4167.308,4173.462,4182.692,4167.692,4156.923,4172.308,4168.59,0,0
517,82,0,3263,4175.0,4184.615,4175.385,4175.769,4182.821,4182.0509999999995,4170.0,4171.282,4182.436,4180.255999999999,4173.205,4162.692,4179.744000000001,4172.564,0,0
518,83,0,2978,4186.282,4190.513,4185.128,4182.9490000000005,4182.692,4186.538,4172.9490000000005,4170.897,4187.308,4179.359,4174.231,4173.333,4184.103,4184.103,0,0
519,84,0,2704,4189.615,4196.154,4187.692,4184.872,4182.0509999999995,4182.9490000000005,4173.974,4169.359,4182.9490000000005,4186.282,4173.333,4173.59,4182.179,4187.692,0,0
520,85,0,3221,4190.513,4199.103,4186.923,4183.205,4183.846,4181.538,4178.333,4172.9490000000005,4182.564,4189.231,4172.821,4172.0509999999995,4183.205,4189.744000000001,0,0
521,86,0,3263,4192.821,4198.462,4188.077,4183.974,4183.333,4185.255999999999,4180.128,4175.255999999999,4191.154,4184.872,4174.744000000001,4173.59,4185.128,4195.255999999999,0,0
522,87,0,2978,4192.0509999999995,4196.41,4186.026,4185.513,4181.923,4181.667,4173.974,4172.308,4179.231,4188.59,4177.692,4172.9490000000005,4179.615,4193.333,0,0
523,88,0,2704,4189.615,4190.641,4184.103,4186.538,4183.333,4170.641,4170.513,4170.0,4137.692,4186.282,4175.128,4173.462,4172.0509999999995,4188.462,0,0
524,89,0,3221,4186.282,4187.308,4186.026,4187.179,4185.128,4173.846,4173.077,4172.436,4111.41,4172.179,4172.179,4172.9490000000005,4170.513,4187.692,0,0
525,90,0,3263,4184.615,4190.385,4184.103,4185.641,4182.308,4185.0,4174.872,4174.744000000001,4119.231,4171.538,4172.179,4169.103,4173.462,4185.385,0,0
526,91,0,2978,4186.41,4188.974,4182.564,4187.179,4174.231,4182.9490000000005,4177.308,4175.0,4125.513,4182.308,4171.026,4167.9490000000005,4175.0,4185.128,0,0
527,92,0,2704,4183.718,4184.615,4183.462,4186.154,4170.385,4182.692,4182.179,4177.821,4119.615,4186.667,4166.41,4168.205,4171.923,4185.385,0,0
528,93,0,3221,4178.846,4184.359,4180.769,4182.308,4177.436,4184.487,4185.897,4182.0509999999995,4123.846,4185.641,4168.333,4167.308,4171.282,4180.385,0,0
529,94,0,3263,4181.923,4184.744000000001,4180.255999999999,4183.077,4183.846,4176.667,4187.0509999999995,4184.615,4129.615,4183.077,4174.231,4170.385,4178.205,4180.897,0,0
530,95,0,2978,4185.128,4184.103,4184.231,4185.385,4183.462,4175.769,4187.308,4182.179,4125.641,4179.487,4172.436,4173.462,4183.59,4186.538,0,0
531,96,0,2704,4184.231,4185.0,4186.538,4185.255999999999,4183.718,4184.615,4186.41,4175.385,4125.385,4185.255999999999,4175.513,4172.308,4180.897,4186.538,0,0
532,97,0,3221,4185.641,4186.795,4186.667,4185.897,4185.128,4182.308,4186.154,4173.718,4132.308,4195.897,4183.59,4175.255999999999,4179.359,4185.0,0,0
533,98,0,3263,4187.436,4189.744000000001,4188.077,4188.333,4186.667,4180.513,4186.923,4182.821,4137.9490000000005,4193.205,4184.359,4179.103,4183.333,4187.308,0,0
534,99,0,2978,4183.205,4185.513,4185.385,4186.795,4186.41,4183.077,4183.333,4189.615,4138.462,4185.385,4183.974,4175.128,4184.615,4186.41,0,0
535,100,0,2704,4180.255999999999,4182.821,4182.0509999999995,4184.231,4183.59,4176.667,4179.744000000001,4186.026,4138.718,4194.231,4187.0509999999995,4170.513,4182.821,4183.462,0,0
536,101,0,3221,4184.359,4190.897,4184.615,4186.538,4183.846,4177.436,4182.308,4188.462,4140.128,4202.9490000000005,4186.538,4171.538,4185.641,4184.359,0,0
537,102,0,3263,4182.564,4192.9490000000005,4181.538,4187.692,4186.538,4182.9490000000005,4185.128,4194.359,4142.436,4190.255999999999,4185.897,4173.974,4188.462,4184.359,0,0
538,103,0,2978,4173.205,4186.026,4177.436,4183.077,4186.923,4176.282,4181.923,4188.59,4144.359,4185.513,4187.692,4172.308,4186.282,4182.821,0,0
539,104,0,2704,4171.026,4185.385,4178.333,4182.821,4186.795,4174.615,4180.0,4181.923,4142.564,4201.923,4185.255999999999,4168.846,4187.436,4185.0,0,0
540,105,0,3221,4173.462,4187.564,4176.026,4187.179,4185.128,4184.359,4184.359,4184.359,4138.718,4204.615,4184.487,4167.9490000000005,4190.255999999999,4183.333,0,0
541,106,0,3263,4168.462,4183.718,4170.513,4181.026,4181.795,4186.795,4187.692,4183.974,4137.0509999999995,4187.564,4181.667,4167.0509999999995,4187.9490000000005,4172.179,0,0
542,107,0,2978,4165.897,4181.923,4171.282,4174.487,4182.564,4184.231,4188.462,4182.0509999999995,4140.513,4184.872,4180.255999999999,4166.154,4186.41,4168.974,0,0
543,108,0,2704,4173.077,4183.205,4174.615,4181.154,4179.615,4186.538,4188.846,4186.538,4144.744000000001,4194.487,4181.923,4167.564,4188.077,4175.641,0,0
544,109,0,3221,4174.872,4182.9490000000005,4172.0509999999995,4183.462,4176.282,4182.0509999999995,4181.282,4182.0509999999995,4141.923,4192.692,4176.41,4166.795,4186.923,4176.538,0,0
545,110,0,3263,4170.897,4186.41,4172.821,4178.077,4181.923,4177.179,4170.513,4169.744000000001,4138.205,4189.231,4172.0509999999995,4165.769,4185.769,4179.487,0,0
546,111,0,2978,4171.282,4187.179,4175.385,4181.795,4183.077,4177.308,4168.974,4167.821,4139.744000000001,4191.154,4174.615,4168.59,4186.282,4183.462,0,0
547,112,0,2704,4171.41,4183.077,4172.179,4182.564,4172.9490000000005,4172.0509999999995,4169.359,4169.872,4139.359,4181.667,4170.897,4167.564,4183.077,4176.667,0,0
548,113,0,3221,4171.923,4182.308,4170.255999999999,4174.231,4169.359,4170.0,4166.538,4167.436,4137.692,4174.231,4168.59,4166.923,4180.641,4175.255999999999,0,0
549,114,0,3263,4179.872,4185.128,4176.795,4176.923,4173.718,4176.538,4172.564,4167.436,4140.641,4189.231,4178.974,4175.255999999999,4184.359,4183.462,0,0
550,115,0,2978,4187.9490000000005,4185.385,4185.255999999999,4183.077,4173.718,4180.128,4183.077,4171.026,4145.769,4200.897,4187.9490000000005,4184.744000000001,4187.0509999999995,4187.9490000000005,0,0
551,116,0,2704,4186.41,4185.769,4185.897,4180.0,4175.641,4179.487,4186.026,4174.872,4149.487,4200.385,4187.564,4187.564,4187.9490000000005,4192.692,0,0
552,117,0,3221,4184.487,4186.282,4185.255999999999,4179.615,4177.308,4182.0509999999995,4186.154,4175.128,4149.103,4198.462,4183.333,4185.128,4188.974,4199.744000000001,0,0
553,118,0,3263,4187.308,4183.974,4187.692,4184.744000000001,4176.154,4185.769,4187.9490000000005,4173.974,4144.487,4189.231,4183.718,4186.154,4186.282,4200.769,0,0
554,119,0,2978,4190.385,4183.462,4190.513,4185.255999999999,4177.0509999999995,4186.667,4187.9490000000005,4176.795,4142.821,4182.821,4185.385,4189.359,4184.231,4197.0509999999995,0,0
555,120,0,2704,4185.897,4185.128,4190.641,4180.769,4176.154,4181.026,4183.846,4174.487,4144.487,4187.9490000000005,4177.564,4182.308,4185.513,4191.923,0,0
556,121,0,3221,4175.513,4183.205,4182.179,4175.128,4174.103,4174.872,4176.538,4169.359,4142.564,4189.231,4168.846,4170.641,4182.692,4182.692,0,0
557,122,0,3263,4166.282,4175.128,4171.667,4171.282,4173.718,4173.205,4171.795,4166.282,4138.846,4180.0,4168.974,4162.436,4175.385,4173.59,0,0
558,123,0,2978,4158.462,4169.359,4168.974,4171.41,4173.846,4173.205,4170.0,4158.974,4137.436,4171.154,4171.41,4157.308,4170.641,4167.9490000000005,0,0
559,124,0,2704,4154.487,4177.436,4170.255999999999,4170.897,4175.641,4175.385,4168.59,4156.026,4139.359,4169.359,4169.103,4155.385,4171.026,4167.821,0,0
560,125,0,3221,4162.179,4182.821,4168.59,4171.154,4176.923,4180.385,4174.359,4165.641,4141.026,4171.795,4165.897,4156.795,4172.179,4169.487,0,0
561,126,0,3263,4169.231,4175.385,4167.821,4171.154,4172.9490000000005,4181.667,4184.744000000001,4170.128,4138.59,4170.385,4165.255999999999,4152.308,4168.205,4165.255999999999,0,0
562,127,0,52,4167.436,4175.128,4173.59,4172.692,4174.615,4182.179,4187.692,4167.179,4141.538,4175.513,4168.718,4150.255999999999,4168.333,4166.026,0,0
563,0,0,2696,4173.846,4186.282,4182.0509999999995,4179.744000000001,4184.744000000001,4187.308,4186.667,4172.564,4152.692,4188.333,4172.179,4162.821,4181.795,4176.41,0,0
564,1,0,2055,4182.692,4191.538,4186.282,4186.795,4187.436,4183.974,4186.41,4176.026,4152.564,4185.513,4171.154,4172.692,4186.667,4181.026,0,0
565,2,0,3439,4176.026,4186.538,4179.872,4182.564,4182.0509999999995,4173.846,4183.205,4170.255999999999,4142.308,4177.0509999999995,4170.513,4166.282,4174.359,4174.103,0,0
566,3,0,3408,4169.103,4182.9490000000005,4174.103,4174.615,4175.255999999999,4168.59,4179.872,4166.538,4144.359,4180.255999999999,4170.255999999999,4161.026,4168.333,4169.744000000001,0,0
567,4,0,2776,4171.667,4183.718,4178.077,4180.128,4171.154,4171.795,4181.538,4173.718,4154.615,4187.821,4169.615,4168.59,4174.615,4172.564,0,0
568,5,0,2623,4171.538,4181.41,4178.718,4184.872,4172.821,4178.077,4181.923,4183.974,4155.641,4183.333,4169.103,4170.897,4176.026,4171.795,0,0
569,6,0,2508,4167.179,4176.026,4173.077,4173.205,4173.59,4177.436,4181.026,4182.436,4152.308,4170.385,4171.154,4164.103,4173.59,4170.0,0,0
570,7,0,3026,4169.231,4175.897,4172.821,4170.0,4172.179,4178.077,4183.205,4178.974,4155.0,4171.667,4173.974,4167.821,4174.872,4171.795,0,0
571,8,0,2534,4171.026,4174.615,4176.923,4181.667,4173.205,4183.333,4186.154,4183.077,4157.564,4185.128,4171.795,4169.744000000001,4175.0,4170.769,0,0
572,9,0,3493,4167.0509999999995,4168.59,4173.846,4179.359,4171.282,4183.59,4185.255999999999,4184.231,4155.641,4187.692,4168.462,4157.308,4173.205,4167.564,0,0
573,10,0,3263,4165.128,4169.359,4167.9490000000005,4168.205,4168.077,4180.513,4181.41,4177.564,4154.103,4180.385,4168.077,4153.718,4173.077,4166.667,0,0
574,11,0,2978,4170.255999999999,4175.641,4173.59,4175.128,4171.667,4180.897,4182.179,4173.077,4155.0,4182.179,4170.385,4165.128,4174.487,4169.744000000001,0,0
575,12,0,2707,4175.513,4178.333,4184.744000000001,4185.513,4175.385,4179.615,4182.821,4176.667,4155.641,4186.282,4175.641,4173.205,4174.231,4178.462,0,0
576,13,0,3221,4172.821,4175.385,4184.615,4183.462,4172.179,4173.205,4175.513,4179.231,4154.744000000001,4179.103,4174.872,4171.923,4171.538,4180.769,0,0
577,14,0,3263,4171.282,4173.59,4177.564,4179.872,4169.359,4170.641,4170.897,4173.718,4153.462,4174.744000000001,4170.0,4168.077,4173.718,4173.333,0,0
578,15,0,2978,4178.718,4182.0509999999995,4181.41,4182.9490000000005,4173.077,4176.026,4178.462,4173.59,4155.897,4179.872,4174.872,4171.538,4180.513,4176.026,0,0
579,16,0,0,4187.308,4190.897,4187.821,4186.923,4180.513,4184.744000000001,4184.615,4184.231,4160.769,4186.667,4184.872,4183.077,4185.641,4188.59,0,0
580,17,0,0,4185.0,4187.692,4185.641,4188.974,4185.128,4185.513,4182.564,4187.436,4162.436,4191.923,4187.436,4185.385,4186.282,4188.462,0,0
581,18,0,0,4177.179,4184.615,4185.0,4189.359,4186.795,4182.821,4184.231,4181.026,4159.487,4195.0,4181.795,4173.462,4184.744000000001,4183.205,0,0
582,19,0,0,4173.333,4185.769,4182.0509999999995,4185.385,4182.0509999999995,4184.872,4183.846,4179.231,4157.308,4190.385,4173.462,4167.564,4177.692,4181.795,0,0
583,20,0,0,4173.205,4180.513,4173.846,4182.436,4176.154,4182.308,4175.0,4184.744000000001,4157.692,4182.0509999999995,4169.359,4171.026,4169.872,4175.641,0,0
584,21,0,0,4173.974,4177.179,4172.821,4183.718,4179.615,4174.615,4168.333,4181.41,4157.0509999999995,4184.231,4171.795,4172.179,4175.513,4178.077,0,0
585,22,0,0,4172.9490000000005,4180.769,4176.41,4183.718,4181.154,4171.538,4168.205,4170.897,4156.538,4188.205,4178.462,4170.255999999999,4185.385,4185.513,0,0
586,23,0,0,4172.821,4185.255999999999,4175.513,4182.9490000000005,4179.103,4175.769,4169.872,4176.795,4159.744000000001,4187.308,4181.667,4170.513,4186.026,4178.974,0,0
587,24,0,0,4172.436,4181.667,4174.103,4183.846,4179.487,4174.872,4169.103,4184.103,4160.641,4184.744000000001,4176.667,4171.538,4182.821,4171.154,0,0
588,25,0,0,4170.255999999999,4174.615,4176.795,4184.359,4176.026,4169.615,4168.462,4172.692,4155.385,4181.282,4170.128,4168.974,4180.897,4173.846,0,0
589,26,0,0,4170.769,4173.333,4176.41,4183.59,4169.359,4175.0,4175.897,4171.41,4153.974,4183.718,4172.436,4166.154,4177.9490000000005,4174.231,0,0
590,27,0,0,4170.385,4172.821,4172.0509999999995,4183.462,4171.154,4183.846,4184.231,4183.846,4157.821,4185.769,4170.769,4166.026,4175.769,4169.487,0,0
591,28,0,0,4167.179,4170.385,4170.385,4182.821,4174.359,4183.974,4181.667,4179.359,4156.41,4182.0509999999995,4166.282,4166.026,4173.974,4169.231,0,0
592,29,0,0,4166.795,4171.538,4171.026,4182.308,4169.231,4182.179,4181.282,4170.897,4153.077,4180.769,4176.154,4167.0509999999995,4171.282,4171.154,0,0
593,30,0,0,4170.255999999999,4175.641,4171.026,4182.9490000000005,4171.41,4184.744000000001,4186.538,4174.359,4155.128,4185.255999999999,4182.308,4168.205,4170.641,4172.564,0,0
594,31,0,0,4168.59,4172.179,4170.255999999999,4181.923,4181.795,4183.333,4181.923,4171.923,4156.41,4186.538,4173.974,4165.769,4170.385,4172.0509999999995,0,0
595,32,0,0,4166.538,4170.0,4170.128,4181.923,4182.436,4182.0509999999995,4176.41,4173.077,4156.282,4185.128,4168.59,4165.0,4172.179,4169.744000000001,0,0
596,33,0,0,4174.103,4176.667,4172.564,4183.718,4173.718,4183.462,4181.667,4182.436,4157.692,4186.923,4173.974,4168.205,4174.744000000001,4170.897,0,0
597,34,0,0,4182.692,4177.821,4178.333,4180.513,4169.615,4178.59,4185.0,4184.487,4157.436,4185.769,4180.769,4168.846,4170.641,4176.154,0,0
598,35,0,0,4185.641,4172.308,4183.077,4178.333,4169.231,4177.564,4183.846,4183.59,4161.154,4186.026,4181.41,4174.231,4172.308,4183.846,0,0
599,36,0,0,4186.795,4171.026,4183.205,4181.667,4167.564,4182.9490000000005,4183.59,4182.564,4165.897,4190.0,4182.0509999999995,4180.385,4180.128,4183.974,0,0
600,37,0,0,4186.41,4173.077,4182.692,4184.103,4169.487,4186.667,4183.846,4176.282,4161.795,4190.128,4183.718,4174.872,4175.769,4176.41,0,0
601,38,0,0,4185.769,4171.923,4184.103,4182.692,4175.128,4187.692,4186.795,4172.821,4155.513,4184.744000000001,4180.769,4172.564,4168.846,4176.154,0,0
602,39,0,0,4187.9490000000005,4172.0509999999995,4187.436,4183.974,4179.615,4187.821,4188.462,4174.744000000001,4156.667,4176.667,4178.974,4183.59,4173.59,4185.255999999999,0,0
603,40,0,0,4186.667,4172.179,4187.179,4185.769,4182.308,4186.923,4186.667,4173.462,4157.564,4172.9490000000005,4180.128,4185.128,4174.231,4186.923,0,0
604,41,0,0,4177.179,4170.641,4178.974,4184.359,4182.821,4181.154,4186.538,4177.308,4155.641,4175.128,4175.128,4172.821,4168.718,4176.41,0,0
605,42,0,0,4170.641,4169.487,4172.0509999999995,4184.103,4187.308,4173.974,4183.205,4182.436,4157.692,4178.077,4167.564,4165.769,4169.872,4168.205,0,0
606,43,0,0,4169.615,4164.615,4170.128,4178.205,4185.769,4169.231,4172.564,4173.077,4156.538,4173.462,4167.9490000000005,4158.846,4171.667,4166.41,0,0
607,44,0,0,4168.718,4162.564,4168.333,4168.846,4173.462,4170.0,4167.821,4163.59,4151.538,4166.154,4167.564,4151.795,4168.59,4165.255999999999,0,0
608,45,0,0,4170.0,4169.744000000001,4169.231,4173.333,4175.385,4175.897,4176.41,4172.821,4158.077,4167.564,4164.872,4158.718,4169.231,4166.282,0,0
609,46,0,0,4173.846,4174.103,4171.154,4184.103,4188.718,4182.0509999999995,4185.255999999999,4185.769,4168.333,4173.59,4167.9490000000005,4168.974,4174.744000000001,4169.744000000001,0,0
610,47,0,0,4175.897,4170.128,4171.923,4180.0,4186.923,4181.538,4185.255999999999,4181.923,4164.487,4174.103,4172.0509999999995,4171.282,4176.795,4171.923,0,0
611,48,0,0,4172.821,4168.718,4171.795,4169.359,4180.641,4175.513,4181.923,4173.59,4154.872,4167.564,4171.923,4170.513,4172.9490000000005,4170.385,0,0
612,49,0,0,4171.538,4171.795,4171.282,4173.974,4182.179,4173.59,4181.538,4173.846,4158.205,4166.538,4170.897,4169.615,4169.615,4168.974,0,0
613,50,0,0,4177.692,4173.846,4174.359,4183.077,4183.333,4176.538,4180.641,4172.0509999999995,4162.564,4169.744000000001,4172.821,4168.846,4170.0,4175.128,0,0
614,51,0,0,4185.769,4179.231,4182.692,4184.103,4185.128,4182.308,4181.795,4171.154,4156.923,4170.385,4173.718,4172.0509999999995,4171.667,4186.026,0,0
615,52,0,0,4187.9490000000005,4185.641,4186.026,4182.436,4189.872,4186.795,4186.41,4181.923,4159.103,4172.9490000000005,4171.923,4173.846,4174.359,4185.128,0,0
616,53,0,0,4181.41,4184.103,4177.821,4179.872,4188.974,4181.538,4185.513,4184.744000000001,4166.026,4172.436,4169.231,4168.077,4175.641,4173.077,0,0
617,54,0,0,4178.205,4182.564,4176.154,4181.538,4185.255999999999,4176.795,4183.59,4177.564,4165.385,4174.487,4170.769,4168.462,4177.564,4173.462,0,0
618,55,0,0,4185.897,4187.436,4185.769,4188.205,4184.231,4182.0509999999995,4185.769,4184.103,4168.718,4185.641,4180.513,4177.692,4184.103,4186.538,0,0
619,56,0,0,4190.0,4182.9490000000005,4186.154,4186.282,4186.282,4183.846,4185.128,4187.9490000000005,4173.462,4186.154,4186.026,4180.128,4185.513,4191.41,0,0
620,57,0,0,4175.897,4167.692,4172.692,4171.154,4182.179,4175.255999999999,4181.538,4170.641,4164.744000000001,4169.231,4175.641,4171.41,4172.692,4178.974,0,0
621,58,0,0,4166.795,4160.385,4167.692,4166.538,4170.513,4172.308,4182.692,4166.41,4157.692,4164.103,4169.103,4167.692,4164.359,4168.462,0,0
622,59,0,0,4176.923,4167.308,4178.59,4180.385,4172.0509999999995,4179.615,4186.026,4182.179,4166.923,4180.0,4178.077,4177.308,4175.385,4178.462,0,0
623,60,0,0,4187.436,4174.359,4185.769,4186.923,4184.359,4183.205,4187.308,4189.487,4172.179,4188.462,4185.513,4185.255999999999,4184.615,4192.436,0,0
624,61,0,0,4193.462,4177.0509999999995,4186.154,4181.538,4182.436,4182.308,4188.205,4187.179,4167.692,4178.974,4183.718,4183.846,4179.231,4191.026,0,0
625,62,0,0,4195.128,4180.128,4185.513,4180.513,4177.308,4183.333,4188.333,4182.0509999999995,4164.487,4170.897,4179.359,4181.026,4173.718,4184.744000000001,0,0
626,63,0,0,4193.718,4185.385,4185.897,4183.462,4183.974,4185.255999999999,4188.077,4178.462,4165.255999999999,4172.564,4178.718,4181.667,4174.231,4185.255999999999,0,0
627,64,0,2696,4197.564,4183.462,4187.179,4184.615,4184.231,4186.795,4188.077,4183.333,4168.077,4174.615,4183.333,4185.0,4173.846,4186.667,0,0
628,65,0,2049,4198.846,4174.359,4186.282,4184.615,4175.0,4181.795,4185.769,4183.59,4164.103,4170.128,4183.462,4185.641,4170.255999999999,4186.154,0,0
629,66,0,3434,4189.103,4176.538,4184.744000000001,4183.59,4172.9490000000005,4173.077,4182.179,4174.872,4157.436,4164.487,4174.103,4178.846,4167.179,4184.103,0,0
630,67,0,3400,4184.359,4184.615,4183.718,4183.462,4176.923,4176.282,4182.436,4173.718,4161.538,4168.974,4168.077,4174.359,4167.692,4181.41,0,0
631,68,0,2774,4194.231,4183.974,4186.795,4186.026,4176.41,4182.436,4185.641,4178.462,4169.872,4179.744000000001,4175.513,4180.897,4172.821,4183.462,0,0
632,69,0,2622,4200.128,4181.282,4188.462,4187.179,4175.897,4177.821,4185.897,4174.231,4167.821,4177.9490000000005,4183.077,4185.641,4172.308,4189.103,0,0
633,70,0,2508,4198.718,4183.462,4187.564,4186.538,4181.667,4176.154,4184.103,4174.615,4163.974,4171.538,4182.9490000000005,4183.974,4168.718,4191.154,0,0
634,71,0,3026,4198.205,4185.769,4187.0509999999995,4185.513,4181.795,4179.231,4183.846,4182.564,4168.59,4173.974,4181.154,4183.077,4173.718,4187.436,0,0
635,72,0,2534,4196.282,4183.974,4186.667,4182.821,4175.255999999999,4177.179,4183.077,4184.231,4170.128,4173.462,4182.564,4183.59,4179.744000000001,4183.718,0,0
636,73,0,3489,4189.231,4181.795,4186.026,4182.436,4172.9490000000005,4176.667,4182.436,4182.821,4166.282,4173.205,4183.205,4182.308,4178.205,4186.41,0,0
637,74,0,3261,4184.231,4181.538,4186.154,4184.103,4174.487,4180.255999999999,4182.308,4181.538,4168.077,4184.231,4183.333,4180.897,4178.462,4192.308,0,0
638,75,0,2975,4190.513,4184.487,4187.564,4183.59,4178.205,4181.41,4182.179,4179.744000000001,4172.564,4189.103,4183.718,4180.0,4183.59,4192.564,0,0
639,76,0,2698,4197.179,4184.359,4187.179,4181.923,4183.077,4184.231,4185.128,4181.026,4170.513,4181.41,4185.128,4181.538,4182.9490000000005,4189.359,0,0
640,77,0,3217,4193.333,4181.667,4186.795,4182.564,4183.846,4187.436,4188.462,4185.128,4169.487,4180.769,4189.359,4187.179,4181.154,4188.974,0,0
641,78,0,3261,4186.923,4181.41,4187.821,4185.513,4181.154,4186.667,4189.231,4187.308,4173.846,4189.231,4188.974,4185.385,4184.359,4188.205,0,0
642,79,0,2975,4187.692,4183.462,4188.205,4185.0,4183.59,4184.231,4188.846,4186.923,4174.231,4187.692,4184.103,4177.692,4182.692,4184.359,0,0
643,80,0,2698,4191.667,4184.359,4186.41,4181.795,4185.0,4182.308,4185.897,4185.641,4171.667,4172.692,4183.077,4174.487,4174.231,4184.615,0,0
644,81,0,3217,4189.103,4182.308,4183.718,4183.077,4178.59,4181.923,4181.538,4183.974,4170.513,4169.744000000001,4184.872,4175.385,4171.282,4187.0509999999995,0,0
645,82,0,3261,4187.436,4182.564,4186.923,4186.282,4176.538,4183.333,4182.0509999999995,4184.487,4171.923,4184.744000000001,4185.0,4177.564,4177.821,4185.513,0,0
646,83,0,2975,4193.077,4185.897,4189.744000000001,4185.641,4182.821,4185.255999999999,4186.795,4186.795,4173.846,4188.718,4183.077,4183.205,4182.308,4186.795,0,0
647,84,0,2698,4199.744000000001,4188.974,4190.255999999999,4185.769,4186.154,4188.077,4189.872,4189.359,4174.231,4183.718,4184.487,4191.282,4181.795,4196.282,0,0
648,85,0,3217,4202.564,4188.974,4191.667,4187.564,4183.974,4188.974,4188.077,4188.333,4173.077,4187.692,4187.821,4190.769,4183.205,4205.255999999999,0,0
649,86,0,3261,4195.641,4186.923,4188.718,4185.897,4179.487,4182.179,4182.564,4180.769,4170.769,4184.103,4185.0,4182.9490000000005,4183.59,4199.744000000001,0,0
650,87,0,2975,4187.0509999999995,4186.538,4182.564,4183.333,4175.0,4178.718,4181.795,4180.641,4171.154,4176.154,4182.179,4181.41,4180.513,4188.974,0,0
651,88,0,2698,4185.513,4183.59,4183.462,4182.9490000000005,4175.769,4184.872,4185.897,4188.59,4176.41,4181.282,4186.026,4182.692,4183.846,4187.564,0,0
652,89,0,3217,4183.333,4176.667,4180.255999999999,4181.795,4177.436,4181.795,4184.744000000001,4182.9490000000005,4171.282,4184.615,4180.513,4173.846,4182.308,4182.9490000000005,0,0
653,90,0,3261,4176.41,4170.513,4174.103,4180.513,4171.154,4171.154,4180.769,4172.179,4154.359,4181.282,4171.282,4165.385,4170.897,4175.255999999999,0,0
654,91,0,2975,4180.255999999999,4169.744000000001,4180.128,4182.436,4168.333,4176.538,4182.564,4183.846,4150.255999999999,4187.308,4179.872,4177.308,4173.718,4179.103,0,0
655,92,0,2698,4193.974,4176.41,4189.487,4186.923,4177.179,4184.231,4185.255999999999,4201.923,4158.974,4195.385,4193.077,4192.9490000000005,4184.231,4191.026,0,0
656,93,0,3217,4198.718,4185.255999999999,4193.462,4188.974,4179.359,4175.897,4183.974,4197.564,4159.359,4192.436,4188.59,4196.282,4184.103,4196.538,0,0
657,94,0,3261,4197.564,4187.564,4194.487,4187.821,4173.59,4169.872,4183.077,4185.513,4153.974,4185.255999999999,4183.205,4194.744000000001,4178.974,4194.103,0,0
658,95,0,2975,4200.255999999999,4187.308,4195.385,4189.103,4177.436,4174.231,4182.821,4185.641,4153.205,4181.41,4193.718,4197.821,4175.769,4194.487,0,0
659,96,0,2698,4203.462,4188.333,4197.9490000000005,4190.255999999999,4184.872,4177.9490000000005,4180.769,4189.359,4156.538,4185.897,4202.9490000000005,4200.641,4176.538,4199.103,0,0
660,97,0,3217,4200.641,4185.641,4196.923,4187.692,4183.974,4174.744000000001,4179.615,4187.436,4158.077,4191.667,4195.897,4194.359,4181.795,4203.077,0,0
661,98,0,3261,4194.359,4182.821,4188.205,4186.026,4178.974,4171.538,4181.795,4183.974,4154.744000000001,4185.513,4183.205,4185.641,4183.718,4196.282,0,0
662,99,0,2975,4191.923,4185.641,4184.359,4189.359,4182.179,4178.846,4184.615,4191.923,4160.769,4185.385,4188.462,4186.282,4181.667,4189.103,0,0
663,100,0,2698,4188.59,4186.41,4187.9490000000005,4192.308,4188.718,4188.59,4185.0,4202.692,4170.0,4195.128,4197.179,4189.359,4184.487,4189.487,0,0
664,101,0,3217,4183.846,4183.59,4185.385,4190.255999999999,4187.9490000000005,4185.128,4183.205,4198.718,4163.333,4198.205,4188.333,4183.205,4184.487,4189.103,0,0
665,102,0,3261,4187.0509999999995,4185.0,4186.026,4187.564,4184.359,4180.641,4182.9490000000005,4190.513,4158.077,4192.564,4186.795,4181.538,4184.487,4189.744000000001,0,0
666,103,0,2975,4190.769,4187.821,4189.744000000001,4188.718,4184.744000000001,4186.282,4184.615,4189.231,4167.308,4188.974,4197.821,4187.436,4188.846,4191.795,0,0
667,104,0,2698,4184.487,4184.872,4186.026,4189.487,4186.795,4189.231,4185.255999999999,4186.923,4169.487,4192.692,4193.462,4183.846,4186.538,4188.59,0,0
668,105,0,3217,4181.282,4183.077,4182.179,4189.359,4184.872,4186.41,4190.769,4190.769,4164.872,4198.333,4183.205,4178.846,4181.923,4183.59,0,0
669,106,0,3261,4188.462,4187.436,4186.026,4195.385,4184.872,4187.179,4197.564,4200.897,4168.077,4197.692,4190.128,4183.205,4184.487,4189.103,0,0
670,107,0,2975,4191.026,4189.487,4189.487,4197.9490000000005,4187.564,4190.385,4193.718,4201.41,4169.103,4194.615,4195.385,4187.564,4188.205,4194.359,0,0
671,108,0,2698,4187.821,4186.795,4187.179,4190.0,4186.538,4188.077,4183.59,4198.077,4167.0509999999995,4192.692,4189.231,4186.026,4185.641,4188.205,0,0
672,109,0,3217,4186.538,4185.385,4185.641,4184.744000000001,4180.769,4182.0509999999995,4181.282,4198.846,4166.923,4187.692,4186.282,4178.846,4180.641,4184.103,0,0
673,110,0,3261,4185.128,4182.436,4185.769,4184.231,4173.205,4181.923,4183.333,4198.333,4165.769,4186.154,4185.385,4172.179,4181.538,4185.513,0,0
674,111,0,2975,4184.615,4176.026,4187.308,4182.179,4173.205,4184.744000000001,4181.667,4198.59,4166.538,4192.9490000000005,4188.59,4178.846,4183.077,4188.462,0,0
675,112,0,2698,4185.641,4173.077,4187.308,4184.359,4174.615,4182.564,4182.0509999999995,4193.205,4166.795,4191.667,4189.872,4186.667,4176.923,4188.333,0,0
676,113,0,3217,4186.538,4176.923,4186.41,4187.692,4172.564,4181.026,4184.231,4185.0,4165.255999999999,4185.255999999999,4187.308,4183.974,4171.923,4187.179,0,0
677,114,0,3261,4192.308,4182.9490000000005,4190.641,4186.667,4176.923,4182.9490000000005,4186.923,4190.385,4166.154,4188.974,4192.692,4190.641,4177.692,4193.333,0,0
678,115,0,2975,4197.9490000000005,4185.769,4193.205,4191.282,4184.872,4183.846,4193.846,4200.255999999999,4169.872,4198.205,4198.846,4199.872,4186.154,4196.154,0,0
679,116,0,2698,4194.103,4186.282,4190.255999999999,4195.769,4185.641,4184.615,4200.255999999999,4200.769,4172.9490000000005,4200.641,4198.333,4193.974,4188.462,4191.923,0,0
680,117,0,3217,4186.667,4184.359,4187.821,4190.255999999999,4180.769,4186.282,4195.769,4195.128,4173.846,4198.718,4201.282,4188.59,4186.538,4191.41,0,0
681,118,0,3261,4186.795,4183.333,4186.795,4185.897,4175.513,4186.667,4187.9490000000005,4188.718,4170.897,4197.9490000000005,4196.795,4188.846,4183.333,4191.538,0,0
682,119,0,2975,4191.026,4187.9490000000005,4186.154,4188.462,4173.333,4186.282,4190.513,4192.9490000000005,4170.255999999999,4202.0509999999995,4189.744000000001,4187.436,4184.231,4188.205,0,0
683,120,0,2698,4188.59,4183.333,4185.0,4187.564,4175.513,4185.385,4193.077,4201.41,4172.692,4199.231,4192.308,4186.667,4185.769,4185.128,0,0
684,121,0,3217,4182.821,4172.821,4183.077,4183.59,4174.359,4184.615,4187.436,4195.641,4171.538,4188.205,4188.846,4184.615,4182.308,4182.821,0,0
685,122,0,3261,4184.615,4177.9490000000005,4183.846,4184.615,4169.103,4186.795,4183.846,4190.385,4170.128,4192.179,4187.821,4183.846,4182.564,4182.9490000000005,0,0
686,123,0,2975,4187.9490000000005,4184.103,4187.179,4189.231,4173.846,4188.59,4191.41,4200.897,4172.0509999999995,4199.231,4196.795,4187.0509999999995,4186.41,4186.795,0,0
687,124,0,2698,4186.667,4177.692,4188.59,4187.564,4178.205,4187.436,4199.615,4203.205,4171.923,4191.282,4192.564,4188.205,4184.103,4183.846,0,0
688,125,0,3217,4191.795,4177.821,4193.333,4186.538,4175.769,4185.0,4196.154,4194.744000000001,4169.872,4188.718,4188.333,4193.974,4182.179,4184.231,0,0
689,126,0,3261,4202.564,4187.692,4199.615,4194.615,4178.846,4185.513,4193.59,4197.436,4172.9490000000005,4202.821,4199.744000000001,4203.462,4184.872,4197.308,0,0
690,127,0,52,4206.154,4187.821,4201.026,4195.128,4183.077,4188.205,4199.615,4205.513,4178.205,4204.359,4200.769,4203.718,4185.641,4198.205,0,0
691,0,0,2694,4205.128,4184.487,4198.974,4187.436,4176.923,4188.59,4199.103,4203.846,4176.154,4190.385,4196.41,4198.333,4187.179,4187.0509999999995,0,0
692,1,0,2049,4200.0,4185.897,4193.59,4189.103,4170.513,4187.179,4191.538,4194.744000000001,4170.513,4184.615,4198.333,4192.0509999999995,4182.179,4182.308,0,0
693,2,0,3431,4191.538,4184.487,4187.9490000000005,4191.667,4176.026,4186.923,4191.538,4186.795,4168.077,4184.744000000001,4185.128,4184.103,4171.41,4182.436,0,0
694,3,0,3403,4189.487,4183.718,4186.538,4187.308,4183.205,4186.795,4193.205,4185.897,4168.462,4186.026,4180.385,4183.205,4174.103,4183.077,0,0
695,4,0,2774,4193.077,4183.974,4187.821,4188.333,4181.282,4185.769,4189.487,4189.744000000001,4169.231,4184.744000000001,4193.077,4187.436,4181.282,4185.385,0,0
696,5,0,2622,4197.0509999999995,4183.077,4191.282,4190.897,4175.385,4186.282,4187.9490000000005,4190.769,4170.769,4185.255999999999,4191.795,4186.538,4175.769,4186.282,0,0
697,6,0,2508,4196.41,4182.692,4189.231,4187.179,4170.0,4185.769,4185.255999999999,4187.308,4171.667,4189.231,4183.974,4183.205,4170.641,4183.846,0,0
698,7,0,3025,4193.846,4181.41,4185.128,4186.667,4171.41,4183.974,4181.667,4187.179,4171.667,4189.487,4187.179,4184.744000000001,4176.41,4184.359,0,0
699,8,0,2534,4197.692,4176.538,4193.462,4186.282,4179.615,4184.103,4183.974,4188.718,4171.667,4187.0509999999995,4190.897,4191.026,4181.667,4186.795,0,0
700,9,0,3490,4199.615,4172.9490000000005,4199.744000000001,4184.103,4181.154,4184.872,4186.154,4185.128,4169.872,4186.154,4187.564,4191.923,4180.897,4187.0509999999995,0,0
701,10,0,3261,4190.513,4173.846,4191.026,4186.026,4178.718,4185.385,4186.795,4182.0509999999995,4168.077,4182.308,4184.359,4186.154,4176.026,4184.231,0,0
702,11,0,2976,4185.128,4171.795,4185.641,4187.821,4180.769,4186.923,4188.974,4185.769,4166.282,4172.564,4185.255999999999,4183.333,4171.026,4178.974,0,0
703,12,0,2702,4183.205,4168.205,4187.564,4184.872,4177.564,4186.41,4187.0509999999995,4184.231,4163.077,4169.359,4182.308,4178.846,4171.154,4172.179,0,0
704,13,0,3216,4172.0509999999995,4167.308,4180.513,4179.872,4170.641,4181.923,4181.282,4171.41,4159.487,4169.103,4171.795,4169.487,4168.59,4166.026,0,0
705,14,0,3261,4169.615,4171.667,4175.641,4180.255999999999,4178.077,4181.026,4181.282,4167.179,4160.769,4164.872,4171.026,4168.333,4168.59,4167.692,0,0
706,15,0,2976,4178.205,4177.179,4182.9490000000005,4187.0509999999995,4187.9490000000005,4184.744000000001,4184.487,4178.59,4166.41,4171.538,4178.974,4172.692,4176.538,4172.564,0,0
707,16,0,0,4177.436,4174.103,4183.333,4185.385,4181.795,4184.103,4183.077,4182.564,4168.205,4182.564,4174.615,4169.872,4178.077,4170.0,0,0
708,17,0,0,4170.128,4169.231,4174.103,4174.615,4174.359,4181.154,4183.077,4173.846,4166.154,4175.897,4172.436,4167.692,4170.897,4169.103,0,0
709,18,0,0,4171.41,4170.513,4173.59,4171.282,4172.9490000000005,4183.077,4187.9490000000005,4173.846,4167.179,4166.026,4182.821,4172.9490000000005,4169.615,4173.974,0,0
710,19,0,0,4175.128,4167.0509999999995,4180.0,4174.359,4172.9490000000005,4184.359,4190.0,4184.359,4170.0,4174.487,4185.513,4176.282,4172.436,4176.026,0,0
711,20,0,0,4173.333,4162.0509999999995,4181.154,4176.026,4171.41,4181.538,4186.667,4188.333,4171.154,4186.41,4180.641,4177.821,4171.923,4174.359,0,0
712,21,0,0,4171.795,4165.769,4178.462,4175.641,4173.846,4182.436,4183.974,4184.744000000001,4171.923,4186.923,4181.026,4179.359,4172.821,4174.487,0,0
713,22,0,0,4173.718,4169.359,4179.231,4174.359,4178.974,4183.974,4186.538,4185.513,4172.0509999999995,4185.897,4181.026,4175.897,4174.744000000001,4175.0,0,0
714,23,0,0,4175.255999999999,4167.821,4177.692,4178.205,4176.538,4177.179,4184.744000000001,4183.974,4171.282,4186.41,4182.821,4172.564,4171.154,4175.0,0,0
715,24,0,0,4172.692,4167.308,4174.359,4180.641,4168.974,4171.154,4176.538,4175.897,4168.974,4174.872,4180.128,4172.436,4167.0509999999995,4173.718,0,0
716,25,0,0,4172.436,4167.179,4176.026,4175.0,4168.205,4176.923,4177.564,4176.282,4167.0509999999995,4164.487,4170.769,4172.436,4167.821,4175.0,0,0
717,26,0,0,4173.718,4167.0509999999995,4176.282,4173.974,4171.538,4183.077,4186.282,4185.128,4168.077,4178.205,4173.59,4171.923,4170.0,4177.692,0,0
718,27,0,0,4171.538,4169.231,4175.513,4181.538,4172.436,4180.385,4184.487,4188.846,4170.769,4188.462,4183.846,4171.026,4170.641,4176.667,0,0
719,28,0,0,4174.615,4173.462,4180.385,4183.718,4172.0509999999995,4175.128,4174.744000000001,4186.923,4170.513,4173.333,4183.462,4174.231,4169.103,4178.59,0,0
720,29,0,0,4183.718,4175.897,4186.282,4182.564,4170.128,4172.436,4173.718,4187.564,4170.128,4170.769,4180.897,4178.846,4170.0,4184.359,0,0
721,30,0,0,4186.41,4172.179,4185.513,4185.513,4176.538,4175.513,4180.0,4188.077,4173.462,4183.718,4186.026,4180.128,4176.41,4185.128,0,0
722,31,0,0,4182.179,4171.538,4182.821,4184.744000000001,4183.205,4182.821,4182.821,4181.667,4172.821,4176.154,4185.0,4180.641,4176.538,4183.077,0,0
723,32,0,0,4183.718,4179.744000000001,4185.128,4182.692,4177.179,4184.487,4184.487,4171.795,4169.615,4164.615,4178.59,4182.0509999999995,4170.513,4185.128,0,0
724,33,0,0,4183.205,4177.0509999999995,4183.846,4181.923,4173.718,4178.077,4185.0,4168.205,4167.821,4169.487,4177.9490000000005,4178.846,4168.462,4186.026,0,0
725,34,0,0,4176.795,4170.385,4181.795,4181.154,4176.41,4176.923,4183.846,4176.923,4166.923,4171.667,4176.026,4173.974,4171.282,4181.154,0,0
726,35,0,0,4173.333,4176.41,4182.436,4182.179,4174.103,4183.333,4184.359,4185.128,4169.103,4168.59,4171.923,4172.564,4171.538,4174.872,0,0
727,36,0,0,4172.179,4177.564,4178.59,4183.59,4175.0,4186.923,4186.667,4187.308,4171.923,4169.103,4171.923,4169.872,4170.769,4171.026,0,0
728,37,0,0,4171.667,4168.846,4172.821,4182.692,4185.0,4185.385,4185.897,4191.923,4169.487,4168.205,4171.538,4169.615,4174.872,4170.641,0,0
729,38,0,0,4170.128,4166.154,4171.795,4180.897,4182.436,4180.0,4182.564,4195.255999999999,4170.128,4170.255999999999,4169.744000000001,4171.154,4181.154,4168.974,0,0
730,39,0,0,4168.333,4168.333,4175.513,4182.436,4172.564,4178.462,4183.718,4191.154,4176.154,4176.41,4175.897,4170.385,4184.103,4169.231,0,0
731,40,0,0,4171.667,4169.103,4180.897,4184.359,4172.308,4182.692,4187.308,4186.154,4173.718,4173.718,4177.821,4170.641,4178.462,4170.513,0,0
732,41,0,0,4178.205,4170.255999999999,4182.692,4183.205,4174.103,4186.026,4187.9490000000005,4186.41,4171.282,4171.026,4173.462,4171.026,4171.923,4169.872,0,0
733,42,0,0,4182.308,4171.154,4180.385,4182.179,4172.436,4186.538,4186.41,4187.179,4183.974,4182.0509999999995,4178.846,4173.974,4171.41,4176.795,0,0
734,43,0,0,4182.179,4170.769,4181.026,4181.41,4174.231,4188.462,4185.897,4187.179,4201.154,4186.923,4183.333,4178.59,4172.821,4184.359,0,0
735,44,0,0,4176.923,4170.513,4183.718,4182.0509999999995,4178.077,4188.974,4184.231,4185.513,4211.795,4175.769,4175.385,4176.154,4170.641,4177.436,0,0
736,45,0,0,4172.564,4169.487,4178.462,4183.462,4173.846,4186.923,4180.897,4181.154,4213.718,4168.462,4170.385,4170.641,4165.769,4170.769,0,0
737,46,0,0,4174.359,4173.205,4176.795,4179.103,4174.231,4186.282,4182.308,4181.923,4209.615,4171.026,4171.538,4170.769,4163.974,4174.615,0,0
738,47,0,0,4173.846,4175.0,4179.487,4172.9490000000005,4183.077,4184.359,4180.769,4179.615,4204.231,4171.154,4168.974,4169.872,4155.641,4175.255999999999,0,0
739,48,0,0,4175.128,4171.282,4178.974,4177.179,4183.974,4181.795,4175.385,4172.0509999999995,4203.718,4168.205,4173.59,4168.718,4140.385,4176.795,0,0
740,49,0,0,4183.205,4174.359,4181.282,4185.641,4180.897,4181.538,4178.59,4175.513,4209.359,4169.872,4182.308,4175.255999999999,4136.41,4183.462,0,0
741,50,0,0,4185.769,4183.333,4182.9490000000005,4184.615,4183.59,4181.154,4184.615,4186.538,4216.026,4177.308,4183.974,4177.0509999999995,4145.769,4185.513,0,0
742,51,0,0,4183.462,4186.154,4181.795,4180.897,4182.9490000000005,4181.026,4182.564,4187.179,4218.718,4186.026,4183.974,4170.385,4153.59,4181.923,0,0
743,52,0,0,4186.026,4183.333,4182.821,4183.333,4181.538,4183.077,4181.026,4184.487,4217.308,4186.026,4178.718,4170.255999999999,4151.538,4173.846,0,0
744,53,0,0,4187.179,4183.59,4185.255999999999,4185.641,4185.0,4185.513,4184.744000000001,4186.41,4214.615,4174.231,4169.487,4173.718,4144.231,4169.872,0,0
745,54,0,0,4186.538,4186.41,4184.744000000001,4184.231,4181.795,4183.718,4184.615,4184.872,4211.282,4168.718,4175.255999999999,4172.179,4139.487,4175.255999999999,0,0
746,55,0,0,4183.205,4184.487,4181.282,4183.462,4176.41,4182.9490000000005,4183.205,4183.974,4211.41,4178.077,4187.308,4170.255999999999,4142.308,4176.41,0,0
747,56,0,0,4173.333,4176.538,4174.744000000001,4182.692,4174.872,4185.641,4185.769,4182.821,4216.026,4185.513,4179.359,4170.641,4143.718,4168.333,0,0
748,57,0,0,4167.564,4168.974,4169.103,4176.282,4171.667,4182.692,4183.59,4173.846,4212.9490000000005,4176.41,4166.795,4166.282,4139.103,4166.41,0,0
749,58,0,0,4167.9490000000005,4172.821,4168.077,4172.564,4171.795,4175.769,4173.077,4165.255999999999,4203.846,4159.872,4169.487,4158.205,4137.0509999999995,4168.205,0,0
750,59,0,0,4169.487,4183.077,4169.231,4179.359,4176.795,4176.795,4172.436,4166.667,4201.282,4157.308,4172.821,4156.795,4138.718,4168.077,0,0
751,60,0,0,4171.538,4185.255999999999,4172.436,4182.308,4175.897,4182.0509999999995,4181.667,4171.795,4202.692,4166.795,4170.128,4161.538,4139.103,4169.744000000001,0,0
752,61,0,0,4174.103,4179.744000000001,4175.385,4179.872,4172.821,4183.462,4178.718,4169.872,4202.436,4172.9490000000005,4169.872,4164.487,4140.769,4172.308,0,0
753,62,0,0,4175.0,4179.103,4173.974,4182.179,4174.359,4183.59,4173.846,4170.513,4202.179,4171.41,4172.308,4166.026,4142.436,4172.692,0,0
754,63,0,0,4176.667,4179.744000000001,4172.692,4184.487,4173.462,4182.179,4181.154,4178.333,4201.282,4167.308,4169.615,4167.308,4140.0,4167.692,0,0
755,64,0,2694,4181.154,4180.897,4178.077,4183.718,4176.026,4182.564,4183.974,4184.487,4208.846,4168.205,4170.385,4174.231,4142.821,4168.333,0,0
756,65,0,2050,4184.744000000001,4186.026,4184.872,4184.487,4183.333,4186.538,4176.667,4184.487,4216.41,4173.205,4178.333,4184.231,4152.0509999999995,4178.846,0,0
757,66,0,3431,4183.974,4181.667,4181.026,4182.692,4182.564,4183.846,4171.026,4182.564,4207.564,4173.205,4180.0,4181.667,4153.59,4178.718,0,0
758,67,0,3403,4182.436,4177.436,4176.154,4179.487,4177.0509999999995,4179.231,4175.385,4183.974,4204.359,4173.59,4177.9490000000005,4175.897,4149.231,4171.923,0,0
759,68,0,2766,4183.718,4180.897,4181.923,4183.59,4174.231,4181.538,4180.513,4186.923,4217.0509999999995,4182.9490000000005,4181.667,4181.667,4151.923,4174.872,0,0
760,69,0,2622,4183.718,4179.615,4185.897,4187.179,4174.103,4182.564,4177.692,4187.821,4218.333,4188.974,4184.359,4184.487,4157.308,4180.769,0,0
761,70,0,2508,4182.9490000000005,4177.564,4181.538,4185.897,4179.231,4181.667,4176.154,4188.462,4212.0509999999995,4185.385,4182.436,4182.0509999999995,4156.41,4180.897,0,0
762,71,0,3025,4186.538,4183.59,4181.923,4185.128,4181.923,4183.846,4182.821,4189.872,4214.359,4178.846,4184.231,4182.692,4155.385,4183.718,0,0
763,72,0,2534,4183.205,4182.821,4182.9490000000005,4184.231,4175.769,4181.923,4185.641,4188.974,4209.103,4172.0509999999995,4182.436,4177.179,4151.923,4184.487,0,0
764,73,0,3490,4173.462,4171.923,4175.255999999999,4182.692,4170.897,4177.0509999999995,4182.0509999999995,4183.59,4199.359,4165.513,4175.0,4170.0,4142.821,4175.385,0,0
765,74,0,3261,4167.821,4169.359,4169.359,4182.308,4171.154,4179.615,4182.564,4179.103,4200.641,4165.0,4170.385,4168.846,4140.641,4167.179,0,0
766,75,0,2976,4168.846,4176.026,4174.744000000001,4183.333,4170.769,4185.255999999999,4185.0,4177.821,4203.462,4170.897,4169.359,4168.974,4151.154,4167.692,0,0
767,76,0,2702,4175.385,4184.103,4183.974,4185.641,4171.154,4180.641,4180.255999999999,4174.615,4202.179,4172.436,4174.872,4175.513,4156.923,4175.769,0,0
768,77,0,3216,4185.513,4187.179,4188.205,4187.179,4171.538,4172.308,4174.359,4170.255999999999,4202.179,4170.513,4182.179,4186.667,4153.974,4183.205,0,0
769,78,0,3261,4192.692,4186.41,4188.718,4187.0509999999995,4171.282,4174.615,4173.205,4171.41,4204.359,4179.487,4186.667,4188.974,4155.255999999999,4185.641,0,0
770,79,0,2976,4191.538,4187.436,4187.692,4187.9490000000005,4174.872,4177.0509999999995,4173.333,4174.103,4204.103,4187.821,4183.846,4185.0,4157.692,4185.255999999999,0,0
771,80,0,2702,4186.282,4184.615,4183.974,4188.077,4173.846,4171.41,4173.974,4176.026,4203.333,4175.897,4176.795,4183.59,4154.615,4183.333,0,0
772,81,0,3216,4184.872,4182.0509999999995,4182.564,4185.0,4169.872,4175.128,4183.077,4181.282,4204.103,4169.744000000001,4173.718,4181.026,4152.821,4183.077,0,0
773,82,0,3261,4188.077,4183.333,4184.744000000001,4184.231,4171.026,4186.41,4190.769,4185.513,4203.718,4179.231,4174.231,4175.769,4155.255999999999,4184.103,0,0
