,COUNTER, INTERPOLATED, RAW_CQ, AF3, F7, F3, FC5, T7, P7, O1, O2, P8, T8, FC6, F4, F8, AF4, MARKER_HARDWARE, MARKER
0,13,0,3244,4151.154,4171.667,4166.154,4168.333,4170.255999999999,4170.255999999999,4171.538,4158.077,4166.538,4162.821,4163.718,4147.436,4167.308,4151.795,0,0
1,14,0,3189,4162.0509999999995,4179.103,4172.9490000000005,4177.821,4171.795,4175.255999999999,4170.385,4166.538,4170.255999999999,4175.641,4165.641,4156.282,4168.077,4156.538,0,0
2,15,0,2948,4173.974,4184.744000000001,4181.667,4189.231,4177.821,4184.615,4172.692,4177.0509999999995,4175.897,4187.9490000000005,4179.872,4171.41,4175.0,4175.255999999999,0,0
3,16,0,0,4176.282,4185.513,4184.872,4186.923,4183.077,4187.0509999999995,4180.128,4173.59,4176.923,4184.872,4185.128,4174.359,4184.231,4178.462,0,0
4,17,0,0,4181.154,4184.487,4185.897,4181.154,4177.564,4182.692,4178.59,4167.436,4172.564,4178.462,4175.769,4169.487,4178.974,4175.641,0,0
5,18,0,0,4187.179,4185.513,4188.59,4182.9490000000005,4170.128,4180.897,4174.872,4170.255999999999,4170.897,4182.0509999999995,4171.282,4172.821,4174.615,4183.974,0,0
6,19,0,0,4186.026,4185.513,4190.769,4184.359,4170.769,4182.436,4180.128,4172.436,4172.436,4187.0509999999995,4173.59,4182.436,4182.821,4188.205,0,0
7,20,0,0,4185.385,4185.385,4189.231,4181.667,4173.077,4179.359,4180.385,4171.538,4173.333,4183.846,4176.282,4183.462,4186.282,4184.103,0,0
8,21,0,0,4184.872,4186.538,4184.487,4179.103,4171.282,4177.564,4171.923,4170.385,4172.564,4181.923,4184.359,4175.385,4180.513,4184.744000000001,0,0
9,22,0,0,4175.769,4185.0,4182.0509999999995,4179.103,4172.0509999999995,4177.436,4175.641,4171.538,4172.0509999999995,4182.436,4185.641,4170.128,4181.282,4182.308,0,0
10,23,0,0,4171.538,4185.513,4185.255999999999,4182.436,4173.59,4177.179,4186.538,4173.974,4172.692,4185.0,4175.128,4171.795,4186.923,4175.128,0,0
11,24,0,0,4171.282,4181.538,4181.667,4180.385,4170.385,4175.769,4181.667,4172.0509999999995,4171.795,4182.821,4169.231,4167.308,4181.282,4170.255999999999,0,0
12,25,0,0,4162.9490000000005,4171.282,4171.41,4173.077,4171.538,4174.744000000001,4176.154,4170.128,4168.462,4171.923,4171.41,4155.513,4173.846,4167.179,0,0
13,26,0,0,4158.462,4171.026,4169.103,4172.436,4173.59,4178.077,4182.436,4174.103,4168.333,4168.59,4172.308,4152.436,4180.513,4165.897,0,0
14,27,0,0,4165.128,4181.154,4176.795,4175.128,4173.718,4181.667,4185.513,4175.0,4169.231,4173.205,4171.154,4161.667,4187.821,4168.462,0,0
15,28,0,0,4170.769,4185.769,4183.462,4175.0,4180.128,4181.154,4181.41,4171.41,4168.462,4172.9490000000005,4173.205,4170.513,4184.359,4171.795,0,0
16,29,0,0,4170.769,4182.179,4183.59,4178.974,4180.897,4179.487,4179.872,4170.769,4170.385,4177.692,4173.077,4168.718,4183.462,4169.231,0,0
17,30,0,0,4171.026,4181.923,4181.41,4184.487,4173.462,4182.564,4181.795,4173.333,4173.462,4187.821,4172.308,4165.0,4186.282,4167.692,0,0
18,31,0,0,4172.308,4187.0509999999995,4184.359,4183.205,4177.821,4185.513,4182.821,4173.846,4173.205,4188.205,4174.744000000001,4168.462,4186.538,4172.821,0,0
19,32,0,0,4170.897,4188.333,4184.231,4182.179,4184.872,4182.436,4183.846,4171.026,4172.564,4182.308,4174.872,4168.462,4185.385,4172.9490000000005,0,0
20,33,0,0,4167.179,4183.077,4175.769,4183.59,4177.9490000000005,4181.154,4178.077,4166.41,4170.0,4176.026,4170.769,4156.795,4176.154,4166.026,0,0
21,34,0,0,4165.128,4180.897,4174.872,4183.59,4171.795,4181.667,4171.538,4166.282,4165.255999999999,4170.513,4165.897,4153.718,4168.846,4165.513,0,0
22,35,0,0,4171.154,4184.231,4182.564,4182.436,4174.231,4179.615,4177.9490000000005,4168.718,4167.0509999999995,4170.385,4165.255999999999,4166.538,4176.538,4171.154,0,0
23,36,0,0,4178.59,4186.282,4186.026,4183.462,4178.718,4177.436,4185.641,4170.641,4172.0509999999995,4172.436,4173.333,4173.205,4182.9490000000005,4175.513,0,0
24,37,0,0,4183.718,4187.179,4187.692,4187.436,4180.255999999999,4177.821,4182.179,4175.255999999999,4171.923,4173.077,4183.59,4170.641,4181.154,4182.0509999999995,0,0
25,38,0,0,4183.333,4186.538,4188.974,4186.923,4174.487,4179.615,4177.821,4181.923,4171.795,4181.538,4185.0,4168.974,4181.667,4182.821,0,0
26,39,0,0,4176.667,4185.897,4185.897,4183.077,4168.974,4177.436,4182.564,4185.769,4174.744000000001,4189.487,4180.897,4170.255999999999,4186.282,4175.0,0,0
27,40,0,0,4172.0509999999995,4182.821,4181.667,4180.128,4170.255999999999,4176.026,4184.103,4180.255999999999,4173.462,4178.205,4177.179,4171.282,4183.205,4172.9490000000005,0,0
28,41,0,0,4169.231,4173.333,4176.026,4176.667,4171.795,4176.795,4175.769,4170.128,4170.0,4167.692,4169.872,4164.744000000001,4175.128,4173.205,0,0
29,42,0,0,4165.513,4168.205,4170.0,4173.462,4169.487,4173.205,4169.615,4168.59,4170.385,4172.9490000000005,4168.59,4159.615,4171.282,4169.487,0,0
30,43,0,0,4163.974,4170.128,4173.718,4174.359,4167.692,4171.667,4171.538,4172.308,4171.154,4176.154,4177.821,4166.923,4172.692,4173.333,0,0
31,44,0,0,4167.0509999999995,4168.718,4181.923,4178.846,4166.795,4179.103,4174.487,4171.667,4171.667,4175.641,4186.154,4176.026,4178.205,4183.077,0,0
32,45,0,0,4173.205,4172.308,4186.026,4182.179,4169.103,4181.41,4173.718,4170.897,4172.9490000000005,4182.436,4185.128,4175.641,4183.205,4188.974,0,0
33,46,0,0,4174.744000000001,4180.128,4182.692,4183.846,4170.255999999999,4172.9490000000005,4172.692,4172.179,4172.564,4179.872,4175.769,4173.205,4184.231,4186.538,0,0
34,47,0,0,4169.103,4176.41,4174.744000000001,4179.872,4167.692,4168.462,4173.205,4173.077,4171.154,4169.231,4169.744000000001,4168.333,4179.231,4176.41,0,0
35,48,0,0,4166.154,4172.436,4173.205,4173.205,4166.41,4170.513,4171.41,4178.59,4171.026,4170.255999999999,4172.179,4159.615,4174.487,4169.615,0,0
36,49,0,0,4170.255999999999,4175.385,4177.308,4171.795,4170.0,4174.744000000001,4170.897,4182.308,4171.154,4173.333,4173.462,4162.821,4178.205,4174.231,0,0
37,50,0,0,4172.308,4172.308,4176.41,4173.462,4174.487,4181.923,4175.128,4182.692,4171.923,4178.333,4173.462,4171.282,4184.615,4177.308,0,0
38,51,0,0,4170.0,4172.436,4171.795,4177.0509999999995,4174.487,4181.026,4174.744000000001,4180.255999999999,4172.436,4183.462,4172.821,4166.154,4181.026,4171.41,0,0
39,52,0,0,4170.0,4182.436,4173.077,4183.333,4177.564,4177.436,4170.641,4174.359,4171.026,4176.923,4172.0509999999995,4160.641,4173.59,4172.9490000000005,0,0
40,53,0,0,4173.077,4184.359,4178.718,4185.769,4182.179,4181.154,4172.821,4173.205,4170.641,4170.128,4175.255999999999,4166.538,4172.564,4181.41,0,0
41,54,0,0,4178.846,4181.154,4183.333,4181.41,4181.538,4183.205,4175.0,4181.41,4172.308,4172.9490000000005,4182.564,4170.769,4174.231,4184.231,0,0
42,55,0,0,4186.795,4187.0509999999995,4186.667,4182.821,4181.923,4182.9490000000005,4173.59,4186.41,4172.564,4178.333,4184.744000000001,4171.41,4178.333,4187.9490000000005,0,0
43,56,0,0,4190.0,4190.897,4187.308,4187.0509999999995,4184.872,4184.231,4173.462,4182.0509999999995,4171.795,4181.282,4183.333,4175.385,4183.205,4192.436,0,0
44,57,0,0,4186.795,4186.538,4186.282,4181.41,4182.9490000000005,4182.0509999999995,4172.0509999999995,4180.128,4172.179,4173.974,4183.846,4174.103,4181.923,4188.462,0,0
45,58,0,0,4186.154,4186.154,4186.026,4179.103,4180.513,4180.128,4172.0509999999995,4182.9490000000005,4172.179,4168.205,4184.103,4170.897,4180.255999999999,4188.846,0,0
46,59,0,0,4188.59,4189.615,4186.538,4184.103,4183.462,4183.846,4179.872,4183.462,4172.308,4180.513,4183.846,4174.487,4184.103,4198.718,0,0
47,60,0,0,4187.692,4189.744000000001,4186.154,4181.538,4183.462,4184.872,4185.513,4182.821,4176.538,4188.333,4182.692,4175.128,4184.872,4196.923,0,0
48,61,0,0,4184.103,4186.154,4185.641,4176.538,4180.513,4183.974,4184.359,4188.077,4182.308,4181.026,4182.564,4171.538,4184.615,4184.744000000001,0,0
49,62,0,0,4183.59,4184.744000000001,4185.128,4180.513,4181.667,4185.513,4184.103,4193.718,4184.744000000001,4184.103,4188.462,4171.026,4186.41,4183.59,0,0
50,63,0,0,4184.872,4191.026,4183.59,4185.641,4185.385,4187.179,4185.128,4190.513,4184.744000000001,4192.179,4190.0,4175.897,4187.821,4192.564,0,0
51,64,0,2632,4187.692,4202.0509999999995,4185.769,4186.795,4188.462,4188.205,4187.692,4188.59,4185.641,4187.692,4185.0,4182.692,4190.128,4199.359,0,0
52,65,0,2023,4190.255999999999,4199.744000000001,4188.846,4184.615,4188.718,4188.59,4190.255999999999,4190.769,4187.179,4186.026,4191.282,4185.769,4192.179,4200.255999999999,0,0
53,66,0,3431,4188.077,4187.308,4186.667,4180.0,4184.615,4187.179,4187.821,4189.231,4185.128,4187.821,4199.872,4183.846,4187.564,4196.923,0,0
54,67,0,3380,4192.821,4191.026,4188.718,4181.41,4183.077,4187.308,4188.59,4192.9490000000005,4182.9490000000005,4188.205,4193.846,4183.205,4185.513,4197.0509999999995,0,0
55,68,0,3019,4201.923,4206.026,4194.744000000001,4187.821,4186.923,4189.103,4192.9490000000005,4203.077,4185.641,4194.615,4186.282,4186.41,4192.9490000000005,4200.385,0,0
56,69,0,2626,4197.9490000000005,4206.026,4192.308,4188.077,4186.667,4188.974,4189.872,4198.333,4183.718,4193.59,4188.974,4181.667,4192.179,4195.897,0,0
57,70,0,2557,4192.436,4201.282,4187.821,4186.923,4182.308,4187.308,4185.0,4183.59,4175.769,4178.077,4187.9490000000005,4172.179,4184.744000000001,4188.077,0,0
58,71,0,3033,4194.231,4204.615,4187.564,4186.795,4182.0509999999995,4187.308,4186.538,4180.513,4170.641,4167.436,4181.154,4171.154,4184.359,4185.255999999999,0,0
59,72,0,2478,4191.154,4204.231,4185.897,4184.231,4185.385,4187.436,4188.205,4185.128,4170.385,4170.255999999999,4181.795,4175.385,4185.128,4186.282,0,0
60,73,0,3489,4184.872,4198.974,4184.872,4182.436,4186.282,4187.0509999999995,4186.026,4185.128,4173.718,4171.923,4182.692,4172.9490000000005,4182.308,4185.897,0,0
61,74,0,3189,4184.103,4200.255999999999,4183.846,4183.718,4185.769,4187.564,4186.154,4183.077,4176.795,4172.564,4178.077,4167.436,4182.564,4182.308,0,0
62,75,0,2948,4176.923,4199.231,4176.667,4180.769,4187.692,4185.255999999999,4181.667,4180.897,4173.974,4171.667,4176.667,4168.077,4184.359,4175.385,0,0
63,76,0,2655,4167.692,4191.154,4168.846,4174.872,4184.487,4180.255999999999,4173.974,4178.974,4168.333,4167.564,4179.103,4167.179,4180.897,4172.436,0,0
64,77,0,3244,4172.0509999999995,4187.436,4169.487,4173.846,4174.615,4182.308,4173.59,4182.0509999999995,4173.974,4177.9490000000005,4175.385,4161.795,4180.128,4174.487,0,0
65,78,0,3189,4177.692,4189.231,4171.538,4174.744000000001,4170.897,4182.308,4173.718,4185.641,4180.128,4188.462,4167.692,4159.103,4181.667,4172.308,0,0
66,79,0,2948,4178.333,4185.769,4172.0509999999995,4172.0509999999995,4170.641,4174.231,4169.615,4180.513,4174.359,4178.846,4168.205,4163.846,4182.436,4176.41,0,0
67,80,0,2655,4183.974,4189.103,4175.255999999999,4175.897,4169.103,4175.897,4171.538,4173.846,4170.897,4169.487,4173.462,4170.897,4182.692,4183.59,0,0
68,81,0,3244,4186.538,4202.436,4174.744000000001,4183.59,4173.333,4182.436,4178.333,4174.231,4174.744000000001,4171.795,4171.923,4166.667,4182.821,4175.385,0,0
69,82,0,3189,4178.846,4199.487,4172.436,4179.359,4177.564,4176.282,4177.692,4173.59,4173.718,4170.641,4167.821,4156.026,4182.308,4166.667,0,0
70,83,0,2948,4175.128,4187.0509999999995,4173.718,4174.872,4176.923,4168.846,4172.0509999999995,4170.897,4167.308,4164.872,4167.821,4156.282,4181.026,4169.487,0,0
71,84,0,2655,4182.692,4194.487,4176.538,4180.513,4182.179,4172.9490000000005,4173.718,4177.0509999999995,4170.641,4171.154,4171.41,4167.179,4183.462,4173.718,0,0
72,85,0,3244,4188.205,4205.897,4179.231,4183.59,4188.205,4174.487,4177.564,4185.769,4176.282,4183.974,4178.718,4172.9490000000005,4186.41,4178.59,0,0
73,86,0,3189,4187.179,4199.615,4182.436,4184.231,4185.255999999999,4171.282,4174.872,4184.103,4173.59,4183.718,4181.282,4170.897,4183.974,4184.231,0,0
74,87,0,2948,4187.179,4195.255999999999,4186.795,4185.897,4183.59,4176.154,4176.282,4180.513,4171.923,4177.9490000000005,4178.205,4172.0509999999995,4182.179,4182.692,0,0
75,88,0,2655,4188.718,4199.872,4183.718,4183.077,4185.128,4182.692,4182.436,4180.769,4172.564,4179.744000000001,4177.564,4170.897,4183.462,4176.41,0,0
76,89,0,3244,4183.59,4201.026,4175.513,4181.923,4182.821,4182.0509999999995,4180.128,4184.359,4173.59,4185.385,4176.41,4162.692,4182.9490000000005,4171.282,0,0
77,90,0,3189,4174.615,4196.667,4172.9490000000005,4183.077,4180.897,4181.538,4173.077,4183.333,4173.974,4182.9490000000005,4171.667,4156.154,4182.308,4168.077,0,0
78,91,0,2948,4170.769,4190.897,4173.846,4176.41,4182.821,4181.667,4168.462,4172.564,4171.923,4172.436,4171.154,4154.872,4183.205,4168.462,0,0
79,92,0,2655,4172.308,4188.077,4173.077,4170.255999999999,4181.154,4176.41,4167.308,4170.0,4169.359,4162.308,4171.154,4156.154,4182.436,4167.9490000000005,0,0
80,93,0,3244,4172.0509999999995,4188.077,4171.795,4174.872,4175.0,4175.0,4169.103,4178.974,4170.255999999999,4163.846,4168.59,4156.026,4183.077,4168.077,0,0
81,94,0,3189,4169.487,4186.026,4171.282,4177.564,4172.692,4176.923,4171.282,4179.487,4172.0509999999995,4174.103,4172.564,4155.128,4182.308,4164.744000000001,0,0
82,95,0,2948,4165.128,4182.0509999999995,4167.692,4172.179,4173.333,4172.692,4167.692,4170.0,4171.795,4170.769,4170.641,4153.59,4175.128,4157.564,0,0
83,96,0,2655,4162.692,4181.026,4166.538,4170.641,4172.436,4168.718,4163.974,4169.615,4171.154,4168.718,4166.667,4153.974,4171.154,4160.0,0,0
84,97,0,3244,4168.462,4182.564,4167.436,4172.308,4171.667,4171.41,4164.744000000001,4177.564,4169.744000000001,4180.641,4177.0509999999995,4159.872,4176.667,4169.487,0,0
85,98,0,3189,4178.205,4184.103,4171.795,4174.615,4176.026,4176.923,4171.154,4182.821,4173.462,4185.897,4187.564,4173.333,4182.821,4176.282,0,0
86,99,0,2948,4188.718,4187.308,4184.872,4182.308,4185.513,4182.9490000000005,4180.513,4187.179,4183.462,4185.641,4187.9490000000005,4183.974,4186.026,4183.846,0,0
87,100,0,2655,4188.974,4187.436,4185.769,4183.846,4186.41,4184.487,4181.282,4186.41,4183.462,4184.872,4182.436,4177.9490000000005,4186.667,4185.0,0,0
88,101,0,3244,4175.0,4180.0,4171.667,4174.103,4177.564,4181.41,4172.308,4175.0,4170.769,4174.615,4175.255999999999,4165.897,4184.359,4172.692,0,0
89,102,0,3189,4169.872,4177.9490000000005,4170.897,4174.103,4177.179,4182.9490000000005,4169.615,4167.821,4167.179,4169.487,4172.692,4166.667,4182.436,4168.333,0,0
90,103,0,2948,4182.564,4186.026,4182.692,4186.282,4185.513,4186.538,4178.846,4175.897,4177.436,4184.231,4178.59,4172.308,4183.59,4178.59,0,0
91,104,0,2655,4190.641,4190.0,4186.154,4187.821,4186.154,4188.462,4186.795,4185.128,4180.128,4193.462,4185.897,4173.205,4188.846,4186.41,0,0
92,105,0,3244,4181.026,4185.385,4178.077,4180.128,4182.436,4185.897,4184.487,4185.128,4169.487,4185.0,4183.205,4172.692,4185.128,4182.9490000000005,0,0
93,106,0,3189,4170.897,4182.821,4170.897,4175.0,4182.9490000000005,4181.795,4181.795,4181.154,4166.41,4181.154,4172.179,4168.59,4172.692,4171.795,0,0
94,107,0,2948,4165.897,4181.026,4169.231,4173.59,4186.026,4183.59,4182.0509999999995,4179.487,4173.462,4183.718,4170.769,4160.641,4173.205,4165.385,0,0
95,108,0,2655,4157.9490000000005,4173.974,4168.462,4175.385,4182.692,4182.436,4176.41,4181.538,4173.077,4179.615,4178.205,4155.255999999999,4180.128,4165.641,0,0
96,109,0,3244,4158.718,4171.667,4169.615,4181.41,4177.179,4175.385,4169.744000000001,4184.359,4172.0509999999995,4175.769,4176.795,4158.974,4176.795,4166.538,0,0
97,110,0,3189,4168.462,4175.385,4171.923,4186.154,4176.41,4171.41,4170.641,4185.255999999999,4177.179,4179.615,4171.923,4166.282,4170.769,4166.923,0,0
98,111,0,2948,4170.128,4171.795,4171.538,4179.359,4173.333,4172.436,4170.769,4183.59,4176.026,4183.846,4175.641,4163.974,4171.154,4168.974,0,0
99,112,0,2655,4166.154,4167.9490000000005,4173.333,4174.359,4169.103,4171.795,4166.795,4176.538,4171.282,4179.872,4176.667,4161.667,4175.897,4169.744000000001,0,0
100,113,0,3244,4171.282,4179.487,4178.718,4182.821,4172.436,4171.538,4167.308,4168.718,4171.667,4174.359,4172.179,4167.9490000000005,4180.385,4169.487,0,0
101,114,0,3189,4175.897,4187.564,4176.026,4183.846,4174.103,4172.821,4170.769,4168.718,4171.795,4172.9490000000005,4172.0509999999995,4166.795,4178.077,4170.513,0,0
102,115,0,2948,4166.154,4176.154,4168.59,4174.103,4169.872,4173.59,4172.179,4169.872,4170.255999999999,4169.359,4172.308,4155.513,4171.026,4168.718,0,0
103,116,0,2655,4157.692,4171.154,4168.974,4174.744000000001,4171.923,4178.205,4176.41,4168.718,4172.564,4166.41,4170.128,4153.59,4170.385,4166.282,0,0
104,117,0,3244,4159.359,4180.897,4170.769,4182.564,4176.154,4184.103,4183.718,4169.103,4173.205,4168.974,4170.897,4158.846,4173.846,4167.9490000000005,0,0
105,118,0,3189,4162.179,4182.436,4168.974,4179.872,4175.769,4185.897,4189.103,4169.487,4171.923,4170.897,4168.333,4156.538,4176.41,4165.385,0,0
106,119,0,2948,4156.538,4174.615,4167.9490000000005,4174.103,4174.744000000001,4184.872,4185.769,4169.487,4173.462,4167.179,4159.872,4152.308,4174.872,4155.641,0,0
107,120,0,2655,4153.205,4170.513,4168.205,4172.436,4171.026,4180.0,4176.026,4169.359,4172.308,4165.255999999999,4157.436,4150.897,4169.103,4153.462,0,0
108,121,0,3244,4160.641,4171.538,4169.487,4172.9490000000005,4169.103,4175.897,4173.077,4168.59,4169.231,4169.359,4164.615,4153.59,4168.846,4158.462,0,0
109,122,0,3189,4167.436,4174.487,4170.897,4176.154,4170.128,4174.231,4176.538,4169.744000000001,4170.255999999999,4171.538,4169.744000000001,4156.154,4175.513,4159.231,0,0
110,123,0,2948,4167.821,4173.205,4172.308,4176.282,4169.359,4173.462,4173.846,4169.744000000001,4171.667,4170.769,4169.487,4157.692,4181.282,4162.179,0,0
111,124,0,2655,4168.462,4170.513,4176.923,4176.538,4171.795,4177.564,4169.615,4168.333,4170.385,4174.359,4169.615,4165.0,4183.333,4171.154,0,0
112,125,0,3244,4173.974,4177.0509999999995,4183.59,4181.026,4175.513,4180.641,4172.692,4173.333,4171.154,4182.179,4175.128,4172.0509999999995,4184.487,4174.487,0,0
113,126,0,3189,4177.692,4184.615,4183.846,4186.538,4175.0,4181.026,4175.255999999999,4184.359,4174.231,4185.897,4184.872,4173.718,4187.436,4173.205,0,0
114,127,0,52,4174.231,4178.077,4175.255999999999,4183.077,4176.41,4181.667,4173.974,4187.179,4175.128,4183.718,4184.231,4169.872,4188.718,4173.974,0,0
115,0,0,2632,4165.769,4170.385,4168.462,4173.974,4177.0509999999995,4178.077,4173.205,4178.462,4174.103,4180.897,4173.333,4161.154,4186.026,4172.0509999999995,0,0
116,1,0,2023,4159.359,4173.077,4168.718,4172.821,4172.0509999999995,4170.255999999999,4172.692,4172.564,4172.564,4175.128,4170.641,4154.487,4185.897,4169.359,0,0
117,2,0,3434,4160.0,4172.308,4169.359,4178.077,4170.897,4168.718,4171.538,4166.923,4171.026,4168.205,4171.026,4152.9490000000005,4180.128,4164.872,0,0
118,3,0,3382,4166.923,4170.769,4171.026,4183.59,4176.923,4172.692,4170.769,4160.255999999999,4168.846,4170.769,4166.282,4153.974,4171.026,4158.718,0,0
119,4,0,3019,4170.255999999999,4177.821,4173.462,4185.897,4182.436,4172.436,4172.179,4161.154,4169.487,4177.308,4166.538,4155.128,4173.205,4157.308,0,0
120,5,0,2626,4162.564,4176.667,4171.282,4183.205,4180.897,4172.308,4167.9490000000005,4161.667,4168.846,4175.128,4170.513,4151.538,4175.897,4155.128,0,0
121,6,0,2557,4160.769,4169.872,4168.077,4181.41,4173.205,4170.769,4158.718,4154.103,4162.308,4166.538,4167.821,4144.359,4170.128,4151.282,0,0
122,7,0,3033,4169.872,4178.59,4171.282,4183.718,4168.846,4167.821,4153.205,4150.0,4161.026,4163.974,4166.667,4148.718,4167.9490000000005,4157.692,0,0
123,8,0,2478,4176.41,4190.769,4179.872,4186.154,4171.667,4167.564,4154.872,4161.282,4168.974,4175.255999999999,4172.821,4165.0,4173.718,4171.026,0,0
124,9,0,3498,4174.615,4188.974,4182.308,4186.154,4171.795,4167.821,4160.897,4170.0,4171.154,4182.436,4173.462,4173.462,4176.41,4172.564,0,0
125,10,0,3189,4172.308,4184.872,4177.0509999999995,4187.179,4169.487,4169.487,4168.333,4164.487,4168.462,4176.282,4170.641,4166.795,4176.282,4168.333,0,0
126,11,0,2948,4170.897,4185.513,4173.077,4186.795,4171.667,4171.923,4173.077,4156.667,4170.0,4176.026,4171.667,4157.9490000000005,4173.462,4168.974,0,0
127,12,0,2644,4167.308,4183.846,4171.795,4184.103,4172.436,4172.821,4171.923,4155.769,4169.872,4182.692,4172.692,4158.59,4170.0,4168.59,0,0
128,13,0,3244,4168.333,4183.333,4171.154,4183.462,4170.769,4172.821,4169.872,4161.154,4168.462,4185.513,4171.923,4160.769,4175.0,4168.077,0,0
129,14,0,3189,4168.462,4179.872,4171.667,4183.718,4171.154,4172.9490000000005,4169.872,4166.538,4172.0509999999995,4183.846,4170.513,4155.385,4179.872,4167.179,0,0
130,15,0,2948,4166.538,4171.538,4170.255999999999,4181.154,4171.154,4172.308,4170.0,4169.103,4173.462,4174.744000000001,4170.128,4151.667,4175.641,4159.231,0,0
131,16,0,0,4167.0509999999995,4171.41,4169.872,4178.462,4169.231,4170.128,4170.513,4167.308,4170.641,4170.255999999999,4169.615,4153.333,4174.231,4154.872,0,0
132,17,0,0,4171.026,4179.615,4177.821,4180.385,4168.59,4170.128,4168.205,4168.846,4169.872,4182.0509999999995,4168.077,4154.487,4176.282,4163.846,0,0
133,18,0,0,4178.205,4182.692,4185.128,4184.231,4167.9490000000005,4170.897,4168.462,4171.795,4171.026,4185.385,4173.718,4158.846,4175.0,4171.923,0,0
134,19,0,0,4183.59,4184.103,4185.385,4186.154,4168.205,4171.795,4177.0509999999995,4171.026,4171.538,4176.282,4180.255999999999,4167.564,4177.0509999999995,4169.744000000001,0,0
135,20,0,0,4184.487,4192.692,4181.923,4187.821,4175.897,4176.667,4187.308,4175.513,4171.538,4183.205,4177.0509999999995,4173.205,4183.59,4172.308,0,0
136,21,0,0,4184.744000000001,4195.385,4176.154,4188.205,4182.9490000000005,4183.333,4189.103,4184.359,4172.308,4192.0509999999995,4175.769,4171.026,4184.359,4177.821,0,0
137,22,0,0,4184.487,4190.0,4172.436,4187.308,4183.462,4187.0509999999995,4187.9490000000005,4184.359,4175.0,4186.154,4185.255999999999,4169.231,4184.359,4174.231,0,0
138,23,0,0,4178.974,4188.59,4171.667,4185.385,4181.795,4182.821,4184.103,4175.897,4175.769,4185.385,4184.103,4167.9490000000005,4187.9490000000005,4170.255999999999,0,0
139,24,0,0,4173.205,4190.128,4170.897,4183.333,4178.59,4173.974,4174.359,4171.41,4172.9490000000005,4185.385,4173.333,4160.769,4185.128,4171.154,0,0
140,25,0,0,4172.308,4188.077,4167.564,4183.333,4174.103,4169.487,4167.308,4171.282,4168.462,4173.846,4171.41,4149.487,4176.026,4168.846,0,0
141,26,0,0,4169.872,4180.128,4161.923,4181.667,4171.282,4170.0,4166.538,4170.128,4163.077,4165.513,4167.436,4141.923,4170.385,4164.744000000001,0,0
142,27,0,0,4168.846,4176.667,4161.41,4179.103,4170.513,4167.436,4165.641,4167.9490000000005,4161.154,4167.821,4161.026,4144.872,4167.179,4167.179,0,0
143,28,0,0,4172.0509999999995,4181.667,4167.9490000000005,4178.462,4171.795,4167.436,4168.462,4166.667,4165.0,4167.0509999999995,4164.103,4150.897,4168.462,4169.615,0,0
144,29,0,0,4173.205,4185.897,4169.231,4180.769,4176.795,4177.9490000000005,4178.846,4173.205,4169.231,4163.718,4169.103,4151.923,4176.795,4166.923,0,0
145,30,0,0,4170.641,4184.487,4167.692,4180.128,4183.846,4186.154,4187.308,4182.564,4170.769,4172.179,4169.872,4151.026,4184.744000000001,4167.564,0,0
146,31,0,0,4169.231,4181.282,4170.385,4175.641,4184.231,4185.513,4187.308,4185.0,4172.179,4185.513,4170.128,4154.872,4185.641,4166.923,0,0
147,32,0,0,4166.538,4175.255999999999,4164.615,4171.538,4175.897,4182.564,4186.795,4185.0,4172.179,4187.821,4170.0,4151.538,4183.846,4158.846,0,0
148,33,0,0,4162.821,4171.667,4154.615,4170.128,4173.59,4183.333,4190.255999999999,4187.564,4171.026,4183.077,4170.128,4143.462,4185.385,4152.821,0,0
149,34,0,0,4162.564,4177.436,4159.615,4174.487,4182.9490000000005,4183.59,4190.513,4186.41,4173.333,4183.462,4169.359,4145.513,4187.0509999999995,4156.795,0,0
150,35,0,0,4167.0509999999995,4181.923,4169.231,4180.769,4186.154,4181.282,4186.41,4183.718,4176.667,4188.718,4166.923,4152.308,4186.282,4165.385,0,0
151,36,0,0,4175.255999999999,4182.436,4170.897,4182.564,4181.282,4177.692,4186.923,4186.923,4176.923,4191.667,4177.179,4160.769,4185.641,4175.385,0,0
152,37,0,0,4182.9490000000005,4184.359,4170.513,4179.615,4181.026,4172.821,4187.436,4188.974,4174.231,4189.615,4185.385,4169.103,4185.255999999999,4183.59,0,0
153,38,0,0,4184.487,4185.255999999999,4175.769,4180.0,4184.103,4175.0,4184.231,4185.641,4172.0509999999995,4183.59,4175.0,4170.641,4185.255999999999,4184.103,0,0
154,39,0,0,4185.128,4187.308,4183.846,4185.128,4184.872,4182.436,4183.333,4184.487,4174.615,4181.41,4169.872,4171.026,4185.897,4185.641,0,0
155,40,0,0,4193.205,4188.333,4188.462,4187.821,4184.615,4185.255999999999,4186.923,4188.205,4176.795,4187.692,4185.385,4179.615,4188.974,4194.103,0,0
156,41,0,0,4203.205,4187.179,4188.974,4188.974,4186.538,4182.821,4188.59,4188.59,4174.359,4198.846,4195.513,4186.667,4189.744000000001,4197.821,0,0
157,42,0,0,4199.615,4186.667,4187.9490000000005,4187.821,4183.974,4182.564,4188.59,4184.872,4171.795,4199.615,4191.667,4184.615,4186.538,4194.615,0,0
158,43,0,0,4191.026,4184.231,4185.255999999999,4185.897,4175.641,4182.436,4187.821,4183.718,4172.308,4188.718,4190.255999999999,4183.974,4182.821,4191.667,0,0
159,44,0,0,4190.641,4181.154,4184.231,4184.487,4177.692,4179.615,4185.769,4181.795,4173.333,4186.923,4189.615,4182.436,4181.282,4190.128,0,0
160,45,0,0,4191.538,4182.0509999999995,4181.923,4182.308,4184.359,4176.667,4183.077,4175.0,4172.308,4192.564,4187.692,4176.41,4184.744000000001,4188.205,0,0
161,46,0,0,4185.769,4184.744000000001,4175.385,4181.538,4176.923,4172.179,4176.795,4171.026,4169.615,4181.41,4183.846,4169.872,4183.462,4185.128,0,0
162,47,0,0,4183.59,4185.385,4175.641,4184.487,4169.744000000001,4171.795,4172.179,4171.923,4166.538,4168.205,4175.641,4167.692,4172.308,4182.308,0,0
163,48,0,0,4186.795,4181.923,4180.897,4186.026,4179.744000000001,4173.718,4174.231,4170.897,4166.282,4174.872,4171.41,4167.564,4170.0,4182.564,0,0
164,49,0,0,4185.641,4175.0,4177.9490000000005,4184.359,4184.487,4171.538,4178.59,4175.0,4169.231,4184.615,4175.897,4167.308,4180.128,4185.641,0,0
165,50,0,0,4180.513,4173.077,4171.282,4182.821,4175.255999999999,4171.41,4180.128,4178.718,4170.769,4185.255999999999,4174.744000000001,4165.513,4182.9490000000005,4183.462,0,0
166,51,0,0,4180.0,4177.9490000000005,4175.128,4183.846,4172.179,4178.59,4181.795,4173.59,4169.615,4183.846,4167.0509999999995,4164.487,4180.513,4179.872,0,0
167,52,0,0,4189.615,4182.821,4184.744000000001,4185.897,4177.564,4184.487,4185.769,4175.769,4170.641,4184.359,4178.718,4172.9490000000005,4186.41,4187.179,0,0
168,53,0,0,4197.436,4185.641,4189.231,4189.359,4179.744000000001,4182.179,4186.795,4188.462,4173.205,4193.205,4201.026,4185.513,4190.385,4200.513,0,0
169,54,0,0,4192.179,4182.308,4185.255999999999,4186.41,4176.282,4180.255999999999,4183.718,4192.308,4173.846,4200.0,4202.0509999999995,4188.59,4188.718,4200.641,0,0
170,55,0,0,4183.462,4171.154,4175.385,4175.513,4171.795,4179.103,4180.897,4186.154,4172.308,4190.897,4188.333,4181.154,4187.179,4187.308,0,0
171,56,0,0,4182.0509999999995,4166.154,4171.795,4173.846,4167.9490000000005,4173.205,4182.821,4184.872,4166.282,4181.923,4183.974,4172.179,4184.744000000001,4180.0,0,0
172,57,0,0,4185.385,4176.026,4177.436,4183.205,4172.436,4171.923,4184.744000000001,4183.718,4157.564,4181.923,4186.667,4169.103,4182.308,4183.846,0,0
173,58,0,0,4184.872,4184.615,4179.872,4185.255999999999,4182.436,4176.923,4183.974,4175.897,4155.513,4180.128,4185.255999999999,4171.41,4182.692,4186.026,0,0
174,59,0,0,4184.231,4185.385,4178.205,4183.846,4185.385,4176.154,4184.744000000001,4170.769,4160.255999999999,4180.769,4183.846,4172.179,4183.205,4183.846,0,0
175,60,0,0,4192.308,4192.179,4184.103,4190.128,4184.487,4171.923,4183.205,4170.769,4158.205,4186.795,4186.154,4171.154,4184.359,4188.333,0,0
176,61,0,0,4201.026,4197.9490000000005,4190.385,4192.692,4186.795,4174.872,4176.026,4171.026,4152.9490000000005,4187.821,4187.9490000000005,4174.103,4186.538,4194.359,0,0
177,62,0,0,4197.436,4191.41,4187.308,4186.667,4188.077,4179.103,4172.564,4171.154,4158.333,4185.769,4184.487,4172.564,4187.821,4189.872,0,0
178,63,0,0,4192.0509999999995,4186.154,4183.718,4185.385,4186.026,4176.154,4178.205,4180.255999999999,4168.205,4189.103,4186.154,4169.103,4190.513,4186.026,0,0
179,64,0,2632,4189.615,4188.077,4184.487,4186.923,4184.359,4172.564,4184.103,4188.077,4171.667,4190.0,4193.205,4175.128,4192.821,4193.333,0,0
180,65,0,2020,4187.0509999999995,4185.0,4184.872,4184.487,4182.0509999999995,4176.154,4185.255999999999,4186.923,4168.59,4188.205,4191.923,4184.231,4193.974,4198.974,0,0
181,66,0,3434,4190.769,4182.308,4188.462,4182.9490000000005,4182.436,4185.128,4187.692,4191.923,4169.359,4193.077,4191.41,4187.692,4198.462,4197.0509999999995,0,0
182,67,0,3382,4194.103,4182.0509999999995,4191.282,4187.564,4182.436,4187.692,4189.103,4201.282,4176.282,4203.59,4201.667,4189.872,4201.026,4199.231,0,0
183,68,0,3019,4189.744000000001,4177.0509999999995,4188.974,4188.974,4179.744000000001,4184.615,4188.846,4203.205,4179.103,4206.026,4201.923,4190.0,4199.103,4199.744000000001,0,0
184,69,0,2626,4189.615,4177.179,4185.641,4180.385,4182.0509999999995,4184.872,4190.641,4198.59,4174.872,4199.487,4187.692,4186.026,4197.692,4193.59,0,0
185,70,0,2557,4192.564,4182.821,4185.385,4176.923,4184.615,4184.487,4190.255999999999,4191.026,4171.41,4196.795,4183.974,4185.385,4194.872,4190.0,0,0
186,71,0,3033,4187.564,4183.59,4185.769,4181.41,4180.769,4181.41,4182.9490000000005,4182.308,4171.538,4193.59,4187.308,4181.795,4186.923,4190.385,0,0
187,72,0,2478,4183.846,4183.59,4184.615,4183.205,4183.974,4181.923,4176.154,4182.179,4171.154,4187.0509999999995,4183.462,4173.974,4184.231,4188.718,0,0
188,73,0,3490,4183.718,4186.154,4184.615,4185.513,4194.744000000001,4183.974,4172.692,4181.795,4170.897,4185.385,4181.026,4171.923,4187.0509999999995,4185.641,0,0
189,74,0,3188,4179.615,4187.9490000000005,4184.872,4188.462,4194.615,4183.205,4171.667,4170.513,4168.205,4182.821,4186.154,4172.179,4182.564,4184.872,0,0
190,75,0,2947,4178.462,4182.692,4183.59,4186.154,4187.0509999999995,4179.872,4173.205,4166.026,4161.026,4179.231,4183.846,4171.41,4173.462,4184.872,0,0
191,76,0,2644,4180.769,4173.59,4182.436,4183.333,4182.9490000000005,4176.538,4171.923,4168.077,4154.359,4178.077,4168.846,4170.769,4167.821,4184.103,0,0
192,77,0,3244,4181.026,4173.333,4182.436,4185.385,4182.308,4178.333,4172.692,4167.0509999999995,4152.0509999999995,4176.154,4168.846,4170.897,4167.0509999999995,4184.103,0,0
193,78,0,3188,4183.846,4183.462,4184.872,4187.308,4182.9490000000005,4184.487,4183.077,4172.179,4159.744000000001,4176.923,4184.744000000001,4175.513,4174.615,4186.923,0,0
194,79,0,2947,4195.128,4186.923,4190.0,4188.205,4183.205,4187.564,4190.769,4181.795,4171.026,4185.769,4190.128,4183.718,4183.205,4196.667,0,0
195,80,0,2644,4203.077,4181.282,4192.308,4188.333,4182.821,4185.769,4186.667,4185.769,4173.205,4190.128,4185.385,4188.846,4185.385,4199.359,0,0
196,81,0,3244,4198.205,4182.564,4190.897,4187.436,4181.795,4183.077,4181.923,4181.923,4170.769,4188.59,4189.359,4186.923,4185.641,4190.641,0,0
197,82,0,3188,4187.179,4184.103,4185.641,4187.179,4182.9490000000005,4182.179,4180.128,4174.103,4169.487,4184.231,4186.41,4176.923,4183.974,4183.718,0,0
198,83,0,2947,4175.641,4175.255999999999,4174.487,4184.103,4184.487,4182.436,4178.205,4167.9490000000005,4164.872,4170.128,4173.59,4165.897,4173.205,4179.872,0,0
199,84,1,2981,4177.0509999999995,4174.744000000001,4175.769,4184.103,4182.9490000000005,4181.795,4179.103,4170.513,4166.667,4172.308,4175.641,4167.0509999999995,4174.872,4180.641,0,0
200,85,1,3015,4178.462,4174.231,4177.0509999999995,4184.103,4181.41,4181.154,4180.0,4173.077,4168.462,4174.487,4177.692,4168.205,4176.538,4181.41,0,0
201,86,1,3049,4179.872,4173.718,4178.333,4184.103,4179.872,4180.513,4180.897,4175.641,4170.255999999999,4176.667,4179.744000000001,4169.359,4178.205,4182.179,0,0
202,87,1,3083,4181.282,4173.205,4179.615,4184.103,4178.333,4179.872,4181.795,4178.205,4172.0509999999995,4178.846,4181.795,4170.513,4179.872,4182.9490000000005,0,0
203,88,1,3117,4182.692,4172.692,4180.897,4184.103,4176.795,4179.231,4182.692,4180.769,4173.846,4181.026,4183.846,4171.667,4181.538,4183.718,0,0
204,89,1,3151,4184.103,4172.179,4182.179,4184.103,4175.255999999999,4178.59,4183.59,4183.333,4175.641,4183.205,4185.897,4172.821,4183.205,4184.487,0,0
205,90,0,3188,4185.897,4171.282,4183.462,4184.615,4173.205,4177.9490000000005,4184.615,4186.538,4178.205,4185.897,4188.077,4174.615,4185.641,4186.026,0,0
206,91,0,2947,4185.769,4171.667,4186.795,4184.359,4177.179,4173.333,4174.231,4187.692,4177.0509999999995,4184.615,4184.103,4175.128,4185.255999999999,4187.692,0,0
207,92,0,2644,4174.231,4168.59,4180.255999999999,4178.205,4182.821,4170.641,4168.974,4182.9490000000005,4170.641,4184.615,4174.487,4170.641,4183.846,4181.538,0,0
208,93,0,3244,4171.795,4170.128,4179.231,4180.897,4184.487,4175.897,4177.692,4176.41,4170.0,4183.59,4181.41,4167.692,4182.9490000000005,4182.564,0,0
209,94,0,3188,4176.538,4172.9490000000005,4181.026,4185.255999999999,4185.513,4181.41,4184.487,4172.0509999999995,4170.0,4185.641,4186.667,4167.821,4182.9490000000005,4183.59,0,0
210,95,0,2947,4173.462,4166.667,4175.513,4177.564,4182.308,4183.974,4183.077,4170.897,4166.923,4181.282,4173.333,4168.59,4176.667,4174.359,0,0
211,96,0,2644,4170.641,4162.692,4171.026,4175.128,4173.718,4183.846,4182.564,4171.282,4165.513,4170.128,4165.641,4166.923,4171.923,4169.744000000001,0,0
212,97,0,3244,4170.513,4167.9490000000005,4173.205,4183.718,4174.872,4182.436,4183.077,4170.385,4167.436,4172.564,4172.0509999999995,4158.462,4172.179,4172.179,0,0
213,98,0,3188,4168.205,4169.487,4173.846,4184.744000000001,4183.205,4181.026,4183.974,4169.103,4170.385,4180.513,4172.9490000000005,4150.385,4173.077,4169.359,0,0
214,99,0,2947,4174.872,4169.231,4174.231,4183.718,4183.974,4178.462,4181.795,4176.282,4170.128,4174.231,4166.795,4157.436,4174.487,4172.692,0,0
215,100,0,2644,4181.795,4171.923,4179.231,4186.282,4182.9490000000005,4172.821,4172.436,4186.026,4167.436,4165.897,4168.59,4170.0,4173.462,4184.103,0,0
216,101,0,3244,4177.564,4170.128,4180.641,4178.846,4183.077,4172.0509999999995,4164.487,4182.564,4168.846,4168.974,4178.462,4170.513,4173.333,4185.513,0,0
217,102,0,3188,4177.308,4167.564,4178.205,4175.897,4181.923,4172.308,4166.538,4173.718,4171.282,4176.41,4184.359,4166.538,4181.026,4182.436,0,0
218,103,0,2947,4181.923,4172.0509999999995,4176.41,4186.538,4185.128,4171.795,4169.744000000001,4172.179,4172.308,4184.872,4185.255999999999,4169.744000000001,4186.282,4181.538,0,0
219,104,0,2644,4175.255999999999,4171.026,4173.077,4183.59,4181.923,4178.462,4170.513,4170.255999999999,4173.59,4184.744000000001,4183.205,4171.41,4181.538,4178.462,0,0
220,105,0,3244,4167.436,4164.359,4171.154,4171.538,4172.9490000000005,4184.359,4176.41,4167.821,4174.359,4177.9490000000005,4180.897,4168.205,4177.436,4175.385,0,0
221,106,0,3188,4172.9490000000005,4167.692,4173.462,4170.897,4178.077,4182.436,4186.41,4172.0509999999995,4175.128,4185.0,4182.179,4170.513,4183.333,4177.179,0,0
222,107,0,2947,4174.103,4173.077,4174.487,4175.255999999999,4182.821,4177.821,4190.385,4172.692,4175.769,4191.282,4178.462,4169.359,4187.564,4174.872,0,0
223,108,0,2644,4166.923,4169.103,4170.513,4174.615,4171.538,4173.462,4182.692,4167.821,4172.436,4182.692,4168.462,4158.077,4178.846,4166.154,0,0
224,109,0,3244,4166.026,4165.641,4169.744000000001,4173.59,4166.282,4170.897,4172.821,4168.846,4170.128,4179.744000000001,4168.205,4150.641,4176.026,4162.0509999999995,0,0
225,110,0,3188,4167.0509999999995,4168.59,4170.769,4173.333,4169.872,4169.103,4169.103,4170.769,4172.9490000000005,4184.744000000001,4173.205,4153.718,4182.564,4164.872,0,0
226,111,0,2947,4162.0509999999995,4168.59,4170.255999999999,4170.513,4164.615,4166.41,4167.0509999999995,4168.462,4172.436,4178.846,4168.333,4156.667,4177.308,4169.359,0,0
227,112,0,2644,4155.513,4166.154,4165.128,4168.718,4161.923,4166.41,4165.255999999999,4167.821,4166.667,4168.846,4164.231,4150.769,4168.205,4165.385,0,0
228,113,0,3244,4154.872,4163.59,4158.462,4171.795,4164.872,4170.641,4166.026,4165.128,4165.769,4168.462,4166.282,4143.205,4170.128,4156.154,0,0
229,114,0,3188,4153.59,4157.436,4156.282,4171.795,4165.0,4172.179,4171.154,4161.154,4168.59,4168.974,4166.154,4139.231,4172.692,4153.462,0,0
230,115,0,2947,4147.308,4153.718,4155.385,4165.513,4163.718,4173.974,4178.718,4162.179,4168.718,4171.667,4164.615,4137.9490000000005,4170.769,4153.718,0,0
231,116,0,2644,4146.538,4153.333,4155.897,4164.744000000001,4164.103,4176.667,4183.462,4168.077,4169.615,4181.538,4165.128,4140.897,4172.0509999999995,4151.282,0,0
232,117,0,3244,4152.436,4153.462,4164.231,4170.385,4167.692,4178.974,4184.359,4171.154,4172.436,4188.077,4170.641,4149.103,4177.179,4153.59,0,0
233,118,0,3188,4155.641,4160.385,4171.538,4171.538,4169.359,4181.538,4183.846,4171.923,4171.923,4184.615,4175.128,4158.333,4183.205,4165.255999999999,0,0
234,119,0,2947,4158.462,4169.103,4168.462,4174.231,4168.077,4178.077,4178.718,4176.282,4173.846,4182.179,4172.308,4159.487,4183.846,4171.795,0,0
235,120,0,2644,4169.744000000001,4169.103,4170.641,4181.667,4170.513,4173.333,4170.513,4183.333,4182.821,4185.641,4173.205,4156.795,4182.692,4169.615,0,0
236,121,0,3244,4178.974,4172.821,4179.103,4185.128,4174.487,4175.255999999999,4170.641,4188.462,4188.462,4189.103,4184.487,4163.718,4188.333,4170.0,0,0
237,122,0,3188,4173.974,4178.718,4176.41,4185.255999999999,4173.718,4176.282,4172.9490000000005,4183.462,4181.538,4183.59,4187.0509999999995,4168.333,4186.41,4170.385,0,0
238,123,0,2947,4169.103,4175.128,4173.59,4184.744000000001,4176.667,4175.641,4169.487,4171.538,4170.0,4171.923,4174.872,4160.641,4173.333,4168.462,0,0
239,124,0,2644,4175.769,4176.026,4181.026,4182.821,4185.0,4182.9490000000005,4173.846,4167.692,4166.538,4169.487,4166.667,4158.974,4168.59,4167.821,0,0
240,125,0,3244,4185.255999999999,4186.026,4185.128,4183.718,4187.564,4189.487,4185.641,4171.154,4169.744000000001,4172.436,4170.897,4168.846,4170.897,4169.231,0,0
241,126,0,3188,4190.255999999999,4188.718,4185.128,4187.0509999999995,4185.513,4188.077,4191.41,4171.026,4170.255999999999,4173.205,4179.744000000001,4174.487,4169.872,4176.154,0,0
242,127,0,52,4190.385,4188.718,4187.821,4187.308,4188.333,4187.308,4190.513,4171.538,4171.154,4178.333,4185.128,4173.462,4173.846,4183.846,0,0
243,0,0,2632,4188.974,4193.205,4188.846,4187.9490000000005,4196.667,4188.205,4187.821,4180.897,4179.103,4185.385,4185.897,4171.795,4183.718,4185.0,0,0
244,1,0,2025,4188.205,4191.795,4187.821,4190.255999999999,4200.641,4188.59,4182.179,4187.564,4185.385,4185.641,4187.0509999999995,4175.385,4187.821,4185.0,0,0
245,2,0,3434,4187.308,4185.0,4187.308,4188.846,4197.821,4186.41,4174.615,4186.026,4184.231,4187.821,4186.923,4182.179,4185.385,4185.897,0,0
246,3,0,3384,4188.333,4184.103,4185.897,4186.41,4200.513,4183.462,4171.923,4186.41,4184.487,4195.255999999999,4186.795,4181.667,4184.872,4184.872,0,0
247,4,0,3019,4189.744000000001,4185.385,4185.0,4186.026,4199.231,4182.308,4172.564,4186.795,4182.436,4191.282,4187.564,4178.59,4183.974,4185.0,0,0
248,5,0,2626,4188.333,4185.255999999999,4185.769,4186.154,4186.667,4182.0509999999995,4173.333,4182.564,4174.103,4178.974,4186.538,4181.154,4180.0,4186.41,0,0
249,6,0,2557,4191.667,4184.744000000001,4186.41,4187.692,4188.333,4184.231,4177.436,4183.333,4175.769,4181.538,4185.897,4183.077,4181.41,4186.282,0,0
250,7,0,3033,4197.0509999999995,4184.103,4187.436,4186.154,4199.359,4186.923,4183.846,4189.359,4185.897,4194.487,4187.692,4179.103,4188.077,4189.231,0,0
251,8,0,2478,4191.282,4184.872,4188.59,4183.846,4195.128,4187.9490000000005,4186.923,4190.255999999999,4187.821,4198.718,4187.308,4173.846,4190.641,4186.154,0,0
252,9,0,3489,4180.513,4182.821,4183.846,4184.615,4185.128,4186.538,4185.897,4185.641,4185.769,4197.692,4180.897,4164.744000000001,4186.795,4172.564,0,0
253,10,0,3188,4173.59,4173.205,4175.255999999999,4178.462,4186.026,4185.769,4185.769,4184.744000000001,4185.769,4196.41,4174.615,4154.615,4185.769,4166.923,0,0
254,11,0,2947,4168.333,4168.077,4168.718,4169.615,4189.103,4185.385,4187.308,4181.026,4181.795,4193.974,4175.641,4156.795,4187.692,4171.154,0,0
255,12,0,2657,4171.795,4175.513,4169.744000000001,4175.897,4187.564,4182.436,4182.821,4174.231,4180.641,4194.872,4183.205,4164.872,4187.9490000000005,4173.462,0,0
256,13,0,3252,4183.718,4186.667,4179.103,4188.077,4188.974,4177.564,4174.103,4176.667,4188.333,4202.0509999999995,4190.0,4173.59,4193.462,4178.718,0,0
257,14,0,3188,4187.308,4191.538,4185.128,4188.205,4188.462,4175.128,4169.487,4182.692,4187.821,4203.205,4186.667,4180.513,4196.282,4188.462,0,0
258,15,0,2947,4183.974,4188.59,4182.564,4184.103,4184.872,4178.462,4168.974,4183.077,4181.41,4192.308,4180.897,4179.359,4188.974,4185.0,0,0
259,16,0,0,4187.308,4184.487,4182.308,4185.0,4192.9490000000005,4182.436,4172.692,4181.923,4185.0,4185.641,4185.513,4173.846,4185.897,4176.41,0,0
260,17,0,0,4187.0509999999995,4184.359,4183.205,4183.333,4200.255999999999,4184.615,4180.0,4183.846,4185.385,4188.205,4188.718,4173.462,4188.974,4177.308,0,0
261,18,0,0,4176.41,4183.846,4174.744000000001,4181.154,4188.974,4185.769,4185.0,4184.359,4177.436,4186.282,4182.564,4171.667,4185.641,4176.538,0,0
262,19,0,0,4174.487,4182.179,4169.359,4183.462,4186.795,4185.769,4187.179,4183.333,4177.692,4180.897,4180.897,4165.0,4182.0509999999995,4172.436,0,0
263,20,0,0,4184.487,4184.359,4177.9490000000005,4187.179,4201.282,4186.923,4190.641,4184.231,4186.282,4187.0509999999995,4183.333,4165.897,4185.897,4175.385,0,0
264,21,0,0,4186.795,4186.667,4185.897,4187.436,4197.436,4186.41,4190.0,4182.308,4186.154,4189.615,4174.103,4168.205,4185.897,4178.59,0,0
265,22,0,0,4183.077,4186.667,4183.59,4186.667,4183.718,4184.231,4181.538,4179.744000000001,4179.231,4180.513,4168.462,4164.615,4182.179,4175.385,0,0
266,23,0,0,4180.769,4183.462,4176.667,4185.0,4186.667,4183.077,4174.872,4181.154,4177.436,4182.564,4176.282,4160.385,4185.128,4174.487,0,0
267,24,0,0,4172.821,4173.718,4171.026,4181.282,4189.359,4183.462,4175.385,4180.513,4177.308,4183.718,4176.923,4155.255999999999,4184.615,4172.9490000000005,0,0
268,25,0,0,4167.436,4168.077,4169.872,4180.0,4186.026,4182.564,4180.641,4174.359,4178.077,4173.205,4171.795,4155.385,4175.128,4168.333,0,0
269,26,0,0,4172.0509999999995,4171.923,4173.077,4181.41,4185.769,4180.897,4183.333,4171.538,4177.179,4175.385,4172.436,4162.564,4169.231,4169.359,0,0
270,27,0,0,4175.385,4173.974,4178.333,4180.897,4184.103,4181.538,4182.564,4171.538,4174.487,4183.846,4171.41,4170.0,4171.154,4172.308,0,0
271,28,0,0,4176.026,4170.897,4182.308,4180.0,4182.821,4183.333,4184.487,4168.462,4172.436,4176.282,4172.564,4173.718,4173.205,4172.436,0,0
272,29,0,0,4176.667,4169.744000000001,4184.744000000001,4181.026,4184.103,4185.128,4186.795,4168.462,4172.9490000000005,4171.538,4178.718,4173.59,4173.974,4171.795,0,0
273,30,0,0,4173.974,4169.744000000001,4182.308,4181.026,4185.255999999999,4186.795,4187.564,4170.0,4174.231,4177.436,4176.667,4172.821,4174.231,4173.205,0,0
274,31,0,0,4168.846,4167.821,4173.718,4176.923,4183.974,4186.538,4186.923,4167.308,4171.154,4170.513,4167.9490000000005,4167.9490000000005,4170.769,4169.872,0,0
275,32,0,0,4166.667,4166.795,4168.462,4172.0509999999995,4181.154,4182.308,4180.128,4167.179,4170.255999999999,4165.255999999999,4169.487,4162.308,4169.231,4164.744000000001,0,0
276,33,0,0,4168.077,4166.795,4171.538,4174.872,4180.0,4174.744000000001,4170.385,4170.255999999999,4171.923,4176.154,4173.205,4164.615,4172.564,4166.41,0,0
277,34,0,0,4171.538,4171.795,4175.0,4183.462,4182.692,4171.795,4167.821,4170.769,4173.205,4180.641,4169.487,4170.0,4173.718,4170.385,0,0
278,35,0,0,4176.026,4182.564,4174.615,4182.308,4185.513,4176.795,4171.795,4168.333,4173.59,4172.692,4167.9490000000005,4166.667,4172.179,4169.103,0,0
279,36,0,0,4174.487,4184.872,4174.487,4177.564,4185.385,4180.769,4172.308,4160.513,4171.026,4168.333,4167.821,4157.308,4170.641,4166.282,0,0
280,37,0,0,4173.462,4175.255999999999,4174.103,4183.59,4183.846,4176.41,4170.128,4154.744000000001,4167.0509999999995,4168.333,4168.846,4152.308,4170.513,4168.846,0,0
281,38,0,0,4178.59,4174.744000000001,4173.718,4184.231,4183.333,4170.0,4169.744000000001,4161.795,4168.718,4169.103,4170.385,4157.308,4172.9490000000005,4172.308,0,0
282,39,0,0,4178.718,4180.128,4174.872,4174.231,4183.846,4168.59,4170.128,4170.513,4173.974,4174.231,4169.872,4168.077,4175.769,4169.744000000001,0,0
283,40,0,0,4171.538,4177.692,4175.385,4173.59,4185.769,4169.872,4171.41,4170.641,4174.487,4180.769,4176.026,4172.0509999999995,4175.641,4169.103,0,0
284,41,0,0,4170.513,4177.9490000000005,4175.128,4179.872,4186.154,4169.487,4171.538,4171.026,4173.846,4184.359,4186.923,4169.744000000001,4172.564,4179.487,0,0
285,42,0,0,4172.9490000000005,4175.385,4172.692,4173.462,4183.462,4167.308,4169.872,4172.692,4175.513,4185.769,4189.231,4170.513,4166.41,4183.974,0,0
286,43,0,0,4168.718,4166.282,4169.359,4166.538,4181.667,4166.41,4169.231,4171.667,4174.231,4185.385,4180.769,4171.538,4158.846,4173.205,0,0
287,44,0,0,4169.231,4174.103,4170.641,4175.255999999999,4183.974,4169.615,4170.128,4170.255999999999,4170.769,4181.026,4174.487,4166.026,4154.615,4168.205,0,0
288,45,0,0,4170.897,4185.897,4174.615,4182.564,4185.641,4173.205,4171.923,4166.538,4168.974,4175.641,4170.897,4158.59,4154.487,4166.795,0,0
289,46,0,0,4159.872,4175.385,4165.769,4174.615,4181.41,4171.667,4172.179,4163.974,4169.487,4172.821,4167.0509999999995,4148.205,4154.359,4154.487,0,0
290,47,0,0,4146.154,4163.333,4151.154,4165.0,4178.077,4170.641,4169.487,4165.897,4168.077,4168.462,4164.359,4136.538,4152.692,4144.231,0,0
291,48,0,0,4148.59,4168.333,4157.179,4173.462,4180.769,4177.9490000000005,4170.0,4168.077,4169.615,4171.795,4165.255999999999,4140.128,4152.821,4149.359,0,0
292,49,0,0,4161.538,4174.359,4173.205,4183.205,4183.846,4186.154,4177.821,4174.872,4178.462,4185.385,4177.0509999999995,4156.282,4159.744000000001,4159.103,0,0
293,50,0,0,4162.564,4168.718,4173.077,4175.897,4183.846,4187.692,4182.564,4184.103,4187.0509999999995,4189.872,4181.667,4158.59,4169.231,4158.205,0,0
294,51,0,0,4152.436,4155.128,4165.128,4166.795,4178.077,4183.718,4181.41,4188.974,4191.667,4187.0509999999995,4174.487,4150.255999999999,4170.0,4151.282,0,0
295,52,0,0,4152.564,4151.154,4168.59,4168.205,4175.385,4185.641,4188.718,4196.154,4198.718,4196.41,4177.821,4158.59,4172.821,4157.692,0,0
296,53,0,0,4164.359,4163.846,4173.077,4176.795,4182.821,4194.359,4202.0509999999995,4205.897,4204.359,4206.795,4191.026,4172.821,4185.128,4172.564,0,0
297,54,0,0,4171.026,4170.769,4173.077,4181.795,4190.255999999999,4195.255999999999,4201.667,4202.179,4198.718,4206.538,4192.821,4172.821,4184.872,4173.333,0,0
298,55,0,0,4171.538,4171.282,4177.692,4182.0509999999995,4187.692,4187.308,4189.872,4189.103,4187.0509999999995,4198.59,4184.359,4167.9490000000005,4170.255999999999,4167.821,0,0
299,56,0,0,4173.333,4179.744000000001,4182.692,4183.59,4186.026,4183.462,4184.615,4185.513,4180.641,4184.615,4182.0509999999995,4168.205,4164.872,4169.872,0,0
300,57,0,0,4172.9490000000005,4183.333,4184.615,4186.282,4188.718,4185.255999999999,4185.897,4187.436,4180.385,4180.641,4186.282,4172.308,4168.718,4170.255999999999,0,0
301,58,0,0,4171.154,4175.897,4182.308,4182.821,4186.538,4185.128,4187.692,4186.538,4181.795,4188.333,4181.538,4167.821,4168.462,4168.59,0,0
302,59,0,0,4171.154,4170.897,4174.359,4176.538,4182.564,4185.255999999999,4190.0,4186.154,4181.795,4185.897,4169.872,4157.692,4167.821,4167.564,0,0
303,60,0,0,4171.41,4171.154,4169.103,4174.615,4180.255999999999,4186.795,4189.615,4187.564,4184.103,4185.128,4173.333,4158.846,4168.59,4166.923,0,0
304,61,0,0,4171.282,4170.897,4170.897,4173.205,4182.0509999999995,4185.513,4187.179,4187.821,4187.692,4199.615,4187.308,4168.462,4171.795,4169.744000000001,0,0
305,62,0,0,4171.026,4169.872,4171.41,4171.41,4182.564,4182.9490000000005,4185.897,4187.179,4188.718,4205.641,4187.436,4168.205,4178.974,4170.769,0,0
306,63,0,0,4170.128,4168.462,4169.487,4169.744000000001,4174.231,4181.538,4183.59,4186.923,4187.564,4198.59,4180.385,4165.641,4183.59,4166.41,0,0
307,64,0,2633,4166.538,4167.308,4171.154,4168.974,4167.308,4181.795,4183.333,4185.513,4187.9490000000005,4199.359,4184.487,4167.0509999999995,4183.718,4166.282,0,0
308,65,0,2025,4160.641,4166.538,4170.641,4171.154,4169.872,4180.513,4186.667,4184.615,4186.923,4200.769,4184.359,4160.769,4182.692,4166.154,0,0
309,66,0,3435,4157.9490000000005,4166.154,4168.59,4172.436,4172.179,4180.897,4188.462,4184.744000000001,4182.9490000000005,4189.872,4173.333,4152.821,4183.333,4157.692,0,0
310,67,0,3384,4156.923,4169.231,4167.9490000000005,4171.154,4169.231,4185.255999999999,4188.846,4185.255999999999,4182.9490000000005,4184.615,4169.359,4153.846,4182.564,4152.564,0,0
311,68,0,3019,4152.564,4165.255999999999,4164.487,4171.154,4173.077,4186.026,4189.744000000001,4185.128,4185.255999999999,4187.179,4173.59,4152.564,4175.769,4154.359,0,0
312,69,0,2626,4149.487,4156.282,4162.308,4172.308,4181.667,4182.9490000000005,4188.846,4183.718,4182.308,4179.231,4170.513,4147.0509999999995,4169.487,4151.795,0,0
313,70,0,2557,4151.538,4160.897,4166.282,4174.872,4182.308,4183.333,4188.077,4184.744000000001,4180.128,4175.385,4166.923,4150.641,4169.615,4151.795,0,0
314,71,0,3033,4152.692,4171.538,4169.359,4175.897,4182.436,4182.179,4188.205,4187.0509999999995,4183.718,4187.0509999999995,4173.205,4157.564,4170.128,4156.795,0,0
315,72,0,2478,4151.026,4166.795,4164.615,4172.564,4181.41,4176.795,4186.41,4183.718,4182.0509999999995,4191.41,4172.179,4148.718,4167.821,4155.641,0,0
316,73,0,3488,4150.513,4155.0,4161.923,4170.641,4175.0,4173.59,4185.641,4181.41,4177.821,4183.718,4165.128,4138.59,4167.821,4151.538,0,0
317,74,0,3188,4150.897,4155.769,4166.538,4171.282,4168.718,4173.974,4185.769,4185.128,4180.128,4181.154,4164.103,4143.846,4164.231,4151.538,0,0
318,75,0,2948,4154.615,4165.255999999999,4169.615,4170.641,4169.103,4177.436,4184.487,4188.718,4182.821,4181.795,4168.333,4153.718,4158.974,4157.564,0,0
319,76,0,2656,4163.077,4168.846,4173.333,4173.205,4175.0,4183.462,4184.872,4194.872,4184.231,4182.0509999999995,4176.282,4165.385,4161.923,4167.9490000000005,0,0
320,77,0,3250,4171.667,4169.872,4181.154,4180.128,4182.436,4188.333,4186.667,4201.795,4185.897,4182.821,4181.923,4177.9490000000005,4167.0509999999995,4173.718,0,0
321,78,0,3188,4175.128,4174.615,4185.897,4184.872,4186.154,4188.974,4191.41,4201.41,4185.513,4181.154,4176.41,4180.255999999999,4170.769,4173.077,0,0
322,79,0,2948,4173.333,4176.41,4185.385,4183.846,4183.846,4188.462,4197.9490000000005,4201.923,4184.872,4182.564,4168.59,4175.255999999999,4172.9490000000005,4172.564,0,0
323,80,0,2656,4171.538,4178.205,4183.462,4182.436,4184.231,4189.359,4200.513,4207.179,4186.795,4184.615,4177.436,4173.462,4171.667,4173.462,0,0
324,81,0,3250,4172.564,4181.923,4178.462,4184.231,4186.667,4191.667,4200.255999999999,4204.359,4188.077,4184.103,4182.179,4174.103,4169.487,4172.0509999999995,0,0
325,82,0,3188,4172.821,4176.923,4171.538,4182.692,4186.795,4190.385,4197.436,4199.615,4186.538,4183.718,4168.718,4169.744000000001,4170.255999999999,4171.795,0,0
326,83,0,2948,4163.462,4168.718,4168.718,4175.897,4185.255999999999,4184.872,4189.231,4199.744000000001,4184.359,4178.077,4161.538,4158.333,4169.103,4165.769,0,0
327,84,0,2656,4154.487,4168.846,4167.9490000000005,4171.41,4178.333,4185.255999999999,4184.103,4193.846,4182.564,4168.59,4164.744000000001,4149.231,4166.154,4155.513,0,0
328,85,0,3250,4156.923,4166.795,4166.282,4169.359,4177.436,4190.255999999999,4186.667,4185.641,4181.667,4170.0,4160.641,4150.897,4166.538,4152.692,0,0
329,86,0,3188,4158.462,4157.564,4165.255999999999,4169.231,4181.538,4188.205,4187.821,4184.744000000001,4181.282,4175.513,4155.769,4152.179,4166.923,4157.564,0,0
330,87,0,2948,4160.641,4155.128,4170.0,4174.359,4179.231,4184.744000000001,4186.154,4188.077,4182.692,4173.718,4166.923,4154.744000000001,4166.538,4164.615,0,0
331,88,0,2656,4167.436,4160.385,4174.487,4174.359,4173.205,4186.538,4187.564,4187.436,4184.359,4171.41,4173.59,4167.0509999999995,4168.205,4171.282,0,0
332,89,0,3250,4169.872,4166.667,4172.9490000000005,4169.744000000001,4171.795,4185.769,4192.821,4185.897,4183.462,4174.103,4166.923,4172.9490000000005,4168.974,4172.436,0,0
333,90,0,3188,4168.974,4170.128,4174.744000000001,4171.667,4171.923,4182.436,4198.077,4193.462,4184.487,4178.846,4166.923,4167.436,4168.974,4168.974,0,0
334,91,0,2948,4170.897,4170.385,4177.308,4175.641,4170.385,4184.872,4200.0,4198.462,4187.0509999999995,4182.436,4170.897,4165.0,4170.769,4168.974,0,0
335,92,0,2656,4169.744000000001,4170.641,4172.564,4180.255999999999,4171.026,4186.795,4200.0,4192.9490000000005,4188.59,4184.359,4169.231,4169.359,4172.564,4167.821,0,0
336,93,0,3250,4167.821,4171.667,4168.718,4181.154,4171.282,4183.462,4197.436,4186.026,4187.308,4182.9490000000005,4168.846,4169.359,4169.744000000001,4161.41,0,0
337,94,0,3188,4164.744000000001,4171.923,4171.923,4174.872,4171.538,4181.795,4190.385,4177.0509999999995,4181.795,4172.9490000000005,4166.41,4158.59,4165.641,4154.872,0,0
338,95,0,2948,4157.179,4170.128,4171.795,4172.692,4173.59,4182.564,4184.744000000001,4169.744000000001,4178.59,4166.026,4160.255999999999,4151.41,4164.872,4152.0509999999995,0,0
339,96,0,2656,4161.41,4169.231,4169.615,4174.487,4174.103,4183.718,4183.462,4176.026,4181.41,4175.897,4165.641,4160.513,4168.974,4159.359,0,0
340,97,0,3250,4171.154,4171.667,4175.128,4172.179,4171.667,4181.026,4183.59,4180.255999999999,4183.59,4186.923,4176.795,4170.513,4170.641,4171.026,0,0
341,98,0,3188,4170.128,4170.897,4182.308,4174.487,4168.333,4175.513,4184.231,4171.282,4181.667,4185.0,4173.205,4169.744000000001,4166.923,4172.436,0,0
342,99,0,2948,4174.487,4170.641,4185.385,4182.436,4168.59,4176.154,4186.026,4173.718,4181.154,4186.667,4170.385,4169.615,4172.9490000000005,4170.513,0,0
343,100,0,2656,4184.103,4179.103,4186.41,4186.923,4171.795,4179.615,4188.205,4187.9490000000005,4184.231,4189.615,4176.795,4176.795,4181.795,4175.0,0,0
344,101,0,3250,4178.846,4180.255999999999,4182.564,4184.103,4170.513,4175.513,4188.974,4185.0,4183.077,4177.564,4167.564,4173.974,4175.128,4173.59,0,0
345,102,0,3188,4168.333,4171.282,4177.9490000000005,4174.615,4169.103,4171.923,4186.41,4172.436,4175.385,4164.744000000001,4153.718,4161.538,4165.641,4166.795,0,0
346,103,0,2948,4173.205,4174.231,4181.795,4173.205,4178.462,4178.462,4186.795,4170.897,4169.872,4167.308,4160.641,4159.615,4166.923,4167.821,0,0
347,104,0,2656,4182.692,4187.692,4186.923,4184.872,4187.9490000000005,4185.385,4188.59,4173.974,4170.641,4171.41,4167.308,4161.026,4169.359,4170.769,0,0
348,105,0,3250,4184.103,4188.59,4184.744000000001,4188.462,4187.0509999999995,4183.205,4186.154,4169.744000000001,4171.923,4166.538,4161.154,4155.255999999999,4167.821,4169.615,0,0
349,106,0,3188,4182.821,4181.667,4182.564,4181.154,4185.255999999999,4176.667,4184.487,4165.641,4169.744000000001,4166.282,4161.795,4154.487,4169.103,4168.333,0,0
350,107,0,2948,4181.795,4182.179,4183.462,4181.026,4185.897,4177.0509999999995,4181.41,4167.436,4169.744000000001,4175.255999999999,4169.744000000001,4159.231,4168.462,4170.385,0,0
351,108,0,2656,4181.667,4185.641,4182.821,4184.231,4183.974,4179.487,4176.026,4170.0,4177.821,4180.255999999999,4167.9490000000005,4156.154,4168.59,4172.179,0,0
352,109,0,3250,4182.821,4183.718,4183.59,4181.41,4182.9490000000005,4173.59,4177.308,4170.0,4181.154,4180.513,4163.077,4153.205,4177.179,4171.154,0,0
353,110,0,3188,4186.154,4183.718,4183.974,4180.769,4182.821,4173.846,4183.205,4167.9490000000005,4176.026,4184.103,4166.795,4159.872,4184.487,4173.59,0,0
354,111,0,2948,4192.9490000000005,4193.974,4183.59,4185.0,4184.103,4183.205,4185.128,4168.718,4177.436,4188.077,4177.179,4166.41,4183.974,4181.667,0,0
355,112,0,2656,4198.718,4200.513,4186.154,4186.538,4188.718,4185.641,4188.974,4173.077,4183.077,4185.0,4183.974,4170.769,4182.821,4185.255999999999,0,0
356,113,0,3250,4201.282,4193.59,4186.41,4184.103,4189.103,4182.564,4194.872,4175.641,4184.359,4185.128,4184.103,4175.385,4185.513,4185.0,0,0
357,114,0,3188,4197.9490000000005,4189.872,4184.744000000001,4184.615,4189.231,4186.41,4192.9490000000005,4175.255999999999,4182.179,4187.0509999999995,4179.359,4175.385,4182.0509999999995,4188.974,0,0
358,115,0,2948,4189.615,4189.359,4184.103,4183.846,4188.846,4188.59,4188.59,4171.923,4174.872,4173.59,4173.462,4173.205,4170.385,4187.179,0,0
359,116,0,2656,4188.846,4184.872,4181.538,4181.795,4187.436,4186.41,4188.077,4173.205,4172.179,4167.692,4178.333,4178.077,4165.513,4183.718,0,0
360,117,0,3250,4200.641,4190.0,4186.026,4184.231,4192.821,4188.718,4188.333,4184.615,4184.487,4188.59,4189.615,4189.359,4175.641,4194.231,0,0
361,118,0,3188,4205.255999999999,4196.282,4192.436,4185.385,4198.077,4190.897,4188.718,4192.308,4192.821,4207.564,4189.615,4194.744000000001,4186.154,4202.436,0,0
362,119,0,2948,4196.795,4189.872,4190.769,4183.077,4197.0509999999995,4189.103,4188.077,4188.205,4187.9490000000005,4200.0,4191.154,4195.897,4183.846,4199.103,0,0
363,120,0,2656,4200.0,4189.615,4192.564,4186.154,4193.462,4186.026,4185.255999999999,4186.923,4185.769,4192.308,4198.846,4198.077,4182.0509999999995,4200.128,0,0
364,121,0,3250,4212.821,4201.667,4201.923,4189.872,4195.513,4183.59,4183.846,4185.385,4188.846,4197.179,4194.231,4193.462,4184.103,4205.385,0,0
365,122,0,3188,4213.077,4204.103,4201.667,4187.9490000000005,4194.103,4181.667,4180.897,4174.872,4185.255999999999,4192.308,4183.718,4185.769,4177.179,4198.974,0,0
366,123,0,2948,4208.846,4197.821,4195.769,4191.026,4187.692,4180.897,4173.205,4166.154,4175.769,4180.385,4182.308,4185.0,4165.897,4192.308,0,0
367,124,0,2656,4215.0,4200.897,4201.282,4198.333,4192.0509999999995,4182.308,4172.564,4168.077,4175.128,4178.846,4185.513,4186.026,4168.205,4199.872,0,0
368,125,0,3250,4216.41,4206.795,4202.308,4194.103,4200.513,4184.487,4177.692,4175.769,4183.59,4186.538,4188.846,4186.795,4178.718,4202.436,0,0
369,126,0,3188,4205.0,4200.897,4191.154,4184.359,4194.744000000001,4183.718,4175.513,4178.846,4182.308,4186.923,4182.0509999999995,4185.513,4177.821,4192.179,0,0
370,127,0,52,4194.231,4188.718,4185.769,4183.077,4182.564,4180.513,4171.667,4178.59,4177.692,4181.154,4172.692,4177.179,4170.641,4185.641,0,0
371,0,0,2632,4189.615,4185.128,4187.692,4185.0,4185.0,4182.564,4177.0509999999995,4181.154,4182.179,4182.0509999999995,4177.692,4169.615,4175.513,4188.205,0,0
372,1,0,2025,4186.795,4187.9490000000005,4187.436,4183.846,4188.846,4186.154,4184.103,4183.846,4185.0,4186.026,4184.103,4170.769,4184.615,4185.513,0,0
373,2,0,3435,4184.231,4186.795,4182.9490000000005,4183.59,4184.744000000001,4186.538,4187.179,4180.513,4181.41,4185.641,4179.231,4170.513,4182.308,4180.769,0,0
374,3,0,3382,4184.231,4186.923,4182.821,4184.231,4186.923,4187.692,4187.9490000000005,4181.923,4181.154,4185.513,4179.872,4168.462,4180.641,4182.9490000000005,0,0
375,4,0,3016,4186.538,4187.692,4185.0,4184.872,4187.308,4187.692,4186.667,4186.41,4185.641,4187.179,4183.59,4169.872,4185.385,4182.179,0,0
376,5,0,2626,4186.282,4187.0509999999995,4182.692,4184.615,4180.897,4182.179,4183.718,4175.641,4182.0509999999995,4177.564,4174.872,4168.462,4185.128,4178.205,0,0
377,6,0,2554,4182.564,4191.538,4179.744000000001,4183.718,4177.436,4179.872,4182.692,4168.718,4174.231,4171.026,4171.923,4167.564,4181.923,4180.769,0,0
378,7,0,3032,4182.821,4193.333,4179.615,4185.128,4179.103,4180.769,4184.359,4179.231,4177.692,4179.615,4182.436,4169.359,4182.564,4184.487,0,0
379,8,0,2478,4183.59,4186.538,4180.897,4183.718,4174.744000000001,4176.41,4181.667,4184.615,4184.103,4182.821,4183.333,4169.615,4183.846,4182.692,0,0
380,9,0,3485,4184.872,4182.308,4183.59,4176.538,4169.103,4171.41,4175.897,4181.795,4182.9490000000005,4181.538,4180.385,4175.897,4183.718,4183.846,0,0
381,10,0,3186,4192.0509999999995,4183.59,4188.205,4170.513,4172.436,4172.0509999999995,4173.205,4183.59,4184.231,4187.308,4187.179,4186.795,4184.615,4188.205,0,0
382,11,0,2946,4191.923,4184.872,4187.0509999999995,4170.641,4174.231,4173.077,4171.538,4177.692,4180.513,4186.795,4186.538,4183.718,4184.487,4185.385,0,0
383,12,0,2654,4187.308,4187.564,4182.564,4179.872,4175.641,4169.359,4170.0,4166.923,4173.205,4182.0509999999995,4181.282,4172.564,4182.9490000000005,4183.59,0,0
384,13,0,3247,4188.333,4188.205,4180.641,4184.103,4182.821,4167.0509999999995,4170.0,4168.077,4179.103,4188.718,4184.615,4170.128,4185.513,4186.923,0,0
385,14,0,3186,4187.0509999999995,4184.359,4178.974,4174.487,4186.026,4167.0509999999995,4169.872,4169.487,4182.692,4188.59,4180.385,4170.128,4187.692,4182.564,0,0
386,15,0,2946,4184.103,4184.103,4180.641,4170.0,4184.744000000001,4170.128,4174.231,4166.923,4176.795,4180.513,4176.154,4167.821,4185.641,4177.9490000000005,0,0
387,16,0,0,4185.641,4184.744000000001,4184.231,4176.923,4185.513,4177.821,4184.103,4170.513,4179.359,4184.872,4183.205,4167.436,4186.41,4180.513,0,0
388,17,0,0,4185.769,4185.513,4183.333,4175.128,4187.0509999999995,4183.974,4182.0509999999995,4174.615,4184.872,4190.897,4182.308,4168.205,4189.872,4182.9490000000005,0,0
389,18,0,0,4184.487,4187.179,4180.513,4170.0,4187.0509999999995,4185.0,4171.795,4171.282,4182.308,4185.128,4170.128,4168.59,4189.487,4181.667,0,0
390,19,0,0,4186.795,4186.282,4180.255999999999,4177.692,4188.205,4185.513,4176.795,4168.077,4180.897,4182.0509999999995,4172.179,4169.487,4186.282,4181.538,0,0
391,20,0,0,4186.923,4189.487,4182.564,4182.564,4187.692,4185.769,4182.9490000000005,4170.255999999999,4182.179,4186.538,4183.205,4168.974,4188.077,4182.436,0,0
392,21,0,0,4190.385,4198.974,4185.641,4181.923,4188.974,4183.077,4174.872,4171.026,4181.667,4187.692,4184.487,4170.255999999999,4196.026,4183.846,0,0
393,22,0,0,4201.667,4202.692,4185.641,4186.538,4191.538,4182.0509999999995,4174.615,4169.487,4182.436,4186.795,4182.0509999999995,4174.103,4198.462,4187.0509999999995,0,0
394,23,0,0,4201.538,4197.9490000000005,4183.974,4189.615,4189.872,4182.564,4184.872,4168.846,4182.179,4185.641,4181.538,4172.179,4190.641,4187.0509999999995,0,0
395,24,0,0,4191.795,4197.0509999999995,4185.641,4187.821,4187.179,4182.9490000000005,4187.821,4171.538,4180.897,4181.923,4182.9490000000005,4171.026,4185.0,4185.897,0,0
396,25,0,0,4187.9490000000005,4200.513,4186.667,4186.282,4187.179,4186.538,4187.0509999999995,4177.0509999999995,4181.795,4182.0509999999995,4183.846,4172.564,4191.667,4185.385,0,0
397,26,0,0,4188.846,4196.538,4183.333,4185.641,4185.897,4188.59,4188.718,4183.846,4186.667,4184.231,4183.333,4171.41,4199.872,4185.128,0,0
398,27,0,0,4189.487,4187.821,4181.026,4184.487,4185.0,4187.436,4186.923,4188.333,4189.231,4183.462,4183.077,4175.641,4198.333,4183.974,0,0
399,28,0,0,4188.974,4183.846,4182.436,4183.846,4184.103,4186.538,4186.282,4183.462,4185.513,4182.821,4180.897,4179.615,4191.795,4178.077,0,0
400,29,0,0,4185.385,4184.103,4182.436,4182.692,4181.923,4181.667,4181.41,4174.103,4184.872,4184.487,4178.462,4173.205,4188.59,4176.667,0,0
401,30,0,0,4187.308,4185.255999999999,4182.179,4182.0509999999995,4183.462,4173.077,4171.026,4168.59,4181.667,4184.487,4181.667,4168.59,4188.205,4183.718,0,0
402,31,0,0,4194.615,4187.308,4183.974,4182.821,4182.0509999999995,4170.128,4169.359,4168.205,4174.103,4182.179,4183.59,4172.692,4186.154,4186.795,0,0
403,32,0,0,4193.462,4186.667,4185.0,4182.179,4175.255999999999,4171.667,4172.821,4169.615,4174.103,4178.333,4178.077,4172.692,4185.769,4183.077,0,0
404,33,0,0,4189.359,4185.0,4183.333,4181.154,4174.872,4171.282,4170.128,4170.641,4179.487,4173.462,4180.897,4170.385,4187.179,4185.0,0,0
405,34,0,0,4188.974,4185.255999999999,4180.769,4180.641,4178.333,4170.513,4171.41,4171.923,4180.255999999999,4175.0,4185.255999999999,4171.538,4187.179,4188.077,0,0
406,35,0,0,4184.615,4183.333,4180.0,4180.128,4177.9490000000005,4173.077,4176.282,4173.205,4180.128,4182.179,4176.923,4170.769,4187.436,4182.179,0,0
407,36,0,0,4182.821,4182.179,4182.692,4182.9490000000005,4180.513,4176.538,4177.564,4174.487,4186.026,4185.513,4175.769,4171.795,4190.128,4174.872,0,0
408,37,0,0,4185.641,4184.615,4183.205,4186.282,4186.538,4177.821,4177.436,4171.795,4182.436,4182.308,4180.128,4170.385,4189.359,4170.513,0,0
409,38,0,0,4185.0,4185.641,4182.0509999999995,4185.641,4187.564,4177.692,4174.359,4167.564,4171.154,4179.359,4176.667,4170.255999999999,4185.769,4174.103,0,0
410,39,0,0,4185.385,4187.9490000000005,4186.154,4186.923,4188.718,4180.769,4173.462,4168.59,4176.923,4184.231,4178.846,4179.359,4191.538,4181.795,0,0
411,40,0,0,4189.872,4193.077,4188.205,4189.872,4189.872,4188.333,4177.179,4169.359,4186.026,4189.231,4187.564,4183.462,4200.385,4186.538,0,0
412,41,0,0,4187.9490000000005,4191.41,4183.462,4186.667,4186.538,4185.513,4174.359,4168.462,4177.821,4184.487,4187.0509999999995,4176.154,4195.0,4186.795,0,0
413,42,0,0,4183.718,4186.667,4181.667,4181.41,4183.462,4173.205,4166.154,4166.538,4172.564,4178.462,4181.923,4170.641,4183.718,4179.872,0,0
414,43,0,0,4185.769,4192.821,4184.744000000001,4183.205,4184.103,4174.744000000001,4167.821,4166.026,4182.9490000000005,4182.9490000000005,4182.692,4170.897,4185.385,4176.41,0,0
415,44,0,0,4187.692,4198.846,4184.872,4187.0509999999995,4187.692,4185.255999999999,4176.41,4175.255999999999,4187.0509999999995,4190.128,4183.333,4170.0,4192.564,4181.41,0,0
416,45,0,0,4186.41,4191.538,4183.333,4186.154,4189.359,4186.154,4180.641,4182.564,4183.333,4187.821,4180.128,4169.231,4191.795,4181.026,0,0
417,46,0,0,4186.41,4184.231,4184.231,4184.744000000001,4188.077,4184.359,4184.487,4176.282,4184.103,4183.59,4181.282,4169.231,4188.974,4172.0509999999995,0,0
418,47,0,0,4185.641,4185.255999999999,4184.744000000001,4184.487,4185.513,4188.718,4186.667,4171.41,4184.872,4185.385,4182.436,4167.821,4189.615,4170.897,0,0
419,48,0,0,4182.821,4184.103,4182.9490000000005,4183.846,4184.744000000001,4190.255999999999,4187.179,4174.615,4183.718,4186.795,4172.821,4167.564,4189.103,4171.41,0,0
420,49,0,0,4182.692,4181.667,4180.255999999999,4184.744000000001,4186.154,4189.487,4186.282,4173.462,4182.564,4183.077,4168.718,4167.179,4186.538,4168.59,0,0
421,50,0,0,4184.359,4184.359,4177.692,4187.436,4187.692,4188.718,4183.846,4170.641,4183.077,4181.026,4181.795,4167.821,4190.769,4176.41,0,0
422,51,0,0,4185.385,4186.026,4178.462,4188.077,4187.564,4184.744000000001,4180.513,4177.436,4186.795,4184.744000000001,4187.179,4169.872,4199.872,4185.0,0,0
423,52,0,0,4187.692,4185.513,4180.255999999999,4187.9490000000005,4183.846,4182.821,4176.282,4183.205,4188.077,4186.154,4182.564,4171.026,4201.667,4184.615,0,0
424,53,0,0,4186.41,4186.923,4180.513,4187.9490000000005,4180.897,4180.641,4170.255999999999,4182.692,4187.308,4184.744000000001,4183.462,4171.41,4197.179,4183.846,0,0
425,54,0,0,4187.564,4188.718,4181.154,4187.308,4183.077,4180.385,4170.897,4182.179,4187.308,4186.538,4184.615,4175.641,4197.692,4185.769,0,0
426,55,0,0,4197.564,4189.615,4184.744000000001,4188.333,4183.333,4181.026,4180.769,4185.769,4187.692,4188.205,4188.077,4185.0,4199.487,4188.205,0,0
427,56,0,0,4199.615,4188.718,4187.821,4188.077,4176.538,4174.744000000001,4181.41,4186.923,4187.692,4188.205,4187.821,4186.667,4191.154,4190.0,0,0
428,57,0,0,4187.692,4180.513,4182.308,4182.436,4169.103,4167.692,4169.359,4178.205,4181.282,4182.692,4175.385,4177.0509999999995,4180.385,4184.103,0,0
429,58,0,0,4176.667,4171.923,4173.333,4179.231,4167.9490000000005,4169.615,4166.282,4170.641,4172.308,4173.077,4175.385,4168.718,4179.359,4172.0509999999995,0,0
430,59,0,0,4173.974,4173.59,4170.513,4183.462,4170.385,4174.359,4172.564,4170.513,4169.487,4171.154,4186.026,4169.103,4183.333,4169.615,0,0
431,60,0,0,4173.846,4175.897,4172.564,4182.564,4172.0509999999995,4173.718,4172.9490000000005,4168.974,4172.436,4174.359,4179.359,4168.333,4184.231,4174.744000000001,0,0
432,61,0,0,4170.513,4170.769,4170.0,4174.744000000001,4170.128,4171.795,4169.872,4165.513,4174.231,4170.385,4166.795,4159.615,4181.667,4172.9490000000005,0,0
433,62,0,0,4165.255999999999,4168.974,4165.897,4170.128,4165.641,4171.282,4169.615,4167.308,4172.308,4165.769,4169.872,4148.205,4180.385,4163.59,0,0
434,63,0,0,4164.872,4172.692,4167.564,4172.9490000000005,4161.795,4172.0509999999995,4171.795,4169.487,4171.538,4171.41,4172.0509999999995,4141.795,4182.436,4161.41,0,0
435,64,0,2634,4167.564,4171.538,4168.846,4175.128,4159.103,4171.154,4174.615,4167.821,4174.103,4172.0509999999995,4168.974,4145.0,4180.897,4165.897,0,0
436,65,0,2025,4166.795,4167.436,4169.615,4172.436,4157.692,4168.333,4173.718,4170.0,4175.513,4165.128,4169.872,4151.795,4177.692,4167.179,0,0
437,66,0,3435,4168.846,4168.718,4171.538,4176.41,4160.769,4168.846,4170.897,4172.9490000000005,4173.333,4170.255999999999,4169.487,4154.359,4181.667,4167.308,0,0
438,67,0,3385,4173.462,4173.718,4170.769,4182.692,4168.077,4170.897,4170.385,4172.308,4176.538,4184.487,4173.205,4154.872,4185.641,4170.641,0,0
439,68,0,3018,4175.513,4176.667,4171.538,4183.59,4172.9490000000005,4171.795,4173.333,4172.821,4185.385,4191.154,4182.692,4159.487,4185.769,4173.333,0,0
440,69,0,2630,4175.128,4175.0,4174.231,4181.923,4171.667,4170.897,4168.974,4172.9490000000005,4182.692,4184.487,4186.538,4162.0509999999995,4185.385,4171.795,0,0
441,70,0,2555,4172.308,4174.231,4171.795,4182.0509999999995,4168.846,4169.231,4159.359,4168.718,4173.205,4174.231,4180.0,4155.769,4183.462,4170.255999999999,0,0
442,71,0,3038,4169.487,4173.077,4168.077,4182.179,4169.359,4169.359,4160.385,4167.308,4172.308,4170.385,4171.282,4154.615,4182.821,4170.128,0,0
443,72,0,2478,4170.385,4173.077,4170.641,4180.255999999999,4170.897,4171.795,4168.846,4171.026,4174.231,4169.872,4170.385,4159.872,4182.564,4172.436,0,0
444,73,0,3491,4171.41,4174.615,4171.026,4175.128,4170.385,4171.154,4167.692,4166.538,4169.615,4169.487,4173.59,4159.615,4176.154,4172.9490000000005,0,0
445,74,0,3191,4171.667,4173.846,4167.9490000000005,4171.538,4169.487,4169.231,4163.59,4155.769,4165.641,4165.128,4171.026,4154.487,4170.769,4168.077,0,0
446,75,0,2952,4178.205,4177.692,4171.282,4179.872,4172.179,4173.077,4169.744000000001,4153.59,4167.0509999999995,4155.769,4163.462,4155.897,4171.538,4165.897,0,0
447,76,0,2656,4184.103,4179.744000000001,4175.128,4182.179,4178.59,4176.538,4171.795,4155.897,4167.692,4152.692,4165.385,4158.718,4173.333,4168.59,0,0
448,77,0,3251,4184.231,4173.59,4174.744000000001,4175.385,4183.333,4173.077,4167.436,4155.255999999999,4166.538,4163.59,4172.821,4157.308,4175.385,4172.308,0,0
449,78,0,3191,4184.231,4170.769,4173.077,4176.795,4185.513,4172.0509999999995,4167.179,4159.231,4168.077,4171.026,4169.615,4159.744000000001,4174.615,4172.821,0,0
450,79,0,2952,4184.744000000001,4171.282,4172.179,4176.667,4183.718,4172.9490000000005,4167.179,4166.795,4170.897,4166.923,4166.923,4166.026,4173.205,4168.333,0,0
451,80,0,2656,4185.0,4171.538,4176.026,4170.641,4182.692,4171.026,4167.692,4168.59,4172.692,4168.205,4179.359,4170.513,4179.487,4173.205,0,0
452,81,0,3251,4186.667,4179.615,4180.385,4172.692,4184.744000000001,4174.872,4172.179,4168.077,4173.077,4174.487,4187.692,4173.59,4182.436,4184.103,0,0
453,82,0,3191,4186.923,4187.436,4175.897,4176.795,4184.231,4183.205,4178.205,4168.077,4171.538,4174.487,4178.077,4170.769,4180.0,4179.103,0,0
454,83,0,2952,4180.385,4180.128,4168.718,4170.385,4182.821,4184.359,4182.179,4166.923,4169.359,4165.513,4170.255999999999,4160.128,4177.564,4167.436,0,0
455,84,0,2656,4175.641,4177.436,4170.641,4169.231,4183.974,4183.846,4184.872,4167.692,4170.769,4161.923,4171.026,4153.846,4177.0509999999995,4168.205,0,0
456,85,0,3251,4173.333,4182.308,4171.667,4172.308,4179.744000000001,4185.769,4181.282,4167.308,4172.564,4166.923,4168.718,4156.026,4178.718,4171.538,0,0
457,86,0,3191,4170.128,4182.821,4168.462,4171.41,4176.282,4185.513,4179.103,4165.0,4170.128,4168.846,4165.0,4153.333,4181.282,4167.564,0,0
458,87,0,2952,4174.103,4183.846,4168.333,4175.769,4183.333,4183.718,4180.641,4166.667,4171.154,4169.231,4168.59,4150.385,4183.974,4168.59,0,0
459,88,0,2656,4182.179,4185.897,4172.692,4181.923,4187.821,4182.9490000000005,4175.0,4167.564,4173.205,4170.641,4177.564,4158.205,4185.255999999999,4177.179,0,0
460,89,0,3251,4188.077,4187.436,4179.359,4184.231,4185.255999999999,4182.179,4172.0509999999995,4164.359,4171.41,4171.795,4183.077,4166.923,4185.641,4183.205,0,0
461,90,0,3191,4190.0,4187.179,4183.974,4180.0,4186.538,4182.0509999999995,4173.846,4167.436,4175.897,4176.154,4183.333,4170.385,4186.923,4185.385,0,0
462,91,0,2952,4191.795,4186.923,4186.154,4178.974,4188.718,4181.026,4175.385,4172.9490000000005,4183.974,4177.179,4184.359,4172.692,4189.359,4185.897,0,0
463,92,0,2656,4191.026,4186.795,4181.41,4182.436,4181.795,4176.667,4178.846,4172.436,4183.205,4170.897,4185.641,4172.564,4185.769,4185.897,0,0
464,93,0,3251,4185.513,4180.385,4173.333,4177.692,4171.923,4172.821,4180.385,4175.0,4181.282,4173.718,4184.615,4170.255999999999,4182.179,4183.718,0,0
465,94,0,3191,4183.333,4175.385,4176.795,4170.897,4169.359,4176.667,4178.462,4185.0,4184.744000000001,4186.795,4185.769,4172.436,4186.538,4184.872,0,0
466,95,0,2952,4187.692,4181.923,4182.821,4173.205,4173.077,4182.179,4179.487,4186.795,4186.667,4187.0509999999995,4187.308,4175.513,4187.821,4189.103,0,0
467,96,0,2656,4187.564,4186.154,4175.769,4174.615,4173.333,4183.718,4178.846,4177.436,4185.255999999999,4176.154,4179.744000000001,4166.154,4187.179,4183.077,0,0
468,97,0,3251,4175.385,4176.667,4166.667,4169.231,4170.769,4179.103,4173.077,4170.128,4179.615,4168.077,4169.231,4151.923,4184.103,4171.667,0,0
469,98,0,3191,4166.282,4167.179,4167.308,4168.462,4170.255999999999,4174.103,4170.0,4167.9490000000005,4169.231,4163.077,4165.385,4146.667,4174.744000000001,4165.513,0,0
470,99,0,2952,4170.641,4170.641,4170.641,4168.59,4171.154,4175.769,4168.462,4167.0509999999995,4169.872,4167.0509999999995,4167.9490000000005,4149.231,4173.205,4168.462,0,0
471,100,0,2656,4180.897,4181.538,4175.769,4171.538,4178.077,4181.795,4168.077,4167.821,4178.846,4174.231,4175.0,4157.308,4183.59,4178.59,0,0
472,101,0,3251,4187.179,4188.718,4182.0509999999995,4182.692,4184.487,4184.231,4171.538,4169.872,4176.026,4173.59,4181.538,4167.436,4186.154,4185.769,0,0
473,102,0,3191,4188.333,4192.179,4184.615,4188.462,4183.846,4180.641,4171.795,4171.026,4175.255999999999,4177.0509999999995,4183.462,4171.795,4185.385,4187.9490000000005,0,0
474,103,0,2952,4192.308,4196.538,4184.744000000001,4184.615,4181.923,4175.641,4169.231,4168.718,4180.128,4185.641,4183.59,4169.487,4190.128,4187.179,0,0
475,104,0,2656,4198.974,4199.231,4185.128,4181.923,4180.641,4173.077,4170.255999999999,4167.179,4176.538,4183.462,4183.974,4171.154,4190.128,4188.205,0,0
476,105,0,3251,4202.564,4199.487,4187.436,4186.538,4180.385,4177.9490000000005,4177.308,4170.0,4176.923,4179.487,4184.103,4175.255999999999,4193.462,4193.974,0,0
477,106,0,3191,4202.821,4201.282,4189.103,4190.385,4180.128,4185.0,4181.923,4173.59,4182.564,4180.513,4187.179,4173.59,4197.0509999999995,4196.538,0,0
478,107,0,2952,4202.0509999999995,4201.538,4187.308,4188.205,4180.255999999999,4185.769,4181.282,4171.795,4180.513,4178.462,4190.769,4171.282,4190.897,4191.154,0,0
479,108,0,2656,4202.436,4201.026,4186.538,4186.026,4183.462,4186.026,4183.846,4170.641,4178.974,4179.231,4187.179,4170.769,4188.205,4187.0509999999995,0,0
480,109,0,3251,4201.026,4199.744000000001,4188.077,4189.615,4188.077,4186.795,4188.205,4176.795,4184.487,4184.744000000001,4180.128,4169.487,4191.282,4188.846,0,0
481,110,0,3191,4191.795,4189.615,4185.513,4188.333,4185.641,4183.718,4184.359,4182.564,4182.9490000000005,4184.359,4176.795,4167.179,4188.205,4185.0,0,0
482,111,0,2952,4182.821,4182.436,4183.59,4181.538,4183.077,4180.385,4180.513,4183.59,4182.179,4184.744000000001,4180.128,4167.692,4185.641,4181.154,0,0
483,112,0,2656,4184.615,4183.718,4185.641,4180.641,4187.0509999999995,4182.821,4182.821,4184.103,4185.513,4187.308,4187.308,4170.385,4191.667,4185.769,0,0
484,113,0,3251,4187.436,4181.41,4184.615,4183.333,4186.538,4184.872,4180.769,4184.615,4184.615,4185.641,4187.308,4172.179,4192.0509999999995,4187.308,0,0
485,114,0,3191,4184.744000000001,4179.103,4181.538,4181.667,4182.564,4183.462,4174.103,4182.821,4191.026,4186.538,4182.179,4173.077,4188.077,4183.974,0,0
486,115,0,2952,4184.744000000001,4182.179,4181.795,4179.359,4182.821,4184.487,4171.154,4183.462,4200.0,4188.846,4183.077,4172.821,4193.59,4182.308,0,0
487,116,0,2656,4186.923,4183.462,4184.744000000001,4181.538,4184.487,4180.641,4170.897,4184.231,4201.026,4186.026,4189.487,4174.487,4199.872,4184.615,0,0
488,117,0,3251,4184.872,4181.795,4183.718,4184.359,4184.487,4173.462,4168.59,4176.667,4194.359,4185.897,4190.769,4173.205,4193.077,4186.41,0,0
489,118,0,3191,4185.513,4184.615,4182.436,4183.462,4183.205,4176.795,4167.692,4166.667,4187.436,4186.923,4186.923,4167.436,4184.231,4186.282,0,0
490,119,0,2952,4188.205,4190.255999999999,4185.897,4185.255999999999,4185.641,4184.744000000001,4172.179,4166.41,4185.385,4182.179,4183.462,4167.179,4187.308,4183.333,0,0
491,120,0,2656,4188.846,4190.769,4187.564,4190.513,4190.385,4183.718,4174.231,4165.385,4184.615,4177.9490000000005,4181.41,4170.128,4188.077,4179.744000000001,0,0
492,121,0,3251,4191.41,4187.821,4185.513,4190.513,4181.795,4182.436,4171.282,4157.436,4183.462,4181.795,4184.359,4168.974,4184.231,4182.436,0,0
493,122,0,3191,4197.564,4191.026,4185.641,4187.308,4161.538,4184.487,4170.769,4155.769,4183.718,4184.615,4186.41,4170.0,4186.667,4187.179,0,0
494,123,0,2952,4202.436,4196.795,4188.077,4187.821,4147.692,4178.718,4169.487,4160.385,4185.385,4182.308,4186.538,4175.897,4187.9490000000005,4189.615,0,0
495,124,0,2656,4197.692,4192.0509999999995,4186.026,4186.795,4141.41,4168.59,4158.718,4162.564,4184.359,4182.0509999999995,4190.255999999999,4176.026,4184.872,4188.59,0,0
496,125,0,3251,4186.795,4181.282,4181.667,4182.692,4135.897,4165.769,4150.769,4164.872,4183.59,4184.359,4190.0,4171.795,4184.359,4187.0509999999995,0,0
497,126,0,3191,4188.462,4187.0509999999995,4182.436,4183.205,4136.154,4169.615,4158.59,4169.231,4186.795,4184.487,4187.436,4176.282,4186.923,4192.9490000000005,0,0
498,127,0,52,4201.538,4197.9490000000005,4184.615,4186.795,4140.897,4172.308,4167.9490000000005,4170.513,4188.59,4182.179,4191.026,4182.821,4187.564,4198.59,0,0
499,0,0,2634,4200.128,4193.077,4184.231,4186.41,4140.0,4170.128,4166.667,4169.487,4186.795,4181.41,4192.0509999999995,4178.077,4185.128,4193.59,0,0
500,1,0,2025,4189.103,4185.255999999999,4183.077,4185.769,4139.231,4169.359,4165.128,4170.513,4185.128,4186.154,4185.641,4169.231,4185.0,4186.538,0,0
501,2,0,3435,4192.821,4185.897,4181.923,4186.667,4145.0,4172.179,4168.205,4169.103,4185.513,4185.513,4184.744000000001,4167.308,4184.872,4186.923,0,0
502,3,0,3385,4200.0,4188.718,4182.0509999999995,4187.436,4153.59,4173.077,4170.0,4168.974,4186.41,4175.897,4185.513,4168.077,4183.718,4187.9490000000005,0,0
503,4,0,3020,4197.436,4189.231,4185.255999999999,4187.821,4155.769,4171.667,4170.255999999999,4177.179,4186.795,4171.795,4181.538,4167.564,4185.255999999999,4186.923,0,0
504,5,0,2628,4188.462,4186.923,4182.308,4183.59,4148.846,4170.0,4171.026,4179.615,4185.385,4172.9490000000005,4179.872,4168.077,4181.795,4185.513,0,0
505,6,0,2555,4182.308,4180.641,4175.769,4178.718,4146.923,4170.641,4171.282,4173.846,4184.872,4172.564,4182.436,4169.615,4176.282,4183.59,0,0
506,7,0,3035,4189.744000000001,4182.308,4180.513,4181.538,4152.692,4172.179,4171.41,4178.462,4185.897,4173.59,4185.769,4172.692,4181.026,4186.667,0,0
507,8,0,2478,4197.0509999999995,4188.718,4188.974,4188.59,4154.359,4171.538,4171.41,4183.333,4186.154,4171.41,4185.128,4175.641,4182.692,4188.205,0,0
508,9,0,3483,4192.308,4182.308,4186.795,4187.692,4149.872,4175.128,4171.282,4177.692,4186.154,4167.821,4182.0509999999995,4176.154,4170.641,4186.282,0,0
509,10,0,3191,4186.026,4175.641,4182.692,4181.538,4148.974,4182.308,4172.564,4179.231,4185.255999999999,4173.974,4181.538,4173.077,4165.897,4185.0,0,0
510,11,0,2947,4188.59,4180.385,4184.103,4183.59,4153.205,4184.744000000001,4177.9490000000005,4188.333,4187.308,4182.179,4184.615,4169.744000000001,4176.026,4183.718,0,0
511,12,0,2656,4196.154,4186.795,4185.641,4190.0,4156.538,4185.897,4185.255999999999,4188.718,4194.615,4182.564,4187.179,4174.359,4183.718,4184.744000000001,0,0
512,13,0,3250,4200.128,4187.692,4188.59,4190.385,4158.077,4188.205,4186.923,4187.436,4198.077,4183.205,4186.795,4183.077,4184.231,4189.231,0,0
513,14,0,3191,4199.103,4188.333,4190.897,4187.308,4157.821,4185.385,4184.744000000001,4194.231,4197.564,4186.538,4192.9490000000005,4186.154,4184.744000000001,4191.923,0,0
514,15,0,2947,4199.103,4190.385,4189.103,4187.692,4157.436,4183.846,4186.538,4199.615,4198.077,4188.205,4199.359,4183.974,4187.692,4190.641,0,0
515,16,0,0,4198.718,4188.59,4187.564,4187.9490000000005,4157.564,4187.436,4189.231,4194.487,4194.359,4192.0509999999995,4192.821,4177.0509999999995,4190.513,4188.59,0,0
516,17,0,0,4189.872,4186.026,4184.615,4185.128,4158.718,4186.026,4186.154,4184.359,4187.179,4188.205,4184.231,4170.0,4186.026,4184.103,0,0
517,18,0,0,4181.154,4184.744000000001,4180.385,4183.462,4157.564,4182.436,4184.359,4181.538,4186.026,4174.744000000001,4187.0509999999995,4167.692,4179.615,4179.744000000001,0,0
518,19,0,0,4181.795,4184.231,4181.154,4184.231,4156.026,4183.462,4186.026,4183.462,4187.436,4172.9490000000005,4188.718,4168.59,4179.744000000001,4181.667,0,0
519,20,0,0,4186.026,4185.513,4188.077,4185.255999999999,4163.846,4186.154,4187.564,4184.615,4188.846,4185.641,4185.255999999999,4176.923,4182.308,4186.795,0,0
520,21,0,0,4186.41,4181.923,4189.487,4187.308,4168.59,4187.436,4187.9490000000005,4186.538,4189.231,4183.333,4186.667,4185.0,4183.077,4188.718,0,0
521,22,0,0,4182.692,4171.41,4183.974,4185.897,4159.103,4186.538,4186.667,4183.718,4186.282,4168.974,4186.538,4176.923,4181.41,4183.205,0,0
522,23,0,0,4189.615,4174.487,4188.846,4185.897,4153.974,4186.026,4189.615,4182.308,4190.769,4173.974,4185.897,4176.282,4182.436,4182.0509999999995,0,0
523,24,0,0,4203.59,4188.205,4201.41,4196.026,4160.513,4188.333,4198.205,4189.231,4198.462,4187.821,4186.667,4193.718,4191.41,4193.462,0,0
524,25,0,0,4202.9490000000005,4187.9490000000005,4201.282,4199.103,4161.667,4189.744000000001,4200.255999999999,4193.462,4198.205,4186.026,4189.615,4194.872,4201.667,4199.615,0,0
525,26,0,0,4197.692,4187.9490000000005,4192.436,4189.103,4158.077,4188.205,4192.564,4189.231,4198.59,4181.667,4195.128,4183.205,4199.103,4190.769,0,0
526,27,0,0,4199.487,4198.59,4190.641,4186.026,4157.821,4185.769,4188.077,4187.308,4198.333,4188.59,4193.718,4181.282,4190.769,4185.513,0,0
527,28,0,0,4194.359,4193.974,4188.846,4187.9490000000005,4155.769,4180.385,4186.667,4186.41,4190.255999999999,4186.41,4186.154,4177.436,4188.205,4187.821,0,0
528,29,0,0,4181.923,4180.128,4182.436,4183.333,4152.436,4178.333,4182.821,4178.59,4185.0,4173.846,4181.923,4169.359,4186.923,4181.795,0,0
529,30,0,0,4176.026,4182.308,4181.795,4181.923,4154.872,4183.333,4183.462,4176.154,4186.923,4176.026,4181.026,4167.692,4184.744000000001,4172.821,0,0
530,31,0,0,4174.359,4182.308,4185.0,4184.744000000001,4157.179,4184.359,4186.41,4182.436,4187.692,4182.821,4183.462,4168.077,4182.308,4172.0509999999995,0,0
531,32,0,0,4174.615,4172.821,4184.744000000001,4185.641,4155.385,4181.026,4186.538,4184.487,4189.231,4176.667,4183.462,4164.487,4182.564,4172.436,0,0
532,33,0,0,4173.205,4170.128,4178.462,4181.154,4152.692,4179.744000000001,4184.103,4179.487,4188.205,4165.255999999999,4172.436,4158.205,4180.897,4170.385,0,0
533,34,0,0,4169.231,4172.9490000000005,4175.385,4175.385,4151.154,4178.462,4182.436,4177.564,4183.077,4159.872,4166.667,4157.0509999999995,4173.462,4167.436,0,0
534,35,0,0,4175.385,4173.718,4183.077,4180.0,4151.41,4177.0509999999995,4183.077,4182.179,4185.769,4166.154,4179.615,4168.205,4173.59,4172.0509999999995,0,0
535,36,0,0,4181.795,4171.667,4188.205,4184.744000000001,4150.641,4174.359,4182.179,4185.255999999999,4189.615,4181.667,4187.564,4176.282,4182.692,4180.641,0,0
536,37,0,0,4180.0,4174.872,4184.615,4179.231,4150.769,4172.9490000000005,4182.179,4185.641,4187.821,4184.615,4183.205,4172.0509999999995,4185.641,4182.821,0,0
537,38,0,0,4182.179,4179.615,4184.872,4178.846,4151.923,4175.255999999999,4183.846,4185.0,4191.154,4178.974,4184.231,4171.923,4182.821,4181.923,0,0
538,39,0,0,4182.308,4177.308,4186.538,4185.641,4151.282,4175.385,4181.282,4182.564,4193.59,4181.538,4184.487,4173.59,4182.821,4180.0,0,0
539,40,0,0,4178.59,4177.179,4183.333,4185.385,4152.436,4175.255999999999,4177.9490000000005,4183.077,4188.333,4177.692,4181.282,4171.667,4183.333,4177.179,0,0
540,41,0,0,4178.846,4181.41,4183.974,4182.308,4155.128,4181.923,4181.154,4186.41,4185.513,4168.205,4185.897,4173.077,4181.026,4175.769,0,0
541,42,0,0,4176.538,4178.462,4182.0509999999995,4183.077,4155.385,4186.667,4184.103,4179.231,4187.564,4168.846,4183.59,4168.205,4175.255999999999,4175.255999999999,0,0
542,43,0,0,4167.9490000000005,4172.0509999999995,4172.0509999999995,4181.667,4154.231,4183.718,4181.923,4171.026,4185.255999999999,4170.0,4171.795,4158.462,4168.59,4166.282,0,0
543,44,0,0,4166.41,4170.769,4169.744000000001,4178.333,4154.872,4183.333,4181.538,4174.487,4184.103,4166.795,4166.282,4161.41,4169.615,4156.923,0,0
544,45,0,0,4170.0,4168.59,4179.103,4177.0509999999995,4155.641,4184.615,4183.205,4175.897,4185.769,4168.718,4170.641,4168.974,4175.513,4161.154,0,0
545,46,0,0,4176.41,4172.436,4186.154,4181.538,4160.255999999999,4183.974,4185.897,4175.513,4184.744000000001,4168.846,4179.872,4169.615,4181.026,4169.359,0,0
546,47,0,0,4186.795,4184.615,4187.179,4187.821,4168.718,4185.641,4188.333,4181.923,4185.385,4166.923,4183.846,4172.0509999999995,4183.974,4174.615,0,0
547,48,0,0,4188.846,4190.128,4187.0509999999995,4185.0,4167.692,4186.282,4186.538,4184.487,4186.538,4169.872,4173.974,4173.974,4184.487,4175.0,0,0
548,49,0,0,4184.744000000001,4184.359,4185.255999999999,4178.333,4158.718,4181.538,4183.462,4181.282,4186.282,4170.769,4166.795,4170.128,4186.026,4172.564,0,0
549,50,0,0,4180.128,4173.462,4181.026,4176.41,4158.59,4177.308,4182.564,4182.9490000000005,4186.538,4168.462,4175.255999999999,4166.282,4182.692,4170.513,0,0
550,51,0,0,4175.513,4168.718,4180.769,4176.282,4163.333,4180.641,4182.9490000000005,4183.333,4185.513,4166.41,4177.0509999999995,4160.641,4178.718,4168.333,0,0
551,52,0,0,4173.462,4171.282,4180.255999999999,4173.59,4163.846,4183.59,4182.436,4181.282,4182.308,4163.205,4167.179,4153.462,4180.769,4167.9490000000005,0,0
552,53,0,0,4173.718,4170.128,4175.641,4172.308,4166.154,4181.41,4183.077,4180.769,4183.205,4158.59,4164.359,4152.821,4179.615,4168.846,0,0
553,54,0,0,4174.872,4168.462,4174.744000000001,4174.615,4171.154,4182.0509999999995,4183.846,4182.436,4185.897,4160.513,4171.667,4155.513,4174.615,4171.026,0,0
554,55,0,0,4174.872,4169.487,4175.641,4173.333,4169.487,4183.974,4183.59,4182.0509999999995,4183.59,4167.0509999999995,4175.513,4158.718,4171.41,4171.026,0,0
555,56,0,0,4174.487,4169.231,4176.538,4171.282,4165.769,4182.436,4183.333,4175.128,4183.718,4169.359,4170.513,4163.718,4169.744000000001,4169.615,0,0
556,57,0,0,4174.359,4167.564,4180.385,4174.744000000001,4168.974,4181.667,4179.231,4173.205,4188.205,4169.231,4174.744000000001,4168.205,4174.359,4169.487,0,0
557,58,0,0,4175.0,4169.103,4183.718,4181.026,4170.897,4182.692,4178.333,4181.923,4187.821,4168.974,4182.436,4169.872,4184.744000000001,4171.026,0,0
558,59,0,0,4176.923,4177.692,4182.692,4187.179,4168.974,4180.897,4181.667,4186.923,4186.667,4169.231,4181.795,4169.615,4183.974,4172.692,0,0
559,60,0,0,4176.282,4182.0509999999995,4183.718,4183.077,4167.9490000000005,4178.077,4179.744000000001,4181.667,4186.41,4170.0,4179.744000000001,4168.718,4179.231,4171.41,0,0
560,61,0,0,4170.385,4175.897,4181.282,4176.154,4169.359,4177.692,4177.179,4175.513,4180.641,4165.255999999999,4178.846,4165.513,4183.974,4171.538,0,0
561,62,0,0,4169.231,4171.026,4174.615,4176.154,4171.154,4176.538,4182.179,4172.564,4174.359,4158.205,4172.9490000000005,4159.615,4182.0509999999995,4174.103,0,0
562,63,0,0,4170.128,4171.282,4172.692,4175.897,4170.513,4172.179,4184.359,4168.974,4171.154,4153.59,4162.9490000000005,4151.282,4171.41,4165.641,0,0
563,64,0,2634,4158.718,4168.462,4169.487,4169.103,4169.231,4169.872,4180.128,4166.667,4170.641,4150.255999999999,4160.897,4146.026,4167.436,4151.667,0,0
564,65,0,2025,4150.897,4167.9490000000005,4165.641,4168.846,4169.872,4175.897,4182.308,4167.179,4176.923,4154.103,4167.692,4149.231,4170.897,4154.487,0,0
565,66,0,3435,4162.179,4169.872,4168.846,4175.513,4170.897,4182.9490000000005,4186.795,4170.641,4185.0,4161.795,4171.667,4156.795,4172.436,4167.308,0,0
566,67,0,3387,4171.41,4168.077,4172.179,4176.923,4172.564,4185.0,4187.308,4178.077,4184.744000000001,4163.333,4168.718,4160.128,4175.513,4168.974,0,0
567,68,0,3020,4170.385,4176.282,4172.692,4178.077,4176.667,4185.255999999999,4188.333,4185.641,4184.487,4167.0509999999995,4174.359,4162.308,4183.205,4166.282,0,0
568,69,0,2628,4171.41,4182.308,4176.538,4182.436,4176.795,4184.231,4186.41,4186.667,4193.333,4177.821,4185.128,4167.0509999999995,4186.795,4171.282,0,0
569,70,0,2555,4176.154,4175.641,4182.692,4183.462,4170.769,4182.821,4182.9490000000005,4185.513,4199.615,4183.077,4185.769,4169.231,4185.0,4178.974,0,0
570,71,0,3035,4179.744000000001,4175.897,4186.795,4183.974,4172.9490000000005,4184.615,4183.077,4187.0509999999995,4195.513,4184.359,4185.128,4170.769,4185.641,4185.513,0,0
571,72,0,2478,4185.897,4187.564,4188.333,4186.538,4182.564,4188.59,4184.615,4186.667,4188.846,4183.333,4186.923,4175.0,4188.462,4188.974,0,0
572,73,0,3484,4186.538,4188.462,4186.154,4186.41,4182.564,4188.462,4187.692,4184.615,4186.667,4174.744000000001,4186.795,4174.615,4185.641,4186.667,0,0
573,74,0,3191,4175.385,4176.923,4182.436,4182.821,4175.385,4186.795,4195.0,4182.0509999999995,4185.0,4166.154,4183.333,4167.564,4181.538,4182.436,0,0
574,75,0,2947,4173.205,4176.667,4183.205,4183.974,4173.59,4187.179,4199.359,4184.231,4188.077,4167.564,4180.128,4165.897,4183.333,4181.795,0,0
575,76,0,2659,4183.333,4184.744000000001,4185.513,4186.026,4173.205,4188.205,4192.9490000000005,4195.897,4197.436,4178.077,4182.9490000000005,4169.231,4187.436,4184.359,0,0
576,77,0,3248,4184.487,4184.615,4184.103,4184.615,4171.282,4187.821,4186.154,4198.974,4199.615,4184.359,4187.0509999999995,4169.487,4188.974,4186.026,0,0
577,78,0,3191,4179.487,4181.026,4181.795,4183.59,4171.667,4186.41,4189.487,4193.077,4197.436,4183.846,4186.923,4172.0509999999995,4187.564,4185.641,0,0
578,79,0,2947,4183.205,4185.128,4182.308,4185.513,4171.282,4185.128,4193.077,4196.026,4199.103,4186.282,4187.9490000000005,4179.487,4186.41,4187.0509999999995,0,0
579,80,0,2659,4187.692,4187.692,4184.872,4186.538,4168.205,4183.462,4189.231,4196.923,4194.231,4186.795,4188.718,4180.897,4185.769,4187.9490000000005,0,0
580,81,0,3248,4184.487,4182.9490000000005,4180.0,4183.205,4167.9490000000005,4182.0509999999995,4184.487,4188.462,4185.897,4183.846,4186.667,4172.9490000000005,4186.154,4185.128,0,0
581,82,0,3191,4182.308,4182.9490000000005,4172.692,4180.641,4170.0,4181.026,4186.026,4185.255999999999,4191.795,4186.538,4185.641,4169.231,4187.0509999999995,4182.692,0,0
582,83,0,2947,4182.436,4185.769,4176.667,4183.846,4170.513,4181.923,4187.564,4187.9490000000005,4196.026,4185.769,4187.821,4171.154,4185.385,4181.795,0,0
583,84,0,2659,4183.718,4185.769,4181.41,4186.667,4169.872,4184.615,4185.769,4191.282,4191.282,4177.9490000000005,4193.846,4172.0509999999995,4183.718,4182.821,0,0
584,85,0,3248,4184.103,4185.128,4181.154,4185.255999999999,4170.769,4187.564,4192.9490000000005,4198.462,4193.718,4178.974,4196.282,4176.923,4184.744000000001,4185.128,0,0
585,86,0,3191,4184.872,4186.282,4184.615,4185.255999999999,4171.923,4189.487,4202.9490000000005,4202.9490000000005,4201.795,4188.205,4193.333,4186.795,4188.333,4186.923,0,0
586,87,0,2947,4187.179,4185.897,4187.821,4186.026,4172.179,4188.462,4198.077,4198.462,4202.821,4190.385,4196.795,4191.026,4189.872,4192.179,0,0
587,88,0,2659,4186.282,4181.41,4183.974,4184.615,4172.179,4184.744000000001,4186.667,4188.846,4194.231,4182.308,4196.667,4184.231,4181.154,4193.718,0,0
588,89,0,3248,4185.769,4180.897,4185.385,4185.769,4172.179,4183.077,4185.641,4183.333,4188.333,4176.026,4185.897,4183.333,4172.564,4191.154,0,0
589,90,0,3191,4190.641,4186.795,4189.872,4187.9490000000005,4171.282,4185.769,4187.9490000000005,4186.282,4194.103,4180.0,4188.462,4190.897,4177.821,4195.897,0,0
590,91,0,2947,4194.487,4186.795,4188.205,4186.538,4171.41,4186.923,4186.795,4190.0,4200.641,4187.9490000000005,4197.821,4192.179,4186.41,4200.769,0,0
591,92,0,2659,4193.462,4185.385,4192.0509999999995,4186.538,4174.103,4185.513,4188.974,4188.333,4193.974,4182.9490000000005,4192.692,4186.667,4183.077,4193.205,0,0
592,93,0,3248,4188.846,4186.923,4196.41,4186.282,4175.255999999999,4185.128,4189.615,4186.667,4186.667,4172.436,4184.359,4184.872,4178.718,4185.128,0,0
593,94,0,3191,4183.974,4181.667,4189.103,4183.333,4171.795,4185.128,4186.41,4185.255999999999,4190.128,4179.103,4186.538,4184.872,4182.821,4185.513,0,0
594,95,0,2947,4183.333,4176.795,4181.923,4182.436,4169.615,4185.128,4186.41,4185.255999999999,4195.769,4193.718,4193.333,4184.872,4184.872,4185.769,0,0
595,96,0,2659,4181.154,4180.0,4185.255999999999,4182.692,4170.769,4185.255999999999,4187.564,4188.462,4197.9490000000005,4194.103,4192.179,4185.897,4183.59,4185.255999999999,0,0
596,97,0,3248,4172.821,4182.0509999999995,4182.436,4181.41,4171.795,4184.872,4186.795,4189.744000000001,4192.692,4183.974,4184.615,4178.462,4182.179,4181.41,0,0
597,98,0,3191,4168.205,4179.615,4171.795,4182.436,4171.923,4182.436,4186.154,4184.872,4185.769,4179.744000000001,4183.974,4168.59,4178.59,4176.538,0,0
598,99,0,2947,4172.436,4181.538,4173.974,4185.897,4172.179,4181.667,4188.077,4185.0,4190.897,4182.9490000000005,4189.744000000001,4175.0,4178.846,4179.615,0,0
599,100,0,2659,4174.615,4184.487,4184.872,4184.615,4171.923,4186.282,4188.974,4192.821,4199.231,4188.077,4188.462,4183.718,4185.128,4184.359,0,0
600,101,0,3248,4173.462,4184.744000000001,4181.538,4181.41,4171.795,4185.128,4186.154,4193.462,4196.538,4187.9490000000005,4186.154,4176.795,4186.154,4184.103,0,0
601,102,0,3191,4177.9490000000005,4184.487,4170.769,4184.103,4170.385,4175.641,4182.9490000000005,4184.615,4192.564,4184.231,4186.154,4167.436,4183.205,4182.0509999999995,0,0
602,103,0,2947,4184.487,4185.641,4174.615,4187.0509999999995,4171.667,4175.385,4183.59,4184.231,4197.436,4186.154,4184.872,4174.872,4186.923,4182.821,0,0
603,104,0,2659,4185.128,4188.333,4185.897,4186.154,4176.41,4183.846,4184.615,4193.59,4198.974,4187.436,4187.821,4183.205,4189.103,4185.897,0,0
604,105,0,3248,4180.255999999999,4185.641,4184.103,4184.744000000001,4177.308,4186.538,4183.974,4199.872,4198.077,4186.923,4188.846,4177.436,4188.333,4185.513,0,0
605,106,0,3191,4175.385,4183.846,4173.59,4181.795,4172.821,4183.846,4185.0,4200.641,4199.103,4184.487,4183.462,4170.0,4190.385,4178.59,0,0
606,107,0,2947,4172.179,4185.641,4170.128,4182.308,4170.641,4182.0509999999995,4184.231,4195.128,4193.333,4174.487,4175.128,4168.974,4187.308,4171.795,0,0
607,108,0,2659,4171.282,4180.128,4172.436,4182.179,4171.026,4183.59,4181.923,4189.231,4186.154,4170.128,4171.026,4168.077,4181.026,4170.128,0,0
608,109,0,3248,4170.897,4168.974,4169.359,4174.359,4170.769,4181.282,4182.308,4186.795,4187.179,4173.846,4175.255999999999,4167.0509999999995,4181.41,4169.872,0,0
609,110,0,3191,4168.718,4168.846,4171.538,4173.718,4170.897,4174.359,4182.436,4184.872,4188.846,4171.41,4181.026,4168.333,4182.9490000000005,4170.0,0,0
610,111,0,2947,4171.41,4182.0509999999995,4179.487,4187.564,4172.0509999999995,4177.0509999999995,4182.821,4187.436,4188.077,4167.9490000000005,4183.077,4167.821,4182.692,4171.154,0,0
611,112,0,2659,4173.077,4184.744000000001,4175.641,4188.077,4171.795,4182.821,4183.462,4184.872,4187.821,4172.0509999999995,4181.154,4168.333,4185.513,4171.154,0,0
612,113,0,3248,4163.333,4172.821,4166.923,4172.9490000000005,4169.487,4179.615,4182.0509999999995,4173.846,4185.128,4171.538,4173.846,4167.564,4182.564,4168.59,0,0
613,114,0,3191,4156.538,4170.0,4167.692,4172.308,4171.026,4179.744000000001,4181.026,4167.564,4183.718,4166.795,4165.897,4159.615,4174.103,4165.0,0,0
614,115,0,2947,4163.846,4176.795,4169.359,4182.308,4171.795,4184.615,4182.436,4171.154,4186.154,4167.9490000000005,4170.769,4153.077,4176.026,4164.359,0,0
615,116,0,2659,4169.615,4177.564,4172.9490000000005,4184.615,4168.846,4184.615,4183.974,4172.436,4185.385,4171.026,4182.564,4159.359,4185.0,4167.692,0,0
616,117,0,3248,4169.872,4178.718,4181.282,4184.103,4174.872,4185.385,4185.641,4171.667,4185.0,4173.974,4184.359,4168.974,4185.897,4170.255999999999,0,0
617,118,0,3191,4178.846,4187.692,4185.128,4186.795,4183.333,4187.692,4188.462,4176.923,4188.077,4182.821,4181.667,4171.282,4185.0,4175.513,0,0
618,119,0,2947,4185.769,4190.128,4183.59,4187.308,4178.462,4186.667,4189.231,4183.462,4190.0,4187.308,4182.179,4172.821,4187.692,4184.615,0,0
619,120,0,2659,4177.821,4183.462,4184.103,4183.077,4168.846,4188.59,4189.615,4185.769,4188.333,4175.255999999999,4182.436,4176.282,4185.385,4182.436,0,0
620,121,0,3248,4172.564,4181.282,4183.462,4182.0509999999995,4170.897,4189.103,4195.0,4183.846,4183.846,4170.385,4180.255999999999,4176.026,4181.282,4172.692,0,0
621,122,0,3191,4179.615,4186.026,4184.359,4182.9490000000005,4181.154,4187.821,4198.974,4185.0,4185.385,4184.615,4181.795,4172.0509999999995,4182.436,4175.769,0,0
622,123,0,2947,4183.077,4186.923,4184.231,4181.923,4181.795,4188.846,4193.462,4188.974,4193.718,4190.128,4183.462,4172.179,4185.513,4184.615,0,0
623,124,0,2659,4180.385,4185.128,4183.974,4181.667,4174.359,4189.487,4187.821,4188.462,4194.231,4184.103,4182.179,4178.718,4186.154,4185.513,0,0
624,125,0,3248,4183.974,4188.59,4190.513,4184.359,4176.282,4184.487,4185.385,4182.0509999999995,4187.0509999999995,4186.026,4183.718,4185.641,4184.615,4186.538,0,0
625,126,0,3191,4188.718,4191.154,4193.205,4187.0509999999995,4184.744000000001,4176.923,4176.923,4172.9490000000005,4185.641,4182.821,4186.154,4187.692,4184.872,4187.821,0,0
626,127,0,52,4189.103,4192.692,4188.846,4188.846,4183.718,4175.513,4171.41,4167.308,4183.205,4174.359,4186.667,4187.436,4184.487,4184.359,0,0
627,0,0,2634,4186.026,4193.718,4187.436,4187.821,4180.255999999999,4174.744000000001,4175.641,4166.282,4173.59,4175.769,4184.103,4181.667,4174.872,4181.41,0,0
628,1,0,2018,4180.769,4188.974,4187.9490000000005,4184.744000000001,4182.9490000000005,4173.205,4178.205,4167.308,4172.436,4176.282,4180.385,4173.846,4167.564,4180.385,0,0
629,2,0,3435,4180.897,4186.538,4185.641,4186.667,4183.462,4175.641,4179.487,4168.718,4182.0509999999995,4174.744000000001,4180.513,4177.9490000000005,4174.231,4181.41,0,0
630,3,0,3387,4182.692,4188.718,4185.385,4189.103,4182.0509999999995,4176.923,4184.615,4173.333,4186.795,4181.795,4185.769,4186.282,4180.255999999999,4185.641,0,0
631,4,0,3020,4175.897,4185.641,4187.308,4185.513,4181.795,4176.282,4187.179,4176.667,4184.359,4187.0509999999995,4188.333,4181.154,4174.872,4181.026,0,0
632,5,0,2628,4168.333,4180.513,4184.103,4183.077,4182.564,4180.0,4184.872,4177.0509999999995,4184.231,4183.462,4185.0,4169.231,4171.41,4169.744000000001,0,0
633,6,0,2555,4172.821,4183.974,4182.436,4185.897,4184.231,4183.59,4183.718,4175.769,4186.923,4183.846,4181.667,4169.359,4177.0509999999995,4171.538,0,0
634,7,0,3035,4181.282,4187.308,4186.538,4186.282,4182.9490000000005,4182.821,4184.487,4173.077,4186.795,4185.641,4181.667,4181.282,4181.538,4181.795,0,0
635,8,0,2477,4185.255999999999,4186.41,4188.205,4185.128,4181.795,4179.359,4185.513,4170.385,4185.641,4181.667,4182.9490000000005,4184.744000000001,4181.282,4183.462,0,0
636,9,0,3485,4186.41,4187.179,4186.667,4187.436,4185.385,4173.333,4180.513,4171.41,4187.179,4182.821,4185.0,4179.359,4182.9490000000005,4181.538,0,0
637,10,0,3190,4186.667,4187.9490000000005,4188.59,4187.436,4181.795,4170.641,4172.436,4178.333,4186.538,4187.179,4187.308,4180.128,4187.436,4184.744000000001,0,0
638,11,0,2947,4186.538,4185.128,4187.308,4182.308,4172.308,4173.59,4174.231,4182.179,4185.769,4185.128,4186.282,4184.103,4187.821,4185.513,0,0
639,12,0,2655,4184.872,4184.615,4182.0509999999995,4181.154,4176.282,4178.333,4184.487,4182.821,4192.9490000000005,4183.718,4184.487,4182.308,4185.513,4183.333,0,0
640,13,0,3248,4184.487,4188.077,4185.385,4186.538,4187.179,4185.0,4189.487,4187.308,4200.641,4191.41,4185.513,4183.846,4187.692,4184.615,0,0
641,14,0,3190,4186.795,4186.41,4189.359,4187.821,4184.615,4188.59,4188.205,4191.026,4200.255999999999,4197.308,4187.179,4183.333,4189.231,4185.641,0,0
642,15,0,2947,4186.154,4181.667,4184.615,4183.462,4176.282,4187.308,4188.205,4187.179,4196.282,4192.692,4186.282,4173.077,4186.667,4177.821,0,0
643,16,0,0,4183.077,4182.308,4181.923,4183.333,4177.9490000000005,4185.897,4188.846,4182.0509999999995,4193.974,4187.308,4183.59,4168.718,4185.255999999999,4170.897,0,0
644,17,0,0,4185.128,4183.333,4184.615,4187.564,4177.9490000000005,4184.103,4188.59,4184.744000000001,4192.692,4189.615,4180.385,4172.692,4186.538,4178.077,0,0
645,18,0,0,4183.974,4176.41,4180.769,4182.692,4169.359,4183.333,4187.436,4184.103,4188.846,4190.255999999999,4185.0,4174.487,4184.487,4183.974,0,0
646,19,0,0,4171.795,4169.487,4172.436,4170.128,4170.513,4184.872,4185.385,4172.436,4182.564,4181.923,4184.872,4170.385,4180.769,4173.846,0,0
647,20,0,0,4168.718,4175.385,4174.103,4172.308,4183.59,4186.538,4185.769,4166.026,4180.897,4179.872,4171.154,4168.462,4182.0509999999995,4166.667,0,0
648,21,0,0,4183.718,4187.564,4184.615,4185.641,4190.255999999999,4187.821,4188.077,4177.179,4187.564,4188.333,4174.487,4177.0509999999995,4187.0509999999995,4178.205,0,0
649,22,0,0,4187.692,4186.282,4188.462,4182.564,4187.0509999999995,4187.436,4188.718,4183.462,4190.641,4189.872,4189.615,4183.077,4187.0509999999995,4185.0,0,0
650,23,0,0,4172.308,4173.333,4178.59,4167.9490000000005,4187.436,4187.436,4186.154,4172.179,4185.385,4184.103,4180.0,4179.231,4183.333,4175.641,0,0
651,24,0,0,4166.41,4168.462,4171.154,4168.59,4188.077,4186.282,4186.795,4169.231,4181.923,4180.255999999999,4165.385,4174.359,4181.667,4167.436,0,0
652,25,0,0,4171.795,4176.154,4177.692,4174.872,4185.641,4183.59,4192.0509999999995,4180.897,4185.128,4178.718,4174.615,4174.872,4180.385,4170.513,0,0
653,26,0,0,4172.821,4184.359,4184.744000000001,4172.308,4188.462,4184.872,4192.564,4186.667,4189.487,4180.385,4185.769,4176.923,4181.667,4176.795,0,0
654,27,0,0,4173.077,4186.026,4185.255999999999,4176.41,4192.308,4187.436,4187.821,4181.41,4189.359,4186.538,4185.513,4177.564,4185.897,4176.41,0,0
655,28,0,0,4175.385,4183.846,4184.872,4183.718,4189.872,4183.846,4185.641,4175.385,4185.385,4182.692,4177.564,4172.692,4182.179,4171.026,0,0
656,29,0,0,4174.872,4183.974,4181.282,4179.231,4186.667,4181.41,4186.41,4171.026,4182.9490000000005,4172.0509999999995,4170.769,4166.667,4176.154,4169.872,0,0
657,30,0,0,4173.205,4184.487,4177.564,4171.282,4186.026,4185.769,4190.0,4172.564,4183.846,4176.282,4174.615,4168.974,4181.41,4177.179,0,0
658,31,0,0,4174.487,4184.487,4180.385,4171.667,4188.077,4187.564,4195.897,4180.513,4186.41,4188.846,4175.769,4171.282,4188.333,4181.41,0,0
659,32,0,0,4173.846,4185.0,4183.846,4178.59,4191.667,4185.897,4198.59,4184.231,4190.385,4189.359,4172.821,4171.538,4186.41,4179.615,0,0
660,33,0,0,4175.128,4185.255999999999,4182.692,4182.308,4190.897,4187.564,4198.333,4184.487,4194.231,4184.231,4183.333,4173.846,4183.846,4181.41,0,0
661,34,0,0,4178.974,4184.744000000001,4182.0509999999995,4175.385,4185.513,4188.077,4198.462,4186.026,4190.385,4184.103,4190.769,4172.179,4184.231,4183.974,0,0
662,35,0,0,4178.846,4182.179,4181.923,4168.974,4185.769,4183.974,4194.359,4185.513,4185.255999999999,4185.897,4179.359,4170.769,4183.59,4182.9490000000005,0,0
663,36,0,0,4179.615,4180.641,4183.333,4179.103,4190.769,4179.615,4188.718,4185.255999999999,4192.692,4191.41,4176.923,4174.872,4184.615,4183.718,0,0
664,37,0,0,4182.308,4181.41,4184.615,4185.641,4187.436,4180.769,4187.9490000000005,4186.923,4201.667,4192.564,4185.385,4174.487,4187.436,4184.744000000001,0,0
665,38,0,0,4182.692,4183.974,4181.538,4181.026,4185.769,4184.744000000001,4188.077,4187.0509999999995,4197.564,4187.821,4186.667,4172.436,4187.0509999999995,4183.846,0,0
666,39,0,0,4184.359,4186.795,4181.795,4184.487,4192.436,4182.308,4186.41,4186.667,4191.026,4194.872,4187.308,4180.897,4184.744000000001,4188.333,0,0
667,40,0,0,4184.615,4187.564,4183.462,4184.487,4192.821,4175.769,4185.897,4187.436,4191.795,4200.128,4186.795,4185.513,4186.282,4191.795,0,0
668,41,0,0,4176.282,4183.077,4175.128,4173.077,4186.154,4172.436,4186.154,4185.385,4190.641,4188.974,4182.692,4176.667,4188.205,4186.41,0,0
669,42,0,0,4170.641,4174.359,4169.103,4172.179,4183.846,4172.692,4185.897,4184.231,4188.205,4186.282,4183.462,4169.872,4185.255999999999,4182.179,0,0
670,43,0,0,4176.667,4174.615,4177.308,4182.564,4186.667,4178.974,4187.436,4187.564,4195.255999999999,4201.154,4188.718,4173.077,4184.872,4185.897,0,0
671,44,0,0,4178.462,4179.615,4180.128,4179.231,4185.128,4183.462,4189.103,4188.846,4200.385,4203.846,4187.0509999999995,4175.255999999999,4188.462,4188.205,0,0
672,45,0,0,4171.923,4174.487,4171.282,4169.487,4181.538,4177.821,4186.282,4185.769,4193.205,4189.487,4185.255999999999,4169.872,4186.41,4182.179,0,0
673,46,0,0,4166.538,4167.692,4168.974,4171.795,4181.282,4175.769,4185.0,4182.821,4186.026,4181.923,4180.897,4163.846,4180.513,4173.333,0,0
674,47,0,0,4166.667,4169.231,4172.564,4176.026,4182.9490000000005,4182.564,4186.795,4182.179,4186.795,4185.128,4176.282,4165.128,4181.282,4173.718,0,0
675,48,0,0,4170.513,4171.41,4172.0509999999995,4174.744000000001,4183.333,4180.255999999999,4182.821,4180.513,4186.795,4185.897,4180.897,4169.103,4182.9490000000005,4181.41,0,0
676,49,0,0,4173.077,4173.205,4174.359,4175.255999999999,4179.615,4170.0,4176.667,4175.641,4184.231,4185.128,4185.128,4170.897,4177.308,4183.718,0,0
677,50,0,0,4172.9490000000005,4174.615,4180.0,4176.667,4178.846,4170.897,4176.41,4171.923,4185.897,4185.513,4181.538,4173.974,4173.333,4183.462,0,0
678,51,0,0,4175.255999999999,4171.795,4179.103,4171.154,4179.359,4178.974,4179.103,4174.103,4187.308,4182.179,4180.255999999999,4175.641,4176.282,4185.385,0,0
679,52,0,0,4182.692,4172.0509999999995,4181.026,4170.513,4180.255999999999,4183.462,4182.436,4181.667,4188.718,4188.59,4185.385,4179.615,4181.026,4187.9490000000005,0,0
680,53,0,0,4188.846,4175.769,4189.615,4177.9490000000005,4183.205,4184.615,4187.0509999999995,4187.436,4191.667,4201.538,4189.231,4185.513,4184.103,4191.282,0,0
681,54,0,0,4183.462,4172.0509999999995,4185.769,4175.897,4183.462,4184.744000000001,4186.154,4180.641,4190.0,4194.872,4185.769,4179.359,4187.179,4190.385,0,0
682,55,0,0,4171.667,4167.436,4171.026,4168.59,4182.821,4186.282,4181.026,4170.897,4185.128,4181.154,4173.974,4166.667,4184.487,4180.255999999999,0,0
683,56,0,0,4167.9490000000005,4168.718,4167.821,4170.769,4185.897,4187.436,4182.0509999999995,4170.897,4184.615,4181.282,4167.821,4165.513,4176.538,4171.923,0,0
684,57,0,0,4168.974,4170.385,4169.231,4174.231,4187.179,4181.923,4182.9490000000005,4171.795,4182.308,4178.846,4176.795,4167.0509999999995,4169.487,4171.795,0,0
685,58,0,0,4164.359,4168.718,4160.513,4171.923,4184.487,4172.9490000000005,4175.513,4166.923,4177.436,4170.513,4184.359,4158.718,4168.077,4171.667,0,0
686,59,0,0,4162.308,4169.231,4156.795,4169.615,4184.744000000001,4170.128,4167.564,4167.436,4181.154,4175.897,4182.821,4155.255999999999,4175.897,4170.897,0,0
687,60,0,0,4167.436,4175.769,4165.769,4171.282,4184.487,4171.41,4168.846,4173.718,4188.077,4186.154,4180.641,4161.923,4183.333,4175.0,0,0
688,61,0,0,4171.282,4182.436,4172.821,4176.795,4182.179,4171.41,4174.103,4175.385,4187.308,4187.0509999999995,4182.564,4168.205,4179.744000000001,4181.154,0,0
689,62,0,0,4176.923,4183.077,4171.41,4176.923,4184.487,4172.821,4175.897,4175.385,4186.282,4185.769,4185.769,4168.846,4177.564,4185.385,0,0
690,63,0,0,4185.513,4179.359,4171.795,4172.0509999999995,4186.41,4173.205,4176.923,4179.359,4188.846,4187.692,4185.897,4167.308,4184.103,4185.128,0,0
691,64,0,2634,4188.59,4174.872,4180.641,4177.821,4185.769,4172.179,4177.821,4185.641,4190.0,4190.385,4184.615,4175.385,4183.462,4184.744000000001,0,0
692,65,0,2018,4184.872,4172.308,4184.359,4181.026,4185.769,4174.103,4177.0509999999995,4184.359,4187.821,4189.359,4187.0509999999995,4183.846,4177.692,4186.538,0,0
693,66,0,3435,4180.385,4169.487,4175.769,4170.897,4185.897,4173.333,4173.846,4174.744000000001,4185.769,4185.769,4187.9490000000005,4180.0,4179.615,4186.795,0,0
694,67,0,3387,4180.897,4170.769,4173.718,4171.41,4185.641,4170.897,4173.462,4172.692,4186.282,4187.436,4184.744000000001,4177.308,4182.821,4185.128,0,0
695,68,0,3020,4185.0,4178.846,4182.179,4184.359,4186.795,4172.821,4174.744000000001,4175.128,4186.923,4191.795,4194.487,4182.564,4182.0509999999995,4185.641,0,0
696,69,0,2628,4185.0,4185.0,4185.897,4185.513,4185.641,4173.462,4172.0509999999995,4170.769,4183.974,4189.615,4201.026,4184.615,4182.308,4192.308,0,0
697,70,0,2555,4186.538,4184.103,4186.795,4183.462,4182.821,4171.282,4172.179,4172.0509999999995,4184.103,4188.59,4190.128,4185.255999999999,4184.615,4199.615,0,0
698,71,0,3035,4197.436,4184.744000000001,4190.0,4186.282,4183.333,4171.538,4178.462,4183.846,4190.0,4189.359,4192.308,4189.359,4187.179,4203.205,0,0
699,72,0,2477,4198.718,4188.333,4188.718,4183.205,4185.641,4171.923,4181.282,4186.923,4192.308,4188.846,4200.897,4189.103,4186.795,4199.231,0,0
700,73,0,3489,4189.359,4183.718,4186.41,4181.154,4186.154,4172.0509999999995,4182.564,4184.103,4189.487,4192.692,4189.487,4185.255999999999,4184.359,4190.897,0,0
701,74,0,3190,4188.205,4174.615,4184.615,4180.255999999999,4183.974,4172.436,4183.077,4186.154,4187.692,4193.846,4180.513,4179.359,4183.205,4186.923,0,0
702,75,0,2947,4183.846,4171.538,4177.692,4174.103,4182.308,4171.667,4176.795,4180.641,4185.513,4184.744000000001,4185.128,4167.564,4179.487,4185.641,0,0
703,76,0,2657,4171.282,4171.154,4171.667,4170.513,4182.692,4170.255999999999,4168.846,4170.385,4183.718,4178.974,4181.282,4159.359,4177.179,4180.897,0,0
704,77,0,3249,4165.641,4168.59,4168.974,4172.179,4181.026,4168.974,4166.538,4168.846,4180.769,4182.821,4177.0509999999995,4154.359,4176.282,4172.564,0,0
705,78,0,3190,4169.359,4166.667,4167.692,4172.9490000000005,4179.872,4168.462,4165.513,4168.846,4176.41,4183.333,4179.744000000001,4151.538,4175.255999999999,4170.0,0,0
706,79,0,2947,4176.41,4169.615,4173.59,4171.795,4181.41,4169.487,4165.513,4168.462,4177.564,4182.564,4178.718,4159.487,4176.154,4177.692,0,0
707,80,0,2657,4185.255999999999,4176.026,4183.462,4175.385,4182.9490000000005,4171.41,4172.436,4175.0,4183.205,4184.744000000001,4187.821,4172.9490000000005,4175.385,4187.564,0,0
708,81,0,3249,4191.41,4184.359,4186.282,4186.795,4183.846,4173.59,4179.615,4180.897,4182.821,4186.154,4198.718,4177.9490000000005,4173.59,4192.821,0,0
709,82,0,3190,4190.385,4185.0,4184.359,4188.205,4184.744000000001,4173.718,4178.333,4179.103,4179.872,4184.872,4190.385,4173.077,4171.795,4192.692,0,0
710,83,0,2947,4186.923,4177.179,4185.128,4177.821,4183.333,4172.308,4175.641,4179.872,4181.923,4180.385,4180.128,4169.872,4169.231,4188.205,0,0
711,84,0,2657,4185.513,4173.846,4180.897,4179.103,4181.282,4175.513,4181.154,4187.0509999999995,4185.255999999999,4181.795,4183.718,4171.026,4169.615,4183.59,0,0
712,85,0,3249,4184.744000000001,4174.615,4172.179,4181.282,4182.436,4180.255999999999,4188.59,4184.487,4184.487,4185.0,4186.538,4169.615,4173.077,4181.923,0,0
713,86,0,3190,4181.667,4178.333,4170.0,4169.744000000001,4183.718,4177.564,4183.974,4176.795,4182.308,4186.026,4184.744000000001,4168.846,4171.026,4184.231,0,0
714,87,0,2947,4181.282,4182.436,4171.538,4173.333,4185.0,4172.821,4174.615,4176.538,4184.103,4189.103,4184.744000000001,4166.41,4169.744000000001,4185.641,0,0
715,88,0,2657,4181.282,4178.333,4169.231,4184.872,4184.615,4170.255999999999,4169.744000000001,4174.231,4182.179,4183.462,4177.564,4159.103,4170.769,4179.103,0,0
716,89,0,3249,4172.564,4170.513,4166.282,4176.154,4181.667,4169.487,4168.974,4168.333,4172.179,4170.641,4169.359,4153.205,4165.769,4170.769,0,0
717,90,0,3190,4169.231,4168.846,4168.59,4170.128,4181.026,4175.513,4172.179,4168.846,4169.359,4168.718,4172.692,4155.769,4164.872,4170.897,0,0
718,91,0,2947,4178.205,4171.154,4172.564,4178.205,4182.0509999999995,4183.077,4173.462,4169.872,4173.974,4173.077,4174.359,4158.333,4169.615,4174.872,0,0
719,92,0,2657,4179.487,4170.255999999999,4170.385,4176.154,4183.077,4183.077,4172.9490000000005,4166.41,4172.0509999999995,4168.974,4170.769,4157.179,4170.128,4173.462,0,0
720,93,0,3249,4172.0509999999995,4167.821,4167.0509999999995,4169.103,4184.615,4181.282,4171.026,4167.179,4168.846,4165.769,4170.897,4158.077,4168.462,4170.128,0,0
721,94,0,3190,4169.359,4166.282,4168.205,4171.154,4186.026,4183.333,4172.308,4169.487,4171.026,4168.462,4172.436,4157.692,4168.974,4169.615,0,0
722,95,0,2947,4171.795,4168.205,4169.487,4173.846,4186.923,4182.308,4177.436,4169.231,4171.923,4169.103,4171.795,4158.205,4169.359,4171.538,0,0
723,96,0,2657,4173.59,4167.564,4168.59,4172.0509999999995,4185.897,4176.667,4178.59,4166.41,4171.026,4170.0,4171.667,4159.231,4168.462,4173.974,0,0
724,97,0,3249,4167.564,4158.333,4167.0509999999995,4168.462,4182.308,4171.282,4172.821,4161.667,4167.821,4165.513,4167.436,4154.359,4166.538,4169.487,0,0
725,98,0,3190,4165.0,4156.667,4168.59,4170.128,4181.667,4171.538,4169.615,4164.231,4170.128,4163.59,4166.41,4156.667,4166.282,4169.744000000001,0,0
726,99,0,2947,4178.59,4170.0,4173.205,4177.9490000000005,4183.846,4177.308,4172.9490000000005,4172.9490000000005,4182.179,4177.179,4179.615,4171.667,4168.846,4181.282,0,0
727,100,0,2657,4186.538,4173.077,4174.103,4179.487,4183.718,4177.564,4173.59,4175.385,4183.333,4188.974,4190.0,4174.487,4169.872,4182.436,0,0
728,101,0,3249,4175.385,4160.513,4170.0,4173.077,4181.282,4170.255999999999,4171.667,4171.795,4174.359,4185.769,4181.41,4159.487,4168.974,4171.41,0,0
729,102,0,3190,4169.615,4162.179,4169.615,4171.41,4181.282,4170.0,4171.923,4171.41,4178.333,4181.41,4171.154,4152.821,4169.231,4168.846,0,0
730,103,0,2947,4174.487,4168.718,4172.179,4173.462,4184.744000000001,4180.0,4173.205,4173.205,4186.667,4183.718,4171.923,4157.436,4171.282,4172.308,0,0
731,104,0,2657,4172.564,4161.154,4168.846,4172.9490000000005,4186.026,4180.385,4175.769,4175.513,4183.718,4185.641,4173.462,4156.538,4172.821,4170.255999999999,0,0
732,105,0,3249,4171.41,4160.641,4169.103,4173.974,4184.487,4175.897,4176.538,4174.872,4182.179,4187.0509999999995,4172.692,4153.462,4172.0509999999995,4168.974,0,0
733,106,0,3190,4172.692,4166.667,4170.769,4175.128,4184.487,4180.255999999999,4174.103,4170.897,4185.255999999999,4185.769,4170.255999999999,4151.795,4169.872,4169.487,0,0
734,107,0,2947,4168.462,4161.026,4166.667,4172.692,4181.923,4182.436,4175.255999999999,4174.359,4184.487,4182.692,4167.564,4152.0509999999995,4172.308,4167.436,0,0
735,108,0,2657,4167.9490000000005,4153.846,4166.923,4171.923,4174.872,4175.513,4181.795,4184.487,4185.255999999999,4186.154,4172.821,4155.641,4176.41,4170.641,0,0
736,109,0,3249,4170.769,4155.769,4169.744000000001,4171.923,4169.872,4170.769,4181.667,4186.538,4186.538,4188.462,4172.436,4158.462,4173.333,4174.359,0,0
737,110,0,3190,4170.513,4160.128,4170.0,4171.923,4168.718,4172.436,4174.615,4182.308,4186.154,4185.769,4158.59,4160.0,4169.744000000001,4172.179,0,0
738,111,0,2947,4174.487,4168.974,4175.897,4176.538,4170.641,4172.9490000000005,4169.487,4183.974,4187.0509999999995,4185.769,4156.538,4165.255999999999,4173.846,4178.205,0,0
739,112,0,2657,4184.359,4174.615,4183.846,4182.436,4173.59,4171.795,4171.154,4185.897,4187.308,4186.41,4172.821,4175.641,4176.282,4191.538,0,0
740,113,0,3249,4189.615,4170.897,4184.231,4183.846,4173.846,4172.692,4177.9490000000005,4182.308,4186.538,4183.462,4177.9490000000005,4182.9490000000005,4172.821,4193.462,0,0
741,114,0,3190,4190.641,4176.667,4184.487,4185.897,4177.179,4179.231,4183.718,4183.333,4186.154,4185.128,4170.0,4182.821,4172.436,4188.718,0,0
742,115,0,2947,4194.744000000001,4184.359,4190.769,4187.564,4183.59,4183.974,4186.154,4182.308,4185.769,4190.385,4170.897,4181.923,4172.308,4192.564,0,0
743,116,0,2657,4195.0,4175.641,4192.308,4184.744000000001,4182.308,4180.897,4188.205,4175.0,4184.487,4187.692,4175.128,4183.718,4168.718,4193.333,0,0
744,117,0,3249,4190.0,4167.692,4188.333,4182.821,4180.255999999999,4181.41,4191.41,4176.026,4182.9490000000005,4181.538,4170.897,4185.0,4167.436,4187.436,0,0
745,118,0,3190,4193.205,4172.821,4191.026,4184.103,4185.897,4187.564,4195.128,4183.974,4183.718,4182.436,4168.462,4186.538,4168.077,4191.795,0,0
746,119,0,2947,4197.9490000000005,4173.846,4198.077,4182.692,4189.615,4188.077,4200.0,4184.615,4185.0,4185.897,4172.436,4188.846,4169.487,4200.897,0,0
747,120,0,2657,4193.333,4168.59,4196.538,4183.077,4187.692,4184.872,4197.179,4184.231,4183.846,4181.923,4173.462,4187.692,4167.9490000000005,4198.974,0,0
748,121,0,3249,4187.9490000000005,4169.615,4188.846,4182.436,4186.282,4186.282,4187.821,4183.077,4182.692,4173.846,4169.872,4184.487,4161.154,4191.923,0,0
749,122,0,3190,4183.846,4169.231,4183.59,4175.0,4185.385,4183.59,4184.615,4174.103,4181.282,4168.333,4168.718,4177.692,4154.231,4188.462,0,0
750,123,0,2947,4174.359,4165.255999999999,4179.872,4170.641,4184.615,4175.513,4184.359,4169.103,4175.0,4166.667,4166.923,4171.026,4154.744000000001,4185.255999999999,0,0
751,124,0,2657,4170.513,4166.41,4179.615,4172.692,4186.026,4176.795,4181.154,4171.923,4173.59,4168.59,4166.41,4172.9490000000005,4158.462,4183.205,0,0
752,125,0,3249,4175.128,4168.718,4183.718,4176.154,4189.872,4184.231,4179.359,4172.308,4177.308,4170.513,4169.872,4174.744000000001,4160.128,4183.462,0,0
753,126,0,3190,4172.9490000000005,4169.615,4183.718,4178.205,4191.923,4182.9490000000005,4181.923,4169.615,4175.128,4169.359,4170.385,4170.513,4163.59,4182.821,0,0
754,127,0,52,4173.846,4171.538,4178.718,4176.538,4188.974,4180.769,4183.333,4171.154,4175.897,4167.9490000000005,4168.59,4169.231,4168.077,4183.333,0,0
755,0,0,2634,4185.513,4173.974,4180.0,4173.333,4187.308,4183.974,4180.0,4178.974,4183.205,4171.667,4168.59,4171.282,4170.128,4186.154,0,0
756,1,0,2020,4185.897,4174.615,4185.128,4173.333,4188.59,4182.179,4175.513,4181.41,4181.795,4175.769,4168.846,4169.359,4168.59,4186.667,0,0
757,2,0,3435,4174.359,4175.641,4183.846,4174.359,4188.59,4179.872,4173.718,4178.333,4178.974,4172.308,4168.205,4167.308,4167.436,4183.462,0,0
758,3,0,3387,4176.026,4176.923,4180.769,4175.0,4186.923,4181.667,4175.641,4182.436,4185.0,4170.513,4168.974,4169.487,4170.641,4186.538,0,0
759,4,0,3020,4183.846,4174.487,4183.462,4175.385,4186.795,4177.9490000000005,4176.026,4187.692,4187.9490000000005,4178.718,4171.41,4171.538,4172.179,4191.026,0,0
760,5,0,2628,4177.564,4170.641,4182.436,4171.538,4188.59,4173.59,4175.0,4182.9490000000005,4184.487,4183.462,4171.667,4167.821,4171.282,4184.872,0,0
761,6,0,2555,4170.641,4169.487,4174.103,4169.487,4188.077,4178.462,4177.436,4182.308,4186.026,4182.9490000000005,4169.744000000001,4165.255999999999,4172.179,4177.436,0,0
762,7,0,3035,4172.692,4171.282,4172.179,4172.821,4186.154,4182.821,4179.872,4188.974,4188.718,4182.692,4171.41,4167.821,4174.615,4178.718,0,0
763,8,0,2477,4169.487,4165.769,4171.026,4170.641,4183.974,4176.795,4175.128,4187.179,4183.846,4174.103,4168.718,4162.692,4168.462,4176.026,0,0
764,9,0,3490,4164.231,4155.255999999999,4165.897,4165.513,4182.436,4170.769,4169.359,4182.308,4180.128,4165.641,4158.333,4152.436,4158.974,4166.154,0,0
765,10,0,3190,4165.513,4157.564,4166.154,4168.077,4180.769,4171.667,4171.923,4182.0509999999995,4182.179,4171.667,4158.974,4152.308,4160.641,4167.821,0,0
766,11,0,2947,4170.641,4168.462,4172.692,4172.564,4182.179,4172.308,4177.0509999999995,4181.923,4183.718,4176.282,4168.718,4157.179,4168.205,4173.462,0,0
767,12,0,2654,4174.487,4170.255999999999,4175.255999999999,4172.692,4185.513,4172.0509999999995,4175.0,4181.667,4184.103,4171.795,4168.205,4156.923,4170.513,4172.564,0,0
768,13,0,3249,4171.667,4166.795,4173.333,4172.564,4182.179,4172.821,4170.0,4183.718,4179.615,4169.359,4164.744000000001,4155.769,4165.641,4176.41,0,0
769,14,0,3190,4174.103,4169.231,4178.077,4174.872,4177.308,4172.308,4173.205,4183.205,4172.436,4168.205,4169.359,4158.333,4159.744000000001,4183.59,0,0
770,15,0,2947,4182.179,4170.769,4182.0509999999995,4175.513,4175.255999999999,4171.538,4178.333,4176.282,4171.923,4170.385,4165.641,4160.128,4159.359,4184.359,0,0
771,16,0,0,4177.179,4168.974,4175.255999999999,4172.9490000000005,4173.205,4171.667,4173.846,4170.385,4174.231,4169.487,4158.077,4157.564,4159.744000000001,4178.718,0,0
772,17,0,0,4170.0,4168.59,4167.821,4172.308,4169.487,4171.41,4168.077,4170.0,4172.564,4158.205,4164.872,4153.974,4154.615,4172.9490000000005,0,0
773,18,0,0,4178.718,4167.0509999999995,4171.154,4171.282,4169.231,4170.769,4171.538,4170.255999999999,4170.897,4156.41,4173.333,4152.9490000000005,4150.513,4170.769,0,0
