,COUNTER, INTERPOLATED, RAW_CQ, AF3, F7, F3, FC5, T7, P7, O1, O2, P8, T8, FC6, F4, F8, AF4, MARKER_HARDWARE, MARKER
0,85,0,3262,4189.615,4192.0509999999995,4202.692,4189.744000000001,4183.205,4172.9490000000005,4182.821,4173.205,4184.744000000001,4174.487,4190.385,4186.795,4173.077,4203.333,0,0
1,86,0,3113,4186.154,4186.154,4196.538,4183.59,4182.0509999999995,4172.179,4174.744000000001,4168.718,4180.128,4167.308,4187.564,4184.744000000001,4172.564,4201.282,0,0
2,87,0,2918,4186.538,4186.538,4191.154,4182.436,4177.692,4174.487,4177.436,4166.923,4182.179,4165.128,4182.436,4184.231,4169.872,4200.255999999999,0,0
3,88,0,2574,4189.231,4187.821,4196.667,4182.9490000000005,4176.41,4174.231,4183.333,4175.513,4185.513,4178.077,4188.205,4186.923,4174.231,4202.9490000000005,0,0
4,89,0,3262,4193.718,4191.795,4200.513,4183.205,4181.026,4177.179,4183.462,4183.846,4183.59,4177.564,4191.41,4188.846,4183.846,4204.487,0,0
5,90,0,3113,4193.333,4192.308,4195.0,4185.255999999999,4183.077,4179.615,4183.462,4182.692,4184.615,4166.026,4186.795,4187.821,4184.103,4201.923,0,0
6,91,0,2918,4189.487,4184.744000000001,4192.564,4183.718,4182.821,4173.59,4187.179,4189.231,4195.128,4177.436,4186.923,4185.769,4182.436,4201.667,0,0
7,92,0,2574,4193.59,4184.103,4198.333,4181.923,4182.9490000000005,4173.333,4191.923,4201.923,4200.513,4190.385,4189.359,4189.487,4185.897,4202.0509999999995,0,0
8,93,0,3262,4198.077,4187.436,4200.513,4185.897,4182.308,4185.255999999999,4194.744000000001,4202.821,4196.41,4176.795,4189.744000000001,4196.154,4186.538,4200.128,0,0
9,94,0,3113,4200.769,4185.255999999999,4202.436,4188.59,4183.462,4188.462,4197.564,4200.128,4195.0,4166.538,4194.872,4201.026,4183.205,4205.0,0,0
10,95,0,2918,4211.795,4191.923,4210.128,4185.385,4185.513,4182.308,4197.9490000000005,4199.231,4199.872,4180.641,4201.795,4206.923,4179.872,4217.179,0,0
11,96,0,2574,4226.282,4203.974,4215.769,4190.0,4186.795,4182.9490000000005,4193.846,4190.385,4199.359,4190.255999999999,4203.462,4215.897,4178.462,4228.077,0,0
12,97,0,3262,4232.0509999999995,4205.385,4214.615,4196.282,4185.385,4185.897,4187.821,4183.462,4190.641,4184.615,4203.846,4220.0,4175.513,4233.974,0,0
13,98,0,3113,4232.436,4203.59,4213.205,4195.0,4184.487,4183.205,4187.436,4185.513,4185.255999999999,4184.487,4200.513,4211.795,4173.974,4234.231,0,0
14,99,0,2918,4228.077,4203.462,4214.231,4193.205,4192.564,4181.154,4188.205,4185.769,4185.897,4183.718,4198.333,4203.333,4178.333,4229.359,0,0
15,100,0,2574,4219.872,4199.872,4212.308,4190.769,4195.385,4181.538,4184.487,4184.744000000001,4186.026,4173.462,4200.513,4204.487,4176.026,4223.077,0,0
16,101,0,3262,4215.255999999999,4196.795,4208.077,4187.308,4188.077,4183.718,4183.59,4183.205,4184.615,4171.41,4192.436,4199.615,4167.9490000000005,4214.487,0,0
17,102,0,3113,4212.564,4199.872,4203.205,4187.564,4186.41,4187.308,4185.641,4181.154,4183.205,4174.615,4181.154,4185.769,4172.692,4208.846,0,0
18,103,0,2918,4210.0,4200.641,4200.255999999999,4189.231,4189.231,4185.0,4185.513,4182.564,4185.255999999999,4170.513,4184.615,4181.923,4182.821,4211.282,0,0
19,104,0,2574,4207.692,4198.59,4198.974,4186.923,4187.436,4181.923,4184.744000000001,4185.255999999999,4192.9490000000005,4176.795,4190.255999999999,4186.538,4184.872,4213.333,0,0
20,105,0,3262,4206.026,4199.872,4198.077,4187.436,4187.0509999999995,4186.026,4181.026,4187.9490000000005,4199.359,4192.0509999999995,4187.308,4184.359,4185.128,4213.462,0,0
21,106,0,3113,4202.308,4197.436,4197.436,4188.974,4189.231,4183.718,4171.538,4193.974,4199.872,4192.821,4184.872,4186.154,4184.872,4213.462,0,0
22,107,0,2918,4202.692,4189.615,4197.436,4186.667,4187.179,4177.0509999999995,4170.641,4197.564,4199.615,4188.462,4193.205,4197.821,4184.487,4215.385,0,0
23,108,0,2574,4210.255999999999,4186.923,4200.769,4188.077,4186.154,4180.385,4182.9490000000005,4196.538,4199.872,4190.255999999999,4204.359,4204.615,4188.462,4217.564,0,0
24,109,0,3262,4208.718,4187.564,4202.564,4188.333,4187.0509999999995,4186.026,4187.436,4198.333,4199.615,4187.0509999999995,4204.615,4203.718,4188.205,4216.538,0,0
25,110,0,3113,4200.0,4185.769,4202.0509999999995,4187.564,4187.9490000000005,4187.0509999999995,4186.282,4201.923,4200.128,4185.255999999999,4200.513,4204.103,4184.231,4214.615,0,0
26,111,0,2918,4205.0,4186.923,4202.436,4187.179,4187.179,4187.821,4191.795,4201.538,4199.615,4187.0509999999995,4202.692,4208.205,4183.462,4215.897,0,0
27,112,0,2574,4214.103,4189.744000000001,4202.821,4188.462,4185.128,4188.718,4192.821,4200.0,4197.0509999999995,4179.359,4202.564,4208.333,4185.897,4216.667,0,0
28,113,0,3262,4209.103,4192.821,4206.667,4193.205,4186.154,4189.744000000001,4189.231,4198.974,4197.179,4183.846,4198.077,4204.744000000001,4188.59,4214.872,0,0
29,114,0,3113,4206.41,4198.846,4212.692,4198.59,4187.692,4188.846,4189.872,4199.103,4199.359,4198.718,4196.282,4205.513,4186.154,4216.282,0,0
30,115,0,2918,4216.026,4202.564,4217.0509999999995,4201.795,4187.308,4184.487,4187.9490000000005,4201.538,4201.538,4195.255999999999,4198.077,4209.359,4183.59,4218.205,0,0
31,116,0,2574,4215.513,4201.923,4213.59,4198.205,4185.897,4185.513,4183.718,4195.897,4203.333,4182.436,4200.641,4206.795,4181.026,4215.513,0,0
32,117,0,3262,4205.0,4198.077,4204.487,4186.923,4184.487,4187.179,4182.9490000000005,4188.59,4197.9490000000005,4181.538,4201.538,4199.615,4172.308,4214.744000000001,0,0
33,118,0,3113,4202.821,4196.923,4200.641,4183.846,4184.487,4184.359,4185.897,4196.538,4191.923,4185.641,4197.9490000000005,4198.077,4168.718,4213.462,0,0
34,119,0,2918,4205.255999999999,4198.718,4203.462,4197.436,4186.923,4186.026,4189.231,4202.308,4197.692,4185.513,4194.359,4197.692,4173.205,4206.026,0,0
35,120,0,2574,4200.385,4194.487,4201.282,4199.487,4187.564,4187.692,4188.846,4188.846,4200.0,4188.077,4193.718,4190.897,4169.744000000001,4200.128,0,0
36,121,0,3262,4194.872,4187.564,4196.026,4187.436,4178.205,4184.487,4185.769,4181.154,4188.974,4179.872,4191.026,4186.282,4162.9490000000005,4201.154,0,0
37,122,0,3113,4195.385,4187.821,4197.179,4184.359,4170.385,4184.744000000001,4185.769,4186.154,4184.744000000001,4171.795,4184.744000000001,4192.0509999999995,4166.026,4200.255999999999,0,0
38,123,0,2918,4198.205,4193.333,4198.718,4189.487,4175.513,4187.0509999999995,4186.923,4185.641,4187.692,4181.795,4190.255999999999,4199.487,4169.103,4202.564,0,0
39,124,0,2574,4203.718,4199.231,4200.769,4193.974,4182.9490000000005,4185.255999999999,4185.513,4189.359,4186.154,4183.718,4205.897,4202.9490000000005,4168.077,4213.846,0,0
40,125,0,3262,4203.59,4197.436,4202.564,4189.231,4183.59,4184.615,4185.769,4199.359,4192.0509999999995,4174.872,4202.821,4203.333,4169.487,4217.692,0,0
41,126,0,3113,4201.923,4188.974,4200.769,4184.231,4183.59,4187.179,4187.308,4202.564,4203.462,4187.179,4189.359,4202.308,4170.769,4212.308,0,0
42,127,0,52,4210.897,4192.564,4201.923,4193.59,4185.897,4187.436,4186.667,4201.795,4202.692,4205.0,4195.641,4201.41,4168.718,4212.692,0,0
43,0,0,2574,4217.821,4203.974,4205.255999999999,4204.872,4186.538,4186.026,4186.667,4203.205,4198.333,4194.615,4206.795,4201.795,4168.59,4216.41,0,0
44,1,0,1969,4216.282,4204.231,4203.333,4199.359,4185.641,4186.538,4185.0,4201.667,4200.385,4180.641,4200.0,4203.205,4170.128,4216.026,0,0
45,2,0,3427,4212.821,4200.641,4200.513,4189.872,4181.667,4185.769,4174.231,4197.0509999999995,4199.615,4185.385,4196.154,4200.897,4163.59,4215.897,0,0
46,3,0,3363,4211.538,4200.385,4201.41,4189.487,4179.231,4181.026,4165.897,4199.359,4195.897,4187.0509999999995,4198.205,4192.564,4159.231,4212.436,0,0
47,4,0,3004,4209.744000000001,4197.308,4201.41,4190.641,4182.0509999999995,4181.41,4173.077,4202.9490000000005,4197.692,4183.333,4190.769,4185.641,4166.41,4202.179,0,0
48,5,0,2600,4206.538,4191.538,4197.821,4190.128,4182.564,4184.872,4178.718,4197.436,4200.0,4181.923,4185.897,4183.718,4167.308,4198.974,0,0
49,6,0,2506,4201.667,4186.538,4196.667,4186.026,4181.667,4183.205,4176.923,4192.9490000000005,4196.538,4186.282,4186.667,4186.026,4161.538,4202.179,0,0
50,7,0,3030,4200.641,4187.564,4199.872,4186.923,4184.359,4184.487,4182.308,4195.513,4192.821,4192.821,4186.282,4192.821,4166.538,4200.0,0,0
51,8,0,2446,4204.872,4193.205,4203.205,4193.077,4187.9490000000005,4189.615,4189.231,4193.846,4191.41,4193.59,4192.179,4195.897,4172.179,4198.846,0,0
52,9,0,3478,4201.154,4191.41,4198.333,4190.513,4184.615,4189.103,4187.179,4193.205,4187.692,4189.615,4196.538,4188.974,4169.359,4203.846,0,0
53,10,0,3111,4189.487,4184.231,4189.872,4183.462,4175.255999999999,4186.41,4184.615,4197.821,4183.974,4179.103,4186.923,4183.205,4165.0,4198.846,0,0
54,11,0,2916,4181.282,4181.923,4184.615,4182.436,4173.077,4184.487,4185.513,4190.641,4183.462,4173.718,4182.179,4182.9490000000005,4159.487,4190.0,0,0
55,12,0,2563,4188.462,4185.769,4187.0509999999995,4186.795,4182.9490000000005,4182.308,4184.231,4181.795,4185.128,4181.282,4188.462,4185.0,4160.513,4196.026,0,0
56,13,0,3258,4203.077,4190.128,4192.564,4187.564,4184.872,4185.0,4183.462,4186.026,4187.9490000000005,4185.513,4184.231,4187.308,4167.0509999999995,4203.974,0,0
57,14,0,3111,4199.487,4189.744000000001,4190.128,4185.385,4171.026,4181.538,4183.974,4189.744000000001,4188.974,4182.564,4177.9490000000005,4185.641,4160.385,4197.308,0,0
58,15,0,2916,4189.231,4186.41,4185.385,4184.103,4170.0,4172.9490000000005,4183.846,4193.59,4185.255999999999,4183.846,4182.821,4180.255999999999,4151.026,4191.026,0,0
59,16,0,0,4193.077,4187.436,4189.231,4186.026,4179.487,4178.718,4183.846,4203.718,4192.308,4189.744000000001,4190.128,4181.41,4160.897,4197.9490000000005,0,0
60,17,0,0,4194.231,4188.333,4189.359,4188.462,4173.718,4191.41,4183.846,4199.744000000001,4199.359,4187.308,4191.154,4185.255999999999,4172.564,4203.077,0,0
61,18,0,0,4184.615,4186.154,4181.795,4188.205,4171.538,4184.487,4184.615,4190.641,4194.487,4190.385,4186.795,4183.846,4168.974,4196.026,0,0
62,19,0,0,4182.9490000000005,4183.077,4183.077,4187.308,4183.077,4168.462,4184.359,4195.128,4191.667,4193.205,4183.462,4181.923,4166.026,4192.0509999999995,0,0
63,20,0,0,4190.128,4182.9490000000005,4189.231,4187.692,4181.923,4174.744000000001,4182.692,4193.718,4192.9490000000005,4177.0509999999995,4185.769,4184.487,4168.718,4197.692,0,0
64,21,0,0,4192.0509999999995,4191.795,4187.692,4188.974,4175.513,4192.179,4185.641,4186.282,4188.59,4172.0509999999995,4190.641,4188.59,4169.231,4202.308,0,0
65,22,0,0,4190.128,4197.436,4185.385,4191.154,4182.0509999999995,4187.179,4184.872,4187.692,4182.564,4184.872,4189.872,4186.41,4167.179,4200.255999999999,0,0
66,23,0,0,4191.41,4187.821,4183.846,4189.872,4184.744000000001,4173.205,4173.718,4182.564,4183.205,4180.128,4184.487,4182.436,4168.462,4197.179,0,0
67,24,0,0,4198.205,4185.897,4188.462,4186.923,4181.41,4180.0,4168.718,4173.846,4185.769,4168.333,4185.641,4191.282,4170.513,4202.692,0,0
68,25,0,0,4205.128,4195.769,4198.077,4191.923,4182.692,4189.615,4178.077,4187.436,4188.846,4180.0,4191.41,4199.744000000001,4169.231,4210.128,0,0
69,26,0,0,4199.103,4192.564,4193.974,4197.436,4181.795,4183.077,4182.9490000000005,4199.872,4188.718,4190.897,4188.205,4190.255999999999,4167.564,4206.154,0,0
70,27,0,0,4191.538,4185.513,4183.846,4190.769,4177.0509999999995,4178.462,4176.538,4190.641,4184.872,4186.026,4183.462,4180.255999999999,4169.487,4198.718,0,0
71,28,0,0,4196.667,4192.436,4187.564,4184.744000000001,4173.974,4182.308,4173.205,4185.255999999999,4187.308,4182.179,4188.205,4183.718,4172.821,4202.436,0,0
72,29,0,0,4201.41,4197.692,4193.077,4191.795,4176.026,4183.077,4175.897,4187.692,4187.692,4180.0,4187.692,4186.41,4170.128,4204.744000000001,0,0
73,30,0,0,4201.538,4198.333,4193.077,4198.974,4182.436,4180.385,4179.872,4191.282,4184.231,4179.872,4185.255999999999,4189.103,4165.385,4199.615,0,0
74,31,0,0,4206.667,4200.128,4197.692,4195.897,4184.615,4184.359,4183.205,4197.821,4188.462,4185.385,4194.872,4200.255999999999,4173.077,4205.0,0,0
75,32,0,0,4213.59,4200.513,4202.436,4195.769,4184.231,4190.513,4185.385,4203.333,4200.385,4194.103,4204.231,4206.026,4184.231,4215.897,0,0
76,33,0,0,4213.59,4205.513,4200.897,4201.667,4186.923,4188.077,4185.513,4200.897,4203.462,4201.667,4198.077,4203.333,4183.59,4213.718,0,0
77,34,0,0,4214.359,4215.769,4202.821,4204.487,4188.59,4182.692,4186.667,4201.923,4197.179,4202.564,4191.923,4201.667,4181.154,4207.9490000000005,0,0
78,35,0,0,4217.436,4218.974,4208.205,4204.487,4188.974,4187.436,4191.282,4212.436,4199.872,4198.718,4200.641,4203.974,4184.872,4215.385,0,0
79,36,0,0,4217.308,4215.897,4207.436,4203.462,4187.9490000000005,4193.718,4192.821,4211.154,4203.333,4195.255999999999,4208.077,4206.154,4185.128,4222.9490000000005,0,0
80,37,0,0,4214.744000000001,4216.538,4201.154,4199.615,4183.59,4183.205,4186.923,4195.385,4191.538,4188.59,4200.769,4199.103,4180.769,4213.59,0,0
81,38,0,0,4211.282,4215.769,4199.872,4199.103,4183.718,4171.026,4184.359,4187.0509999999995,4182.9490000000005,4186.923,4194.744000000001,4188.846,4182.821,4204.615,0,0
82,39,0,0,4204.487,4206.154,4199.615,4201.026,4181.026,4177.308,4188.205,4189.872,4192.821,4191.923,4201.154,4188.077,4185.769,4205.641,0,0
83,40,0,0,4198.974,4198.462,4190.641,4198.718,4170.255999999999,4186.282,4182.0509999999995,4187.692,4199.615,4191.538,4199.359,4189.744000000001,4178.718,4204.744000000001,0,0
84,41,0,0,4198.333,4199.487,4186.41,4198.846,4167.821,4181.667,4172.0509999999995,4186.154,4192.308,4189.231,4190.769,4187.564,4171.026,4201.154,0,0
85,42,0,0,4193.846,4202.821,4189.231,4196.667,4172.179,4174.744000000001,4168.59,4193.718,4186.41,4185.769,4187.564,4184.615,4169.103,4198.462,0,0
86,43,0,0,4189.103,4201.923,4188.846,4189.487,4170.128,4172.179,4170.385,4198.974,4187.9490000000005,4182.821,4186.026,4185.0,4167.564,4196.538,0,0
87,44,0,0,4197.308,4200.897,4193.718,4192.0509999999995,4174.872,4178.59,4179.487,4201.41,4194.744000000001,4187.9490000000005,4194.872,4195.128,4173.077,4201.026,0,0
88,45,0,0,4204.872,4203.59,4199.744000000001,4200.128,4185.769,4188.846,4183.974,4204.103,4198.846,4190.897,4207.179,4202.692,4186.538,4206.795,0,0
89,46,0,0,4200.769,4203.59,4195.385,4200.255999999999,4179.872,4182.0509999999995,4173.846,4198.205,4191.282,4182.9490000000005,4197.9490000000005,4191.923,4184.487,4202.9490000000005,0,0
90,47,0,0,4200.0,4203.333,4194.103,4200.128,4174.615,4176.282,4167.436,4187.9490000000005,4183.846,4181.41,4186.41,4187.308,4175.641,4199.615,0,0
91,48,0,0,4206.41,4206.795,4201.538,4202.308,4183.846,4188.205,4172.692,4185.128,4187.436,4190.255999999999,4193.718,4196.41,4180.0,4202.9490000000005,0,0
92,49,0,0,4205.385,4208.205,4202.308,4200.128,4185.128,4177.0509999999995,4169.744000000001,4185.897,4189.231,4187.821,4196.026,4192.821,4180.128,4201.667,0,0
93,50,0,0,4201.026,4205.385,4195.128,4198.718,4176.282,4141.923,4163.462,4182.308,4183.846,4179.872,4187.308,4182.9490000000005,4170.255999999999,4197.564,0,0
94,51,0,0,4202.179,4203.205,4190.769,4199.615,4175.385,4132.564,4167.821,4180.769,4184.103,4181.795,4184.231,4179.103,4168.077,4194.872,0,0
95,52,0,0,4200.255999999999,4201.795,4189.231,4200.255999999999,4175.769,4146.538,4172.179,4183.974,4187.9490000000005,4186.154,4183.59,4173.333,4173.718,4189.872,0,0
96,53,0,0,4189.231,4199.103,4185.513,4198.718,4170.897,4149.103,4169.872,4181.923,4188.077,4179.744000000001,4185.128,4166.667,4179.744000000001,4181.923,0,0
97,54,0,0,4183.205,4198.718,4182.821,4195.513,4172.308,4152.692,4172.692,4183.205,4190.385,4175.897,4188.333,4167.179,4185.128,4183.846,0,0
98,55,0,0,4190.128,4201.538,4186.41,4198.718,4175.897,4169.487,4180.641,4195.255999999999,4199.359,4184.487,4189.359,4176.154,4186.923,4194.231,0,0
99,56,0,0,4191.026,4200.385,4186.923,4196.795,4173.718,4178.205,4178.077,4199.487,4201.795,4188.846,4189.103,4179.487,4182.692,4193.077,0,0
100,57,0,0,4179.359,4193.462,4176.538,4188.205,4167.179,4172.564,4168.333,4188.59,4190.513,4182.308,4189.231,4170.769,4179.487,4184.103,0,0
101,58,0,0,4178.718,4188.462,4173.077,4188.846,4164.487,4172.436,4167.436,4181.795,4182.436,4183.077,4187.0509999999995,4166.923,4182.179,4183.974,0,0
102,59,0,0,4183.846,4191.154,4175.385,4194.231,4168.333,4179.103,4168.077,4185.897,4186.41,4187.179,4187.692,4174.103,4185.0,4189.615,0,0
103,60,0,0,4176.41,4189.487,4172.0509999999995,4188.718,4165.385,4176.026,4160.513,4186.282,4188.974,4182.179,4187.179,4173.077,4181.667,4188.462,0,0
104,61,0,0,4175.769,4188.077,4175.641,4182.821,4160.0,4170.897,4156.41,4182.564,4185.897,4183.974,4184.872,4168.077,4180.0,4187.308,0,0
105,62,0,0,4190.641,4196.026,4187.692,4193.59,4166.154,4174.744000000001,4158.974,4181.154,4186.154,4186.667,4191.026,4178.205,4185.128,4192.564,0,0
106,63,0,0,4193.462,4195.897,4188.718,4200.0,4171.154,4176.282,4158.333,4181.795,4188.462,4173.59,4194.359,4182.9490000000005,4185.255999999999,4193.333,0,0
107,64,0,2574,4182.692,4186.282,4180.641,4193.205,4166.026,4170.769,4156.282,4182.564,4185.255999999999,4168.718,4184.103,4168.462,4179.872,4182.821,0,0
108,65,0,1976,4181.795,4184.872,4181.538,4192.308,4165.513,4168.974,4157.0509999999995,4182.564,4184.231,4172.9490000000005,4178.974,4156.026,4179.359,4172.692,0,0
109,66,0,3430,4186.795,4188.59,4185.769,4200.0,4170.128,4172.564,4157.179,4182.821,4187.308,4168.333,4186.41,4156.41,4181.923,4171.282,0,0
110,67,0,3363,4185.385,4191.026,4185.128,4201.41,4170.255999999999,4172.9490000000005,4155.513,4182.821,4189.615,4171.154,4187.9490000000005,4157.692,4184.103,4169.744000000001,0,0
111,68,0,3004,4184.231,4196.923,4185.897,4199.487,4170.641,4172.179,4155.897,4185.641,4192.308,4189.231,4182.9490000000005,4162.308,4188.718,4173.462,0,0
112,69,0,2610,4186.154,4201.026,4188.333,4202.436,4171.41,4177.564,4154.744000000001,4190.641,4192.564,4191.282,4189.359,4172.9490000000005,4190.769,4183.718,0,0
113,70,0,2506,4188.333,4199.231,4187.564,4202.692,4170.641,4182.0509999999995,4152.308,4186.795,4186.026,4177.0509999999995,4198.974,4173.077,4182.0509999999995,4186.154,0,0
114,71,0,3030,4192.436,4197.692,4188.974,4202.0509999999995,4170.769,4176.667,4153.205,4175.769,4182.179,4180.385,4200.128,4173.718,4178.077,4189.103,0,0
115,72,0,2446,4197.308,4191.282,4193.077,4201.026,4171.026,4169.487,4153.333,4166.923,4182.564,4186.282,4200.897,4182.0509999999995,4181.667,4200.513,0,0
116,73,0,3482,4196.795,4185.0,4194.487,4197.564,4170.641,4170.385,4149.231,4162.436,4178.077,4174.103,4201.154,4180.641,4175.385,4203.974,0,0
117,74,0,3111,4188.974,4192.436,4195.128,4197.308,4171.026,4175.0,4151.667,4163.718,4170.513,4163.205,4189.744000000001,4172.0509999999995,4169.744000000001,4192.821,0,0
118,75,0,2923,4187.436,4199.231,4197.0509999999995,4201.41,4171.667,4176.154,4155.513,4169.744000000001,4171.667,4167.564,4181.41,4171.795,4176.026,4188.333,0,0
119,76,0,2579,4188.718,4190.897,4192.0509999999995,4198.718,4171.282,4174.103,4147.0509999999995,4167.9490000000005,4178.718,4170.769,4179.359,4171.538,4178.718,4187.0509999999995,0,0
120,77,0,3262,4178.205,4181.41,4179.103,4189.103,4170.0,4173.462,4141.795,4162.0509999999995,4182.179,4165.769,4168.333,4160.513,4176.41,4174.231,0,0
121,78,1,3165,4178.333,4181.282,4179.231,4188.205,4170.255999999999,4173.333,4143.718,4165.255999999999,4182.821,4167.821,4172.9490000000005,4163.974,4178.205,4176.282,0,0
122,79,1,3068,4178.462,4181.154,4179.359,4187.308,4170.513,4173.205,4145.641,4168.462,4183.462,4169.872,4177.564,4167.436,4180.0,4178.333,0,0
123,80,1,2971,4178.59,4181.026,4179.487,4186.41,4170.769,4173.077,4147.564,4171.667,4184.103,4171.923,4182.179,4170.897,4181.795,4180.385,0,0
124,81,1,2874,4178.718,4180.897,4179.615,4185.513,4171.026,4172.9490000000005,4149.487,4174.872,4184.744000000001,4173.974,4186.795,4174.359,4183.59,4182.436,0,0
125,82,1,2777,4178.846,4180.769,4179.744000000001,4184.615,4171.282,4172.821,4151.41,4178.077,4185.385,4176.026,4191.41,4177.821,4185.385,4184.487,0,0
126,83,1,2680,4178.974,4180.641,4179.872,4183.718,4171.538,4172.692,4153.333,4181.282,4186.026,4178.077,4196.026,4181.282,4187.179,4186.538,0,0
127,84,0,2579,4179.872,4179.744000000001,4180.513,4182.436,4171.795,4172.0509999999995,4155.385,4185.255999999999,4187.0509999999995,4180.641,4201.154,4185.255999999999,4189.231,4188.846,0,0
128,85,0,3262,4185.769,4196.026,4183.974,4196.154,4176.538,4173.205,4154.744000000001,4182.821,4191.282,4189.359,4199.487,4173.205,4202.821,4187.564,0,0
129,86,0,3111,4197.9490000000005,4211.026,4187.436,4207.9490000000005,4184.615,4170.513,4153.846,4175.0,4187.436,4189.872,4179.231,4176.538,4204.615,4193.333,0,0
130,87,0,2923,4195.769,4206.026,4185.513,4199.103,4188.077,4172.692,4152.692,4170.0,4184.359,4185.128,4168.59,4180.0,4201.667,4193.974,0,0
131,88,0,2579,4184.231,4199.103,4181.538,4190.0,4183.077,4176.667,4156.41,4173.974,4185.0,4185.0,4174.487,4167.0509999999995,4202.0509999999995,4180.255999999999,0,0
132,89,0,3262,4183.205,4200.385,4178.974,4196.41,4175.769,4173.718,4158.462,4174.231,4182.179,4173.462,4171.795,4162.564,4195.0,4172.9490000000005,0,0
133,90,0,3111,4186.795,4200.769,4180.641,4202.436,4177.0509999999995,4176.282,4151.41,4168.077,4182.9490000000005,4164.487,4155.385,4172.0509999999995,4193.974,4176.923,0,0
134,91,0,2923,4180.769,4200.385,4179.872,4194.359,4182.821,4186.026,4155.128,4169.231,4184.103,4170.641,4153.333,4171.154,4195.0,4174.103,0,0
135,92,0,2579,4173.077,4202.308,4176.538,4190.769,4184.231,4184.872,4167.436,4176.667,4181.154,4168.333,4172.9490000000005,4165.128,4186.667,4168.718,0,0
136,93,0,3262,4169.872,4202.0509999999995,4172.436,4197.308,4185.385,4181.026,4161.282,4176.923,4182.436,4161.41,4169.872,4169.103,4188.462,4170.385,0,0
137,94,0,3111,4167.179,4201.923,4167.821,4200.897,4189.231,4180.255999999999,4147.564,4173.974,4185.128,4163.462,4143.205,4168.59,4199.359,4170.897,0,0
138,95,0,2923,4168.205,4216.923,4168.846,4202.179,4187.692,4176.154,4150.897,4181.282,4185.385,4170.0,4149.359,4158.59,4199.231,4170.897,0,0
139,96,0,2579,4165.641,4230.255999999999,4170.769,4205.641,4186.154,4169.231,4155.769,4188.333,4185.513,4173.462,4158.59,4152.821,4196.538,4170.128,0,0
140,97,0,3262,4155.769,4221.282,4164.744000000001,4200.513,4186.795,4168.846,4155.0,4183.974,4184.103,4165.513,4140.0,4152.821,4200.513,4165.513,0,0
141,98,0,3111,4158.333,4223.333,4166.282,4191.41,4184.231,4177.179,4167.308,4181.026,4181.667,4155.128,4139.615,4158.718,4200.641,4170.255999999999,0,0
142,99,0,2923,4181.154,4245.897,4184.744000000001,4201.795,4190.128,4184.487,4183.077,4185.641,4181.667,4153.974,4154.487,4174.231,4201.154,4185.641,0,0
143,100,0,2579,4193.846,4253.205,4193.462,4215.513,4196.41,4185.897,4184.744000000001,4188.333,4185.0,4154.231,4152.564,4185.385,4202.179,4191.667,0,0
144,101,0,3262,4186.41,4251.282,4186.923,4213.205,4189.615,4186.026,4184.231,4185.385,4185.255999999999,4154.103,4147.308,4182.0509999999995,4199.744000000001,4187.564,0,0
145,102,0,3111,4188.846,4266.282,4189.744000000001,4214.615,4184.359,4186.795,4188.077,4187.564,4184.872,4166.538,4161.282,4181.795,4203.974,4187.692,0,0
146,103,0,2923,4196.667,4273.846,4193.974,4220.385,4189.103,4186.667,4181.795,4202.821,4193.974,4177.308,4167.692,4188.846,4214.231,4190.255999999999,0,0
147,104,0,2579,4184.103,4259.615,4183.846,4209.872,4185.128,4181.282,4168.077,4203.333,4198.718,4168.077,4159.359,4183.333,4215.128,4185.385,0,0
148,105,0,3262,4167.821,4255.897,4174.744000000001,4196.667,4179.103,4174.231,4166.538,4189.359,4191.923,4164.487,4158.59,4174.359,4206.538,4181.41,0,0
149,106,0,3111,4169.744000000001,4261.923,4174.744000000001,4204.359,4185.255999999999,4172.821,4172.9490000000005,4194.872,4189.744000000001,4173.462,4161.154,4176.026,4201.923,4182.436,0,0
150,107,0,2923,4174.231,4262.564,4177.436,4218.333,4186.026,4174.231,4171.795,4203.205,4191.923,4166.667,4153.974,4177.692,4201.41,4184.103,0,0
151,108,0,2579,4167.821,4260.769,4180.0,4215.897,4180.513,4170.385,4167.0509999999995,4187.692,4185.641,4152.0509999999995,4145.385,4170.897,4197.692,4182.179,0,0
152,109,0,3262,4170.641,4268.846,4182.179,4207.821,4182.821,4168.462,4164.872,4171.667,4182.564,4154.744000000001,4161.154,4171.538,4196.154,4183.846,0,0
153,110,0,3111,4185.0,4283.974,4183.974,4218.333,4187.179,4173.077,4164.103,4171.154,4181.667,4158.205,4176.538,4178.205,4199.615,4188.462,0,0
154,111,0,2923,4189.231,4284.872,4186.282,4233.462,4185.385,4174.231,4166.282,4168.59,4172.9490000000005,4151.667,4161.923,4177.564,4195.255999999999,4188.974,0,0
155,112,0,2579,4185.0,4276.41,4185.385,4225.128,4184.615,4170.513,4169.487,4166.154,4173.718,4154.615,4146.923,4171.795,4188.59,4186.026,0,0
156,113,0,3262,4184.359,4280.128,4182.308,4213.718,4187.179,4171.154,4170.769,4175.128,4183.205,4161.795,4158.59,4168.077,4192.692,4184.231,0,0
157,114,0,3111,4183.974,4289.103,4184.615,4223.462,4187.436,4178.205,4171.026,4183.462,4185.0,4167.821,4172.0509999999995,4175.0,4198.333,4185.513,0,0
158,115,0,2923,4182.436,4283.846,4188.205,4233.462,4187.564,4182.308,4171.282,4186.41,4188.846,4179.231,4168.846,4184.744000000001,4198.59,4188.077,0,0
159,116,0,2579,4184.103,4276.026,4187.564,4228.974,4186.41,4175.769,4171.795,4193.59,4199.487,4184.744000000001,4167.436,4185.897,4201.41,4190.255999999999,0,0
160,117,0,3262,4183.205,4279.359,4185.0,4221.026,4183.718,4172.308,4172.179,4208.974,4205.897,4190.128,4170.641,4183.205,4202.692,4191.795,0,0
161,118,0,3111,4182.436,4278.974,4183.974,4217.692,4182.821,4178.846,4170.513,4219.744000000001,4205.0,4198.333,4171.282,4182.821,4198.205,4191.41,0,0
162,119,0,2923,4187.179,4275.513,4187.692,4226.282,4186.282,4183.974,4168.846,4211.923,4201.282,4190.385,4161.41,4187.692,4197.692,4192.179,0,0
163,120,0,2579,4182.436,4279.487,4185.769,4233.718,4184.744000000001,4182.821,4169.359,4193.974,4192.179,4170.0,4147.9490000000005,4185.128,4195.385,4188.974,0,0
164,121,0,3262,4172.9490000000005,4280.0,4180.128,4222.9490000000005,4176.538,4179.231,4167.564,4181.923,4177.821,4162.436,4155.128,4174.872,4185.513,4184.359,0,0
165,122,0,3111,4180.769,4281.026,4187.821,4219.615,4176.667,4178.846,4169.359,4180.513,4173.077,4177.692,4171.154,4182.308,4184.615,4192.308,0,0
166,123,0,2923,4194.744000000001,4288.718,4197.821,4234.231,4185.0,4183.718,4175.513,4181.026,4180.255999999999,4185.513,4160.385,4201.923,4194.744000000001,4204.872,0,0
167,124,0,2579,4192.564,4285.769,4190.255999999999,4237.179,4182.0509999999995,4185.0,4173.333,4177.9490000000005,4183.59,4175.641,4145.255999999999,4197.0509999999995,4199.615,4201.795,0,0
168,125,0,3262,4185.513,4278.333,4181.282,4229.615,4173.077,4180.513,4172.179,4177.308,4181.282,4172.9490000000005,4157.0509999999995,4182.564,4199.231,4191.667,0,0
169,126,0,3111,4185.641,4284.359,4183.718,4231.026,4175.641,4180.641,4181.667,4186.795,4183.205,4185.513,4170.128,4183.974,4201.923,4187.308,0,0
170,127,0,52,4184.744000000001,4291.538,4181.923,4231.282,4183.59,4186.41,4187.0509999999995,4201.154,4188.846,4197.564,4175.769,4185.255999999999,4203.205,4186.538,0,0
171,0,0,2579,4179.103,4278.59,4177.564,4225.385,4183.205,4188.462,4183.462,4202.9490000000005,4194.103,4195.255999999999,4178.718,4184.487,4201.667,4186.282,0,0
172,1,0,1991,4175.769,4265.641,4180.0,4225.255999999999,4179.359,4185.385,4182.821,4199.231,4200.513,4190.0,4186.41,4186.923,4200.513,4186.026,0,0
173,2,0,3435,4178.462,4271.538,4182.821,4230.128,4180.897,4186.538,4183.974,4207.821,4202.436,4193.462,4207.9490000000005,4183.462,4200.385,4183.846,0,0
174,3,0,3362,4183.333,4272.9490000000005,4184.744000000001,4228.077,4181.923,4193.077,4185.0,4219.103,4200.769,4191.923,4222.9490000000005,4182.9490000000005,4202.692,4184.744000000001,0,0
175,4,0,3004,4183.846,4263.718,4185.385,4223.077,4180.255999999999,4194.744000000001,4187.821,4220.255999999999,4202.308,4180.641,4215.385,4186.538,4203.846,4186.923,0,0
176,5,0,2610,4184.615,4266.538,4185.255999999999,4225.385,4183.462,4189.359,4186.923,4215.128,4201.282,4184.487,4212.179,4182.436,4200.0,4184.872,0,0
177,6,0,2506,4195.769,4280.641,4191.154,4231.538,4188.333,4188.462,4185.128,4213.077,4196.154,4203.077,4230.385,4185.641,4197.436,4190.255999999999,0,0
178,7,0,3022,4205.128,4284.231,4199.872,4234.359,4188.59,4194.103,4186.795,4215.641,4198.846,4202.179,4244.744000000001,4199.359,4200.0,4202.9490000000005,0,0
179,8,0,2442,4204.103,4279.744000000001,4202.692,4229.359,4187.0509999999995,4194.744000000001,4186.282,4211.154,4200.897,4192.692,4241.41,4205.255999999999,4202.692,4206.026,0,0
180,9,0,3482,4202.692,4278.077,4196.154,4220.897,4185.641,4191.154,4183.59,4198.846,4188.718,4200.255999999999,4231.923,4198.462,4203.333,4202.692,0,0
181,10,0,3111,4200.641,4274.872,4190.385,4216.538,4182.0509999999995,4191.923,4184.103,4198.462,4187.0509999999995,4202.308,4230.769,4190.897,4202.564,4203.205,0,0
182,11,0,2925,4197.0509999999995,4273.077,4191.795,4218.974,4183.974,4192.9490000000005,4183.462,4206.026,4198.846,4196.795,4232.0509999999995,4189.487,4201.154,4202.308,0,0
183,12,0,2548,4199.872,4269.615,4191.41,4220.769,4187.692,4190.513,4185.513,4202.9490000000005,4194.744000000001,4204.359,4228.718,4190.513,4200.128,4200.513,0,0
184,13,0,3264,4198.974,4262.564,4185.769,4218.59,4182.564,4191.026,4192.308,4201.154,4189.103,4211.795,4233.077,4185.0,4199.744000000001,4200.0,0,0
185,14,0,3111,4184.103,4261.026,4183.59,4211.795,4174.359,4193.077,4190.769,4206.538,4198.462,4201.923,4230.128,4173.974,4197.9490000000005,4191.282,0,0
186,15,0,2925,4178.846,4262.564,4183.077,4203.718,4173.077,4187.821,4182.179,4206.667,4202.436,4194.615,4219.103,4170.0,4192.9490000000005,4183.333,0,0
187,16,0,0,4184.359,4255.385,4179.487,4200.385,4174.359,4182.564,4177.308,4204.103,4192.692,4202.308,4222.821,4171.282,4187.179,4189.744000000001,0,0
188,17,0,0,4184.615,4250.513,4181.667,4202.9490000000005,4172.0509999999995,4185.897,4175.385,4202.821,4187.179,4196.41,4225.513,4174.487,4187.692,4197.821,0,0
189,18,0,0,4190.385,4254.103,4187.436,4207.308,4169.103,4188.462,4177.0509999999995,4198.462,4191.154,4191.154,4219.487,4181.154,4187.436,4198.462,0,0
190,19,0,0,4200.128,4254.231,4188.205,4207.692,4172.0509999999995,4186.282,4182.436,4200.255999999999,4195.128,4199.103,4228.077,4184.744000000001,4187.179,4199.615,0,0
191,20,0,0,4195.128,4250.513,4188.462,4204.872,4180.255999999999,4185.769,4182.9490000000005,4200.385,4189.103,4193.974,4232.436,4183.333,4192.692,4201.538,0,0
192,21,0,0,4184.359,4242.436,4186.667,4201.795,4179.744000000001,4185.769,4181.026,4187.821,4180.769,4185.897,4216.538,4181.41,4190.255999999999,4199.231,0,0
193,22,0,0,4190.513,4232.564,4188.59,4201.923,4176.282,4188.077,4185.0,4187.308,4192.0509999999995,4197.436,4220.769,4184.231,4185.385,4199.103,0,0
194,23,0,0,4202.564,4230.769,4192.308,4203.718,4182.436,4193.59,4188.718,4199.615,4201.667,4207.821,4235.385,4187.9490000000005,4191.538,4202.0509999999995,0,0
195,24,0,0,4196.538,4229.872,4189.359,4204.615,4183.974,4193.462,4185.128,4195.641,4190.769,4192.692,4221.667,4185.255999999999,4192.692,4199.359,0,0
196,25,0,0,4186.026,4217.9490000000005,4186.667,4203.59,4177.308,4188.077,4181.538,4185.128,4182.308,4179.103,4209.744000000001,4180.385,4183.333,4195.255999999999,0,0
197,26,0,0,4192.692,4213.205,4189.744000000001,4200.513,4180.385,4187.9490000000005,4183.462,4188.59,4187.9490000000005,4184.359,4217.436,4181.923,4182.821,4197.308,0,0
198,27,0,0,4203.846,4218.718,4191.923,4200.385,4187.564,4189.487,4184.487,4194.487,4189.872,4190.255999999999,4218.974,4184.359,4185.769,4199.744000000001,0,0
199,28,0,0,4201.795,4211.795,4193.205,4197.821,4179.231,4186.154,4181.282,4196.795,4183.974,4187.436,4213.077,4183.333,4180.897,4197.9490000000005,0,0
200,29,0,0,4197.821,4201.026,4198.718,4192.564,4168.846,4185.128,4182.564,4202.0509999999995,4191.795,4185.641,4215.897,4183.462,4181.923,4197.436,0,0
201,30,0,0,4200.897,4201.154,4201.795,4195.769,4172.179,4187.0509999999995,4185.769,4202.308,4198.846,4191.154,4218.205,4186.282,4184.103,4200.128,0,0
202,31,0,0,4203.974,4203.077,4200.641,4197.821,4177.0509999999995,4187.179,4186.154,4200.0,4190.769,4194.615,4215.128,4188.974,4175.769,4201.923,0,0
203,32,0,0,4204.231,4199.744000000001,4201.41,4191.538,4172.308,4185.513,4183.462,4201.026,4184.487,4188.333,4216.538,4189.744000000001,4167.692,4202.179,0,0
204,33,0,0,4202.692,4198.205,4203.59,4194.231,4167.0509999999995,4183.077,4175.897,4195.513,4185.0,4181.538,4221.41,4190.769,4167.692,4202.436,0,0
205,34,0,0,4202.9490000000005,4201.667,4202.9490000000005,4200.255999999999,4168.974,4181.795,4170.897,4186.667,4186.282,4190.255999999999,4220.255999999999,4191.795,4165.128,4203.974,0,0
206,35,0,0,4203.205,4203.333,4198.205,4192.564,4170.128,4181.41,4172.0509999999995,4186.41,4186.923,4204.231,4214.872,4188.462,4157.692,4204.487,0,0
207,36,0,0,4199.231,4197.179,4196.795,4186.154,4168.077,4183.974,4175.769,4191.026,4189.103,4198.077,4208.846,4183.846,4153.462,4199.744000000001,0,0
208,37,0,0,4198.974,4189.359,4198.846,4189.615,4167.692,4187.9490000000005,4177.564,4189.744000000001,4189.615,4186.282,4211.538,4183.205,4156.538,4198.974,0,0
209,38,0,0,4202.564,4187.179,4198.974,4188.718,4168.974,4185.897,4174.615,4187.0509999999995,4193.205,4200.0,4222.308,4187.692,4165.128,4206.026,0,0
210,39,0,0,4204.231,4187.9490000000005,4199.103,4188.205,4172.308,4183.59,4172.179,4195.0,4200.255999999999,4220.641,4224.359,4193.59,4171.282,4208.077,0,0
211,40,0,0,4202.179,4187.0509999999995,4196.795,4191.026,4174.231,4183.59,4172.436,4199.615,4200.641,4218.718,4220.255999999999,4193.974,4171.795,4204.359,0,0
212,41,0,0,4192.9490000000005,4180.0,4189.744000000001,4186.795,4170.255999999999,4177.821,4170.128,4191.282,4193.205,4205.641,4220.0,4186.154,4171.923,4200.769,0,0
213,42,0,0,4182.821,4170.128,4185.128,4181.154,4170.128,4175.0,4167.564,4187.821,4187.179,4199.872,4220.0,4180.0,4170.128,4197.436,0,0
214,43,0,0,4184.359,4170.769,4187.0509999999995,4184.103,4176.923,4181.795,4170.385,4193.462,4188.718,4199.872,4217.308,4183.59,4167.821,4198.846,0,0
215,44,0,0,4185.385,4173.333,4186.795,4184.615,4175.0,4178.974,4169.744000000001,4184.231,4188.077,4192.0509999999995,4213.718,4183.205,4170.897,4197.821,0,0
216,45,0,0,4175.128,4163.077,4183.846,4177.564,4168.333,4170.128,4165.769,4166.538,4184.359,4184.487,4207.308,4172.821,4173.59,4187.308,0,0
217,46,0,0,4169.231,4156.41,4184.103,4177.308,4172.179,4174.231,4169.231,4171.41,4186.154,4193.205,4202.564,4167.308,4172.436,4181.667,0,0
218,47,0,0,4169.103,4156.538,4183.846,4180.0,4175.128,4178.205,4167.0509999999995,4179.615,4185.641,4190.513,4201.923,4169.103,4171.667,4184.231,0,0
219,48,0,0,4166.667,4151.538,4181.282,4172.0509999999995,4168.59,4171.795,4157.692,4173.718,4182.821,4174.872,4198.974,4168.333,4169.744000000001,4182.0509999999995,0,0
220,49,0,0,4169.359,4151.538,4183.718,4167.9490000000005,4171.538,4171.667,4159.359,4169.615,4183.333,4184.231,4200.385,4169.615,4167.692,4184.231,0,0
221,50,0,0,4171.667,4151.282,4185.0,4172.436,4179.231,4175.0,4168.59,4169.487,4177.308,4197.821,4197.821,4173.077,4164.615,4185.128,0,0
222,51,0,0,4166.41,4139.487,4175.641,4169.487,4173.462,4171.923,4168.333,4165.641,4167.564,4185.513,4190.769,4169.103,4161.282,4175.641,0,0
223,52,0,0,4167.179,4137.9490000000005,4173.846,4168.59,4172.692,4175.641,4166.667,4166.923,4173.974,4179.615,4196.154,4167.308,4165.255999999999,4176.538,0,0
224,53,0,0,4173.718,4150.897,4183.205,4175.255999999999,4182.9490000000005,4184.744000000001,4173.333,4173.205,4186.41,4192.564,4206.795,4173.077,4171.41,4187.564,0,0
225,54,0,0,4172.179,4152.179,4181.282,4174.744000000001,4185.385,4180.769,4172.821,4175.0,4184.615,4194.615,4206.282,4174.359,4171.154,4188.333,0,0
226,55,0,0,4172.179,4148.846,4176.026,4175.897,4181.795,4176.795,4169.231,4177.9490000000005,4180.641,4194.487,4201.026,4171.538,4174.103,4184.487,0,0
227,56,0,0,4181.026,4154.872,4181.923,4181.026,4183.59,4183.59,4177.821,4186.026,4187.564,4203.205,4202.692,4173.846,4185.255999999999,4186.667,0,0
228,57,0,0,4186.41,4158.59,4187.0509999999995,4177.564,4184.231,4182.436,4182.436,4191.667,4194.872,4204.615,4204.744000000001,4176.667,4190.897,4188.205,0,0
229,58,0,0,4180.897,4155.255999999999,4181.41,4170.255999999999,4182.179,4175.897,4173.462,4192.564,4191.795,4204.487,4204.359,4173.462,4187.436,4186.026,0,0
230,59,0,0,4172.308,4151.923,4173.718,4170.255999999999,4182.564,4180.641,4167.9490000000005,4183.205,4185.0,4209.103,4201.026,4169.487,4183.333,4184.744000000001,0,0
231,60,0,0,4170.641,4152.436,4173.205,4173.59,4177.821,4183.333,4172.0509999999995,4171.923,4182.9490000000005,4203.718,4200.641,4166.154,4182.436,4181.667,0,0
232,61,0,0,4171.667,4153.462,4175.128,4172.564,4171.154,4179.744000000001,4174.231,4175.769,4185.128,4191.282,4197.564,4159.872,4182.692,4175.897,0,0
233,62,0,0,4167.564,4151.795,4171.795,4168.846,4174.615,4181.795,4172.564,4184.359,4185.769,4195.513,4186.923,4155.0,4182.436,4170.128,0,0
234,63,0,0,4164.615,4151.41,4168.718,4169.359,4182.564,4187.308,4172.9490000000005,4183.077,4187.0509999999995,4205.513,4190.128,4156.538,4184.744000000001,4172.0509999999995,0,0
235,64,0,2579,4168.077,4156.282,4171.923,4174.872,4184.744000000001,4188.718,4179.744000000001,4179.615,4184.872,4197.436,4199.872,4158.846,4186.538,4177.821,0,0
236,65,0,1996,4168.59,4157.308,4173.205,4173.974,4185.513,4183.333,4182.179,4176.026,4179.487,4186.795,4191.282,4159.359,4183.974,4177.308,0,0
237,66,0,3435,4165.385,4152.308,4171.41,4169.872,4183.974,4177.179,4173.974,4173.462,4179.615,4184.872,4180.255999999999,4156.538,4182.564,4172.436,0,0
238,67,0,3369,4165.897,4151.282,4170.385,4171.282,4179.615,4179.487,4176.923,4180.641,4184.103,4185.128,4192.564,4155.641,4184.103,4172.564,0,0
239,68,0,3004,4167.9490000000005,4153.974,4174.487,4171.923,4181.795,4183.718,4185.128,4188.59,4186.795,4187.308,4198.333,4162.564,4183.462,4178.718,0,0
240,69,0,2603,4169.487,4153.974,4181.026,4170.897,4184.744000000001,4180.641,4177.0509999999995,4185.128,4186.538,4186.026,4184.872,4168.59,4181.538,4181.026,0,0
241,70,0,2506,4172.9490000000005,4152.179,4181.026,4172.0509999999995,4181.41,4179.231,4167.308,4181.923,4186.026,4184.744000000001,4186.41,4168.846,4183.846,4181.282,0,0
242,71,0,3021,4175.128,4151.667,4176.795,4172.179,4180.641,4177.692,4169.103,4180.769,4185.128,4186.154,4198.718,4170.0,4185.385,4183.333,0,0
243,72,0,2442,4173.846,4153.462,4180.128,4172.564,4183.333,4174.872,4171.026,4181.41,4186.282,4184.359,4202.692,4171.795,4183.846,4184.103,0,0
244,73,0,3479,4172.0509999999995,4156.538,4184.359,4172.0509999999995,4183.718,4180.769,4171.795,4188.974,4188.846,4187.179,4195.255999999999,4171.154,4185.128,4183.846,0,0
245,74,0,3111,4170.385,4155.769,4180.128,4170.385,4183.077,4182.0509999999995,4172.179,4188.59,4185.385,4196.923,4185.769,4170.513,4186.41,4183.205,0,0
246,75,0,2925,4171.538,4151.923,4180.897,4172.564,4180.255999999999,4175.128,4169.615,4182.9490000000005,4183.846,4201.154,4190.385,4170.769,4185.255999999999,4182.564,0,0
247,76,0,2574,4173.846,4152.308,4183.205,4174.487,4179.103,4172.179,4170.255999999999,4193.718,4194.103,4201.923,4197.564,4171.154,4189.231,4184.744000000001,0,0
248,77,0,3263,4172.179,4155.385,4176.667,4171.282,4182.821,4175.255999999999,4173.462,4202.0509999999995,4199.103,4203.718,4192.564,4171.154,4195.769,4183.205,0,0
249,78,0,3111,4170.255999999999,4154.487,4170.641,4170.385,4179.872,4178.59,4173.077,4188.59,4187.179,4195.513,4187.564,4170.0,4198.59,4175.255999999999,0,0
250,79,0,2925,4171.154,4153.333,4174.744000000001,4175.897,4172.9490000000005,4181.026,4172.564,4177.436,4181.154,4185.255999999999,4190.897,4169.872,4199.744000000001,4175.513,0,0
251,80,0,2574,4171.667,4154.744000000001,4175.641,4175.255999999999,4172.179,4176.41,4170.513,4175.255999999999,4183.718,4183.974,4192.0509999999995,4169.231,4196.154,4182.692,0,0
252,81,0,3263,4171.282,4154.872,4170.385,4170.128,4175.385,4171.154,4165.769,4167.564,4179.744000000001,4182.9490000000005,4189.615,4166.538,4194.103,4181.923,0,0
253,82,0,3111,4172.564,4156.154,4176.282,4171.667,4176.282,4179.103,4166.923,4172.564,4180.641,4185.255999999999,4192.821,4168.59,4200.0,4180.255999999999,0,0
254,83,0,2925,4171.154,4156.026,4181.923,4173.59,4173.974,4184.103,4173.462,4182.692,4187.179,4187.436,4194.744000000001,4172.692,4197.692,4184.487,0,0
255,84,0,2574,4168.974,4151.667,4176.41,4171.41,4170.641,4180.641,4175.641,4178.077,4185.255999999999,4187.308,4191.282,4167.308,4185.769,4183.718,0,0
256,85,0,3263,4170.128,4150.897,4171.282,4170.128,4170.641,4183.205,4172.692,4176.154,4183.846,4192.179,4186.667,4158.077,4186.667,4178.205,0,0
257,86,0,3111,4163.974,4148.718,4169.872,4169.103,4171.026,4183.333,4171.026,4176.923,4183.333,4193.077,4185.513,4153.333,4185.641,4173.974,0,0
258,87,0,2925,4155.255999999999,4140.385,4168.718,4168.333,4168.205,4175.641,4169.744000000001,4171.538,4176.41,4185.897,4185.0,4151.795,4171.923,4170.769,0,0
259,88,0,2574,4158.462,4138.462,4170.0,4171.154,4166.923,4171.795,4163.077,4168.205,4170.513,4182.0509999999995,4182.436,4152.564,4169.103,4171.795,0,0
260,89,0,3263,4165.641,4141.538,4171.667,4170.255999999999,4164.744000000001,4173.846,4159.744000000001,4167.564,4169.872,4182.436,4185.769,4156.026,4172.308,4173.333,0,0
261,90,0,3111,4166.667,4139.359,4169.359,4166.41,4160.897,4171.923,4164.359,4166.282,4170.385,4182.308,4185.641,4156.923,4166.923,4172.0509999999995,0,0
262,91,0,2925,4166.795,4143.846,4171.026,4170.255999999999,4162.821,4169.487,4169.615,4170.385,4171.154,4183.462,4182.308,4157.9490000000005,4164.744000000001,4175.897,0,0
263,92,0,2574,4166.923,4152.821,4172.0509999999995,4173.846,4167.821,4172.436,4170.513,4171.026,4170.897,4182.564,4183.333,4160.385,4168.462,4180.0,0,0
264,93,0,3263,4165.513,4147.692,4168.846,4170.0,4168.333,4179.615,4169.872,4167.0509999999995,4176.795,4183.718,4183.077,4158.462,4167.9490000000005,4174.744000000001,0,0
265,94,0,3111,4169.487,4140.513,4172.179,4168.205,4169.103,4183.205,4172.179,4174.487,4184.615,4192.436,4184.359,4158.462,4168.718,4172.564,0,0
266,95,0,2925,4170.897,4149.231,4175.0,4171.667,4171.154,4175.255999999999,4169.231,4173.59,4177.179,4185.513,4181.41,4157.821,4171.154,4172.821,0,0
267,96,0,2574,4169.615,4166.538,4174.231,4175.897,4170.255999999999,4171.026,4162.179,4161.282,4168.077,4167.308,4173.59,4151.923,4163.974,4169.359,0,0
268,97,0,3263,4179.359,4182.564,4179.872,4184.487,4176.154,4180.0,4162.436,4164.359,4172.0509999999995,4167.308,4173.718,4155.128,4156.923,4174.103,0,0
269,98,0,3111,4190.641,4192.9490000000005,4188.846,4193.077,4185.128,4181.795,4167.308,4178.846,4173.846,4170.769,4180.897,4165.385,4156.41,4183.205,0,0
270,99,0,2925,4195.0,4196.923,4193.077,4191.41,4183.59,4177.692,4166.923,4181.667,4175.897,4167.308,4183.846,4171.282,4155.0,4184.872,0,0
271,100,0,2574,4199.744000000001,4199.615,4195.641,4185.897,4180.513,4181.667,4166.923,4175.255999999999,4183.077,4175.513,4184.231,4176.667,4155.897,4188.462,0,0
272,101,0,3263,4202.0509999999995,4199.103,4194.359,4186.667,4185.897,4185.769,4170.255999999999,4171.282,4177.0509999999995,4177.821,4184.231,4178.718,4158.333,4189.744000000001,0,0
273,102,0,3111,4198.59,4196.282,4192.564,4191.667,4187.692,4184.359,4169.359,4167.692,4165.385,4164.359,4182.821,4173.846,4153.974,4184.359,0,0
274,103,0,2925,4202.564,4199.359,4199.359,4197.308,4185.0,4187.0509999999995,4169.231,4167.821,4173.718,4175.385,4187.692,4178.333,4156.667,4191.41,0,0
275,104,0,2574,4208.333,4205.255999999999,4205.255999999999,4203.462,4193.846,4190.897,4173.205,4173.205,4187.308,4197.179,4191.282,4190.128,4170.769,4201.154,0,0
276,105,0,3263,4201.41,4200.255999999999,4196.41,4197.0509999999995,4200.897,4189.231,4172.9490000000005,4175.0,4181.41,4188.077,4185.897,4185.385,4170.0,4192.821,0,0
277,106,0,3111,4196.923,4189.231,4186.667,4185.128,4191.282,4188.846,4169.103,4169.487,4170.769,4177.564,4187.308,4174.744000000001,4155.769,4184.487,0,0
278,107,0,2925,4203.718,4190.641,4190.255999999999,4191.538,4183.974,4190.255999999999,4163.59,4165.897,4172.436,4185.0,4193.333,4177.0509999999995,4152.308,4189.872,0,0
279,108,0,2574,4204.615,4195.385,4192.179,4195.769,4181.538,4188.974,4155.769,4167.692,4172.821,4184.359,4183.59,4173.718,4153.077,4188.333,0,0
280,109,0,3263,4195.385,4189.487,4186.41,4188.718,4175.0,4187.564,4153.718,4167.692,4169.231,4184.103,4170.769,4159.744000000001,4150.897,4176.154,0,0
281,110,0,3111,4188.846,4184.231,4183.205,4190.128,4172.821,4187.821,4162.308,4165.128,4172.0509999999995,4189.872,4172.308,4155.641,4154.615,4172.0509999999995,0,0
282,111,0,2925,4181.538,4187.564,4177.564,4194.359,4175.0,4187.821,4167.9490000000005,4165.641,4173.462,4180.641,4170.769,4156.538,4154.359,4172.308,0,0
283,112,0,2574,4174.103,4185.0,4169.231,4183.718,4170.385,4185.128,4164.359,4167.821,4166.923,4167.9490000000005,4166.41,4147.821,4146.282,4166.795,0,0
284,113,0,3263,4180.128,4181.538,4175.0,4182.179,4169.615,4184.487,4165.128,4172.308,4168.59,4168.333,4176.154,4150.0,4148.59,4167.692,0,0
285,114,0,3111,4190.897,4194.872,4186.41,4196.538,4178.846,4188.205,4170.255999999999,4175.255999999999,4176.154,4176.667,4185.0,4166.026,4158.077,4181.026,0,0
286,115,0,2925,4189.872,4201.667,4185.641,4193.077,4185.0,4189.872,4168.462,4172.0509999999995,4174.359,4185.769,4184.231,4171.026,4156.667,4188.718,0,0
287,116,0,2574,4187.179,4190.128,4184.231,4182.821,4185.897,4188.59,4163.974,4169.744000000001,4170.897,4188.59,4185.769,4167.692,4157.179,4185.255999999999,0,0
288,117,0,3263,4193.718,4185.641,4187.564,4195.255999999999,4186.026,4186.923,4166.026,4173.462,4177.564,4186.795,4186.41,4168.846,4168.974,4183.846,0,0
289,118,0,3111,4197.436,4189.744000000001,4188.205,4204.615,4187.308,4189.872,4170.897,4180.385,4185.769,4181.154,4183.974,4172.0509999999995,4172.9490000000005,4184.872,0,0
290,119,0,2925,4190.255999999999,4186.026,4187.0509999999995,4190.0,4185.769,4192.308,4173.333,4185.897,4183.205,4173.077,4183.846,4171.026,4167.436,4183.59,0,0
291,120,0,2574,4186.41,4182.436,4188.333,4186.41,4181.41,4189.872,4172.0509999999995,4183.205,4175.0,4170.641,4182.821,4168.59,4167.179,4183.846,0,0
292,121,0,3263,4193.333,4186.538,4189.872,4200.513,4182.821,4188.718,4169.744000000001,4173.846,4172.821,4174.615,4184.103,4170.128,4170.128,4184.872,0,0
293,122,0,3111,4193.718,4185.641,4187.564,4195.897,4183.59,4188.974,4170.128,4170.897,4172.436,4170.255999999999,4182.0509999999995,4170.513,4168.718,4182.9490000000005,0,0
294,123,0,2925,4187.436,4180.255999999999,4185.513,4183.077,4180.897,4187.308,4171.282,4171.795,4172.692,4165.897,4177.436,4168.462,4167.308,4182.0509999999995,0,0
295,124,0,2574,4190.128,4180.385,4186.923,4187.564,4181.795,4186.41,4170.769,4171.667,4178.846,4176.667,4178.462,4168.718,4168.077,4182.9490000000005,0,0
296,125,0,3263,4193.718,4185.255999999999,4188.333,4193.59,4183.59,4188.974,4169.872,4172.692,4184.359,4188.974,4175.769,4169.744000000001,4167.436,4183.59,0,0
297,126,0,3111,4188.333,4183.59,4187.179,4188.205,4181.538,4190.128,4170.385,4173.846,4182.436,4182.436,4176.026,4168.077,4167.9490000000005,4182.564,0,0
298,127,0,52,4183.462,4175.255999999999,4185.385,4187.0509999999995,4180.769,4190.897,4172.436,4176.923,4181.154,4170.0,4181.923,4166.795,4173.205,4176.538,0,0
299,0,0,2578,4183.974,4175.385,4184.231,4189.487,4182.436,4192.308,4173.974,4180.0,4183.462,4179.231,4176.538,4166.667,4176.026,4170.513,0,0
300,1,0,1980,4182.9490000000005,4181.667,4183.205,4186.923,4182.0509999999995,4190.0,4172.179,4181.795,4184.615,4189.487,4170.385,4166.795,4174.359,4175.128,0,0
301,2,0,3427,4184.103,4185.385,4183.205,4191.41,4181.795,4189.231,4171.282,4181.538,4180.769,4174.487,4181.026,4168.718,4176.667,4184.872,0,0
302,3,0,3369,4187.308,4184.103,4186.282,4199.487,4183.974,4192.692,4178.974,4185.513,4179.744000000001,4169.744000000001,4186.026,4172.821,4178.718,4185.513,0,0
303,4,0,3004,4183.846,4174.615,4186.026,4195.897,4182.692,4193.462,4184.359,4192.9490000000005,4182.564,4185.897,4175.255999999999,4169.359,4173.333,4177.179,0,0
304,5,0,2596,4170.769,4167.0509999999995,4175.128,4187.308,4174.103,4186.538,4173.718,4183.205,4176.795,4177.0509999999995,4166.795,4150.0,4167.821,4165.0,0,0
305,6,0,2503,4164.615,4176.154,4168.59,4187.564,4171.795,4183.718,4163.974,4165.513,4166.282,4157.179,4164.487,4139.359,4168.205,4160.897,0,0
306,7,0,3017,4176.282,4187.9490000000005,4178.205,4191.667,4177.821,4189.231,4168.077,4165.385,4166.538,4164.872,4168.462,4152.692,4170.769,4170.385,0,0
307,8,0,2441,4185.513,4186.923,4182.821,4190.769,4175.641,4188.846,4170.0,4172.436,4171.154,4175.385,4174.744000000001,4162.179,4170.641,4176.795,0,0
308,9,0,3474,4180.385,4184.744000000001,4179.615,4187.564,4169.103,4184.872,4166.667,4167.436,4168.333,4175.128,4178.59,4157.0509999999995,4167.436,4172.0509999999995,0,0
309,10,0,3109,4173.718,4181.282,4179.231,4186.538,4169.487,4185.641,4169.615,4163.846,4165.641,4169.359,4170.385,4154.615,4165.385,4170.0,0,0
310,11,0,2921,4169.231,4171.923,4175.128,4185.385,4172.308,4185.641,4169.359,4165.641,4167.436,4156.026,4153.718,4150.769,4165.385,4166.41,0,0
311,12,0,2580,4165.128,4167.821,4169.103,4183.974,4165.513,4184.872,4164.872,4166.026,4170.769,4156.026,4154.615,4140.769,4167.308,4156.154,0,0
312,13,0,3259,4164.872,4169.487,4169.744000000001,4182.179,4156.026,4187.821,4169.103,4172.821,4172.692,4176.026,4170.769,4140.897,4171.923,4157.0509999999995,0,0
313,14,0,3109,4167.308,4167.436,4171.538,4176.795,4161.154,4185.255999999999,4173.077,4177.692,4170.641,4182.821,4173.718,4151.538,4172.692,4167.436,0,0
314,15,0,2921,4166.154,4164.487,4169.231,4175.897,4170.513,4182.179,4172.564,4172.9490000000005,4168.974,4172.0509999999995,4165.513,4157.179,4167.821,4168.846,0,0
315,16,0,0,4166.026,4165.897,4171.923,4182.179,4168.718,4192.308,4180.0,4168.333,4167.692,4166.154,4164.487,4154.744000000001,4165.255999999999,4164.615,0,0
316,17,0,0,4170.385,4167.9490000000005,4175.769,4183.718,4166.923,4202.821,4188.59,4169.872,4166.41,4164.615,4167.179,4154.872,4166.667,4166.154,0,0
317,18,0,0,4167.179,4163.718,4175.0,4181.538,4171.282,4198.59,4183.205,4172.692,4167.179,4168.974,4167.179,4158.846,4164.615,4166.667,0,0
318,19,0,0,4155.897,4153.846,4170.385,4180.0,4169.103,4188.846,4171.795,4169.615,4168.846,4171.538,4167.179,4156.41,4165.255999999999,4159.487,0,0
319,20,0,0,4156.154,4154.615,4170.897,4180.128,4166.667,4186.41,4169.103,4167.821,4169.872,4170.769,4171.154,4150.641,4177.9490000000005,4156.282,0,0
320,21,0,0,4170.255999999999,4168.462,4179.103,4183.974,4170.0,4187.308,4175.769,4176.667,4173.59,4182.436,4174.872,4152.821,4188.846,4163.462,0,0
321,22,0,0,4173.59,4168.718,4177.0509999999995,4185.0,4167.564,4184.872,4182.436,4185.128,4176.538,4192.821,4172.9490000000005,4156.41,4186.538,4169.872,0,0
322,23,0,0,4170.0,4160.385,4172.821,4180.0,4165.513,4184.103,4185.128,4183.974,4172.9490000000005,4184.487,4171.795,4156.026,4184.103,4170.0,0,0
323,24,0,0,4177.308,4160.641,4181.41,4179.872,4168.333,4187.821,4183.077,4177.9490000000005,4169.744000000001,4172.9490000000005,4172.821,4157.692,4182.436,4171.795,0,0
324,25,0,0,4180.513,4163.846,4187.179,4183.077,4170.385,4189.744000000001,4175.897,4173.462,4169.487,4171.667,4172.564,4158.205,4173.718,4173.205,0,0
325,26,0,0,4178.462,4166.282,4183.333,4183.846,4176.795,4189.231,4169.231,4168.077,4167.692,4171.41,4172.692,4155.128,4168.974,4171.795,0,0
326,27,0,0,4184.231,4169.744000000001,4182.179,4183.718,4185.385,4189.872,4167.821,4159.744000000001,4165.769,4170.641,4172.564,4155.513,4173.718,4172.692,0,0
327,28,0,0,4187.436,4169.103,4185.255999999999,4181.41,4183.718,4187.692,4166.667,4154.231,4166.41,4170.128,4170.897,4157.821,4173.077,4173.205,0,0
328,29,0,0,4180.513,4164.872,4181.154,4181.154,4178.59,4183.333,4165.255999999999,4160.897,4166.154,4164.872,4168.462,4154.231,4169.744000000001,4171.154,0,0
329,30,0,0,4181.026,4167.9490000000005,4174.744000000001,4181.026,4183.59,4182.0509999999995,4172.308,4177.821,4167.436,4165.897,4168.59,4153.974,4175.769,4171.667,0,0
330,31,0,0,4183.59,4170.128,4171.154,4174.103,4184.359,4182.9490000000005,4178.718,4187.308,4172.308,4173.974,4169.872,4157.436,4185.128,4171.41,0,0
331,32,0,0,4174.487,4163.333,4171.923,4171.923,4171.923,4180.897,4175.128,4187.179,4172.9490000000005,4176.538,4167.692,4155.385,4186.795,4169.744000000001,0,0
332,33,0,0,4169.487,4160.385,4174.872,4177.821,4165.385,4176.41,4171.154,4181.667,4169.615,4170.641,4166.923,4159.231,4183.846,4173.333,0,0
333,34,0,0,4174.872,4167.179,4178.333,4180.385,4175.385,4178.077,4172.692,4173.333,4167.692,4168.205,4169.103,4170.641,4184.744000000001,4175.641,0,0
334,35,0,0,4177.0509999999995,4172.436,4184.744000000001,4181.41,4183.462,4182.564,4172.564,4168.846,4168.077,4172.9490000000005,4172.821,4170.128,4187.821,4172.692,0,0
335,36,0,0,4170.128,4167.0509999999995,4181.538,4182.9490000000005,4177.692,4182.436,4168.974,4167.179,4168.59,4174.103,4171.667,4158.718,4185.385,4168.846,0,0
336,37,0,0,4170.385,4167.436,4171.282,4182.436,4175.769,4184.359,4167.692,4166.923,4170.255999999999,4171.026,4166.667,4157.179,4184.103,4166.41,0,0
337,38,0,0,4180.641,4177.564,4174.744000000001,4186.154,4184.231,4187.564,4171.282,4173.974,4175.897,4173.59,4171.795,4166.667,4191.795,4171.795,0,0
338,39,0,0,4188.077,4183.846,4186.282,4191.538,4187.821,4186.282,4179.872,4194.487,4185.641,4191.538,4186.41,4175.0,4203.462,4186.538,0,0
339,40,0,0,4188.59,4182.308,4183.59,4188.077,4185.128,4188.462,4187.0509999999995,4203.59,4186.538,4202.308,4186.41,4174.872,4203.974,4188.974,0,0
340,41,0,0,4179.487,4176.538,4171.667,4182.0509999999995,4183.59,4191.154,4186.41,4191.923,4174.359,4186.026,4171.923,4162.436,4190.641,4172.692,0,0
341,42,0,0,4173.974,4171.154,4170.769,4182.0509999999995,4182.692,4189.231,4184.359,4183.205,4167.179,4175.0,4167.692,4155.128,4182.692,4167.179,0,0
342,43,0,0,4181.282,4172.821,4178.974,4185.641,4183.462,4195.255999999999,4187.692,4186.795,4172.436,4185.641,4171.538,4163.333,4194.103,4175.255999999999,0,0
343,44,0,0,4187.9490000000005,4177.308,4183.846,4186.923,4186.154,4199.231,4190.255999999999,4188.974,4174.231,4185.128,4170.769,4169.872,4200.385,4173.846,0,0
344,45,0,0,4184.744000000001,4174.487,4182.0509999999995,4184.231,4186.282,4190.641,4185.897,4179.872,4169.872,4167.179,4175.897,4167.564,4187.821,4173.077,0,0
345,46,0,0,4185.255999999999,4174.487,4184.103,4184.872,4186.795,4191.667,4183.077,4177.692,4170.0,4168.718,4183.205,4168.59,4181.538,4181.667,0,0
346,47,0,0,4187.821,4184.872,4187.0509999999995,4187.0509999999995,4187.179,4199.103,4186.41,4183.974,4171.538,4181.026,4176.923,4170.897,4188.59,4181.41,0,0
347,48,0,0,4184.103,4184.615,4183.718,4185.128,4183.718,4192.179,4183.718,4177.821,4170.255999999999,4176.923,4167.9490000000005,4168.333,4186.923,4171.538,0,0
348,49,0,0,4180.513,4171.667,4183.205,4185.769,4182.0509999999995,4184.103,4175.255999999999,4167.821,4171.026,4169.872,4171.667,4168.59,4180.641,4173.077,0,0
349,50,0,0,4176.538,4171.538,4182.308,4187.821,4182.9490000000005,4183.077,4170.128,4168.077,4165.255999999999,4169.615,4174.487,4166.667,4183.077,4175.641,0,0
350,51,0,0,4174.231,4178.846,4175.769,4184.615,4175.641,4181.538,4169.231,4166.41,4157.436,4167.9490000000005,4169.615,4155.641,4186.795,4168.846,0,0
351,52,0,0,4178.974,4180.385,4178.846,4185.385,4168.462,4186.026,4175.255999999999,4163.718,4164.744000000001,4171.154,4169.359,4153.974,4187.564,4167.821,0,0
352,53,0,0,4183.462,4179.103,4186.795,4189.872,4177.436,4191.795,4182.179,4171.282,4175.769,4185.513,4172.179,4166.667,4185.897,4172.0509999999995,0,0
353,54,0,0,4182.179,4176.282,4182.821,4186.282,4183.077,4188.974,4176.538,4173.077,4172.308,4193.205,4172.308,4173.077,4186.154,4171.41,0,0
354,55,0,0,4181.538,4177.821,4180.385,4182.692,4177.821,4190.128,4170.641,4175.641,4174.359,4187.9490000000005,4172.564,4167.821,4194.872,4171.538,0,0
355,56,0,0,4184.103,4185.128,4186.026,4187.0509999999995,4179.872,4197.9490000000005,4179.231,4185.0,4185.0,4184.487,4171.923,4167.436,4197.308,4174.487,0,0
356,57,0,0,4184.872,4187.308,4185.255999999999,4190.385,4184.615,4196.923,4183.333,4176.795,4179.487,4184.359,4173.462,4170.897,4192.179,4174.615,0,0
357,58,0,0,4183.077,4185.769,4182.692,4188.205,4183.462,4191.026,4175.255999999999,4164.487,4167.564,4185.641,4174.615,4165.641,4193.205,4171.667,0,0
358,59,0,0,4181.154,4187.0509999999995,4183.718,4185.641,4182.9490000000005,4187.821,4172.0509999999995,4170.255999999999,4165.769,4181.538,4171.154,4157.9490000000005,4193.077,4168.462,0,0
359,60,0,0,4183.846,4187.564,4183.077,4187.308,4182.821,4186.41,4172.436,4170.128,4168.59,4171.538,4169.744000000001,4156.282,4186.41,4168.59,0,0
360,61,0,0,4182.564,4186.41,4181.154,4190.385,4181.154,4190.897,4169.359,4155.513,4167.9490000000005,4169.487,4171.026,4155.897,4185.385,4170.0,0,0
361,62,0,0,4172.564,4180.128,4180.641,4187.692,4180.769,4194.615,4169.744000000001,4153.333,4161.282,4173.59,4168.462,4153.077,4187.0509999999995,4166.923,0,0
362,63,0,0,4173.846,4176.667,4182.179,4184.487,4176.41,4189.487,4175.0,4165.897,4161.282,4176.41,4169.103,4154.872,4185.513,4166.282,0,0
363,64,0,2578,4186.538,4181.667,4183.718,4188.077,4170.513,4184.744000000001,4173.974,4172.9490000000005,4166.41,4181.282,4172.179,4157.0509999999995,4187.821,4171.026,0,0
364,65,0,1980,4179.615,4179.487,4181.923,4189.359,4173.59,4187.564,4169.231,4169.744000000001,4162.9490000000005,4184.872,4170.0,4153.077,4189.615,4168.462,0,0
365,66,0,3427,4168.205,4175.255999999999,4181.538,4187.308,4180.255999999999,4193.846,4171.41,4167.179,4161.41,4182.179,4177.179,4157.0509999999995,4191.538,4164.487,0,0
366,67,0,3365,4180.641,4182.692,4186.538,4193.205,4185.0,4198.077,4180.255999999999,4170.769,4170.128,4184.103,4189.231,4171.026,4198.974,4175.897,0,0
367,68,0,3004,4190.897,4193.462,4189.359,4201.154,4186.41,4198.59,4182.0509999999995,4173.462,4173.718,4190.128,4187.692,4178.718,4202.436,4189.103,0,0
368,69,0,2596,4186.282,4194.103,4187.0509999999995,4200.641,4185.385,4198.077,4175.641,4173.59,4169.487,4189.872,4182.9490000000005,4174.744000000001,4200.641,4183.59,0,0
369,70,0,2503,4186.282,4190.255999999999,4185.128,4196.026,4184.103,4200.0,4174.615,4169.231,4164.744000000001,4186.795,4181.026,4165.769,4199.231,4171.538,0,0
370,71,0,3020,4186.41,4185.128,4185.0,4190.641,4183.59,4199.615,4181.923,4170.513,4162.0509999999995,4180.513,4175.385,4159.231,4197.308,4168.974,0,0
371,72,0,2441,4186.154,4185.641,4187.308,4189.487,4184.231,4198.333,4186.026,4178.59,4165.513,4176.667,4173.077,4160.128,4197.436,4171.41,0,0
372,73,0,3476,4182.179,4180.513,4183.077,4191.923,4183.077,4198.59,4183.59,4176.667,4168.333,4181.795,4176.154,4160.513,4195.769,4168.718,0,0
373,74,0,3109,4172.436,4168.974,4173.846,4189.103,4181.923,4198.077,4181.154,4173.333,4166.154,4185.769,4174.231,4156.41,4190.769,4165.128,0,0
374,75,0,2921,4175.641,4176.154,4177.308,4184.872,4181.41,4196.41,4182.9490000000005,4183.846,4170.0,4184.359,4172.692,4163.205,4192.436,4167.308,0,0
375,76,0,2578,4183.718,4183.718,4183.718,4186.795,4178.077,4192.436,4185.128,4188.462,4173.077,4186.538,4174.872,4169.231,4198.974,4169.744000000001,0,0
376,77,0,3259,4174.487,4176.538,4177.821,4187.9490000000005,4174.359,4187.821,4178.205,4175.897,4169.872,4190.641,4175.128,4161.026,4202.692,4167.179,0,0
377,78,0,3109,4167.0509999999995,4167.821,4169.487,4185.0,4172.436,4184.744000000001,4170.641,4163.974,4167.436,4185.128,4168.974,4149.487,4197.308,4165.0,0,0
378,79,0,2921,4176.923,4168.846,4172.564,4184.615,4171.538,4187.179,4176.154,4163.077,4165.513,4180.385,4166.923,4149.359,4189.231,4166.026,0,0
379,80,0,2578,4187.179,4179.359,4182.0509999999995,4186.795,4171.538,4191.667,4183.333,4167.0509999999995,4165.641,4186.667,4177.821,4160.513,4193.59,4172.564,0,0
380,81,0,3259,4190.641,4184.359,4186.026,4187.179,4171.282,4188.59,4182.0509999999995,4170.255999999999,4167.179,4181.154,4182.9490000000005,4165.255999999999,4200.769,4178.718,0,0
381,82,0,3109,4189.872,4175.513,4180.385,4186.282,4169.872,4186.923,4178.59,4169.744000000001,4166.154,4167.179,4171.538,4161.538,4193.59,4174.872,0,0
382,83,0,2921,4185.641,4169.487,4176.282,4187.0509999999995,4168.59,4189.359,4178.974,4169.615,4167.179,4174.231,4167.564,4164.231,4186.41,4170.513,0,0
383,84,0,2578,4184.872,4174.487,4181.026,4188.333,4169.615,4183.077,4178.462,4168.718,4169.103,4187.564,4180.0,4170.255999999999,4188.718,4172.821,0,0
384,85,0,3259,4183.333,4172.0509999999995,4181.795,4186.923,4174.872,4175.0,4176.538,4169.103,4168.333,4184.744000000001,4182.436,4167.564,4186.538,4171.41,0,0
385,86,0,3109,4184.359,4175.255999999999,4181.282,4186.41,4182.308,4180.513,4180.385,4174.872,4168.846,4182.179,4176.282,4167.692,4186.667,4172.564,0,0
386,87,0,2921,4189.487,4187.692,4186.026,4188.718,4183.974,4186.667,4183.333,4170.255999999999,4170.385,4187.692,4183.205,4174.231,4195.513,4184.872,0,0
387,88,0,2578,4188.974,4181.795,4182.821,4189.359,4181.538,4178.59,4177.0509999999995,4156.923,4167.436,4185.513,4189.872,4172.0509999999995,4197.179,4186.026,0,0
388,89,0,3259,4183.462,4173.333,4174.744000000001,4188.462,4182.436,4175.513,4171.154,4158.333,4165.255999999999,4176.282,4179.103,4168.846,4192.436,4172.692,0,0
389,90,0,3109,4181.923,4181.538,4178.077,4187.9490000000005,4185.641,4184.744000000001,4173.077,4168.974,4166.923,4170.769,4173.974,4170.641,4194.231,4172.564,0,0
390,91,0,2921,4189.359,4188.718,4187.308,4189.103,4186.282,4190.385,4174.615,4170.769,4166.41,4176.282,4179.872,4171.026,4197.692,4183.205,0,0
391,92,0,2578,4197.436,4185.128,4188.333,4195.385,4185.255999999999,4186.538,4171.795,4166.538,4167.821,4186.282,4174.615,4168.974,4194.872,4186.538,0,0
392,93,0,3259,4194.359,4184.103,4186.282,4200.128,4186.41,4183.205,4169.872,4165.255999999999,4167.179,4186.026,4172.564,4169.231,4189.615,4183.846,0,0
393,94,0,3109,4186.282,4185.385,4188.846,4198.077,4189.744000000001,4189.872,4175.255999999999,4167.179,4158.462,4185.255999999999,4182.9490000000005,4169.744000000001,4188.59,4181.538,0,0
394,95,0,2921,4189.872,4188.718,4191.667,4200.128,4190.128,4195.128,4188.846,4169.615,4159.872,4185.513,4186.41,4170.385,4188.846,4183.59,0,0
395,96,0,2578,4190.255999999999,4187.564,4189.872,4201.795,4187.821,4190.513,4187.308,4168.205,4166.795,4177.0509999999995,4175.128,4171.282,4186.923,4183.846,0,0
396,97,0,3259,4175.769,4174.744000000001,4180.769,4192.436,4184.103,4182.436,4170.255999999999,4163.205,4161.538,4172.9490000000005,4166.795,4165.0,4185.641,4174.231,0,0
397,98,0,3109,4166.667,4171.667,4172.821,4185.385,4178.718,4183.974,4171.538,4165.128,4160.255999999999,4178.718,4173.077,4159.872,4186.154,4168.077,0,0
398,99,0,2921,4172.692,4182.564,4176.282,4190.769,4177.436,4189.359,4184.872,4175.128,4172.0509999999995,4186.026,4185.641,4166.026,4192.564,4178.846,0,0
399,100,0,2578,4182.179,4186.538,4183.974,4193.59,4181.538,4190.0,4184.231,4185.128,4175.641,4190.641,4191.41,4175.385,4202.564,4189.359,0,0
400,101,0,3259,4185.0,4183.718,4181.667,4188.205,4183.974,4189.872,4179.103,4183.462,4171.026,4190.897,4187.308,4174.231,4200.385,4186.41,0,0
401,102,0,3109,4178.077,4181.795,4176.282,4186.026,4181.538,4189.359,4182.9490000000005,4175.128,4170.897,4185.0,4177.179,4163.077,4186.667,4176.41,0,0
402,103,0,2921,4170.128,4174.231,4176.154,4188.077,4178.077,4188.462,4184.103,4171.282,4164.744000000001,4174.872,4162.179,4153.077,4180.641,4166.538,0,0
403,104,0,2578,4171.154,4169.615,4174.872,4189.103,4176.026,4188.333,4180.0,4171.282,4156.154,4168.077,4157.9490000000005,4151.41,4182.179,4164.744000000001,0,0
404,105,0,3259,4173.974,4174.359,4173.59,4188.846,4175.897,4187.821,4179.103,4173.077,4158.974,4168.462,4168.333,4155.513,4181.795,4170.255999999999,0,0
405,106,0,3109,4168.59,4172.821,4167.9490000000005,4186.41,4174.744000000001,4183.846,4173.333,4165.897,4160.255999999999,4170.513,4170.641,4153.974,4181.026,4167.436,0,0
406,107,0,2921,4165.641,4171.667,4161.154,4182.564,4171.282,4180.0,4163.974,4153.205,4154.487,4168.077,4164.103,4147.821,4185.128,4162.821,0,0
407,108,0,2578,4170.128,4180.641,4164.744000000001,4181.923,4170.769,4182.436,4165.0,4156.154,4159.615,4171.154,4169.615,4151.923,4194.615,4172.436,0,0
408,109,0,3259,4175.641,4187.0509999999995,4171.923,4183.974,4171.538,4186.795,4170.769,4170.0,4171.282,4183.846,4185.897,4167.821,4201.41,4182.9490000000005,0,0
409,110,0,3109,4179.103,4184.359,4171.923,4183.077,4169.487,4183.974,4170.897,4177.692,4170.513,4188.333,4191.026,4174.872,4199.487,4183.718,0,0
410,111,0,2921,4183.333,4181.795,4171.282,4183.333,4167.9490000000005,4181.282,4171.026,4179.744000000001,4167.308,4188.077,4182.692,4175.0,4199.487,4183.846,0,0
411,112,0,2578,4187.692,4181.026,4173.59,4184.872,4170.128,4186.538,4175.641,4183.846,4173.077,4195.0,4178.846,4184.103,4202.692,4187.0509999999995,0,0
412,113,0,3259,4186.282,4179.359,4171.41,4184.359,4171.026,4190.0,4176.795,4186.667,4176.026,4201.538,4183.333,4183.462,4199.872,4186.154,0,0
413,114,0,3109,4184.744000000001,4181.923,4171.154,4184.615,4171.282,4187.308,4171.923,4182.821,4172.564,4200.769,4187.9490000000005,4171.538,4198.077,4185.0,0,0
414,115,0,2921,4188.205,4187.308,4173.077,4186.41,4172.692,4185.128,4172.308,4173.205,4172.179,4198.462,4187.179,4169.872,4200.641,4184.872,0,0
415,116,0,2578,4189.615,4186.795,4171.667,4186.282,4171.538,4186.795,4176.282,4173.333,4171.154,4193.077,4183.59,4174.359,4199.103,4182.308,0,0
416,117,0,3259,4186.282,4183.59,4169.359,4184.615,4170.641,4189.103,4173.718,4185.0,4172.179,4186.41,4185.0,4176.667,4196.41,4182.179,0,0
417,118,0,3109,4187.436,4185.513,4171.667,4185.128,4172.436,4188.846,4173.205,4187.179,4181.026,4190.641,4188.205,4183.205,4200.255999999999,4184.872,0,0
418,119,0,2921,4190.513,4181.538,4175.641,4185.255999999999,4172.0509999999995,4188.205,4177.692,4182.564,4183.59,4201.282,4187.821,4185.0,4204.487,4186.923,0,0
419,120,0,2578,4186.282,4177.308,4174.103,4184.359,4168.974,4189.744000000001,4176.026,4182.308,4173.974,4203.718,4184.487,4181.795,4201.154,4186.923,0,0
420,121,0,3259,4183.718,4179.872,4175.513,4185.385,4168.974,4189.744000000001,4176.154,4184.231,4170.255999999999,4195.255999999999,4183.59,4181.667,4196.795,4186.923,0,0
421,122,0,3109,4186.026,4175.513,4182.179,4187.692,4169.231,4188.59,4184.615,4183.462,4173.205,4189.231,4186.795,4178.59,4198.462,4186.026,0,0
422,123,0,2921,4187.436,4171.154,4184.615,4187.564,4168.077,4188.974,4181.41,4179.487,4172.9490000000005,4195.385,4189.744000000001,4177.308,4199.744000000001,4183.974,0,0
423,124,0,2578,4187.0509999999995,4181.282,4182.821,4186.154,4171.154,4190.513,4173.462,4177.564,4172.436,4196.667,4186.41,4178.718,4198.846,4183.205,0,0
424,125,0,3259,4186.795,4185.0,4180.255999999999,4188.333,4177.0509999999995,4190.0,4175.897,4176.667,4173.59,4185.255999999999,4183.205,4175.128,4198.846,4185.897,0,0
425,126,0,3109,4186.282,4172.564,4174.231,4190.255999999999,4180.641,4191.667,4175.641,4172.821,4173.333,4184.744000000001,4186.026,4168.718,4193.846,4185.0,0,0
426,127,0,52,4179.615,4167.0509999999995,4168.333,4185.769,4181.667,4192.0509999999995,4170.0,4167.821,4165.769,4186.282,4181.538,4161.154,4183.077,4175.255999999999,0,0
427,0,0,2575,4170.128,4168.974,4167.692,4180.769,4184.231,4186.795,4170.255999999999,4166.282,4156.538,4171.538,4168.077,4153.205,4178.974,4167.179,0,0
428,1,0,1962,4168.077,4167.821,4165.255999999999,4183.333,4186.154,4188.205,4170.769,4165.513,4161.026,4171.026,4170.0,4151.282,4181.41,4168.333,0,0
429,2,0,3427,4169.744000000001,4167.692,4157.9490000000005,4182.308,4178.974,4197.179,4168.718,4164.487,4170.255999999999,4187.436,4181.41,4152.821,4184.744000000001,4169.872,0,0
430,3,0,3365,4167.692,4167.9490000000005,4154.615,4171.538,4174.231,4200.255999999999,4174.231,4171.41,4171.923,4191.282,4178.333,4151.026,4192.179,4166.795,0,0
431,4,0,3004,4171.026,4170.641,4160.769,4170.385,4182.308,4198.333,4182.0509999999995,4184.615,4173.846,4191.41,4173.462,4157.179,4200.385,4171.282,0,0
432,5,0,2599,4183.59,4175.641,4170.769,4180.769,4188.59,4201.667,4183.718,4191.154,4176.41,4199.487,4186.41,4167.9490000000005,4201.795,4183.462,0,0
433,6,0,2503,4194.872,4179.615,4179.487,4185.897,4183.846,4204.744000000001,4183.846,4186.795,4174.359,4202.564,4196.667,4175.897,4200.897,4189.872,0,0
434,7,0,3020,4201.026,4180.897,4185.513,4186.026,4182.692,4201.154,4183.077,4185.513,4173.205,4200.255999999999,4189.231,4183.333,4201.026,4188.462,0,0
435,8,0,2441,4201.667,4181.667,4187.821,4187.179,4189.615,4197.564,4181.667,4189.487,4174.744000000001,4200.897,4181.41,4181.154,4200.0,4186.667,0,0
436,9,0,3477,4199.487,4183.462,4186.026,4185.255999999999,4190.0,4196.41,4179.359,4188.718,4175.769,4195.897,4186.026,4173.077,4197.564,4186.41,0,0
437,10,0,3109,4198.974,4184.359,4183.846,4184.487,4183.846,4195.128,4173.077,4186.41,4176.538,4191.538,4189.487,4171.538,4197.436,4184.744000000001,0,0
438,11,0,2920,4200.385,4187.308,4184.231,4188.333,4182.9490000000005,4190.385,4168.59,4189.359,4175.255999999999,4199.615,4185.897,4173.462,4199.359,4183.59,0,0
439,12,0,2578,4201.026,4192.0509999999995,4185.0,4188.718,4187.821,4188.077,4169.103,4188.333,4173.077,4207.308,4181.282,4170.641,4201.026,4183.077,0,0
440,13,0,3259,4197.0509999999995,4192.179,4185.255999999999,4187.692,4188.333,4191.154,4167.9490000000005,4182.9490000000005,4171.154,4205.0,4183.333,4168.077,4200.769,4182.564,0,0
441,14,0,3109,4189.231,4187.564,4180.128,4186.923,4183.205,4188.718,4166.795,4181.41,4170.255999999999,4197.308,4186.667,4167.692,4198.205,4180.385,0,0
442,15,0,2920,4184.487,4179.872,4173.846,4182.821,4180.769,4185.385,4168.59,4177.821,4170.385,4189.744000000001,4178.59,4166.154,4190.897,4178.333,0,0
443,16,0,0,4188.462,4172.9490000000005,4177.0509999999995,4181.41,4180.513,4194.103,4173.077,4174.872,4168.462,4186.154,4171.026,4168.077,4187.692,4180.0,0,0
444,17,0,0,4192.9490000000005,4168.974,4184.103,4183.462,4181.026,4202.821,4180.897,4181.41,4168.462,4191.538,4181.795,4174.872,4195.128,4183.59,0,0
445,18,0,0,4194.359,4170.897,4185.0,4185.385,4183.846,4202.692,4187.9490000000005,4191.538,4176.026,4198.974,4190.128,4181.795,4201.667,4186.538,0,0
446,19,0,0,4199.359,4180.513,4184.231,4188.974,4187.308,4203.333,4188.59,4199.359,4183.077,4200.897,4186.282,4185.0,4200.769,4188.59,0,0
447,20,0,0,4199.487,4188.462,4185.769,4191.282,4193.333,4204.872,4188.333,4202.564,4185.513,4201.667,4188.974,4186.667,4202.0509999999995,4188.846,0,0
448,21,0,0,4189.744000000001,4189.744000000001,4181.667,4187.692,4200.769,4203.846,4190.255999999999,4196.41,4183.077,4204.615,4193.59,4186.026,4203.718,4189.359,0,0
449,22,0,0,4184.744000000001,4188.462,4175.513,4185.897,4199.103,4200.513,4185.897,4188.205,4175.897,4207.564,4187.179,4175.255999999999,4203.333,4185.641,0,0
450,23,0,0,4183.077,4186.538,4172.308,4186.795,4188.59,4190.0,4174.615,4182.821,4167.308,4199.231,4179.103,4160.128,4203.718,4175.0,0,0
451,24,0,0,4173.462,4182.179,4167.9490000000005,4182.179,4181.154,4183.333,4163.846,4173.205,4163.077,4182.436,4171.538,4151.41,4197.0509999999995,4168.205,0,0
452,25,0,0,4171.41,4182.9490000000005,4166.667,4184.487,4183.462,4182.308,4159.487,4168.333,4165.641,4182.179,4169.231,4150.641,4188.718,4171.41,0,0
453,26,0,0,4177.308,4185.128,4166.41,4187.436,4181.41,4172.821,4157.308,4170.255999999999,4163.59,4186.154,4170.385,4150.0,4188.462,4171.538,0,0
454,27,0,0,4174.744000000001,4183.333,4165.769,4177.436,4174.872,4169.615,4159.359,4166.538,4158.462,4173.333,4163.462,4148.59,4188.59,4166.154,0,0
455,28,0,0,4174.359,4186.41,4169.103,4176.795,4178.718,4182.9490000000005,4167.821,4164.487,4161.41,4167.179,4159.615,4152.0509999999995,4185.513,4167.308,0,0
456,29,0,0,4176.538,4182.436,4167.564,4185.128,4183.333,4188.974,4171.923,4168.205,4167.9490000000005,4176.026,4170.0,4153.59,4185.769,4172.436,0,0
457,30,0,0,4171.923,4172.564,4162.0509999999995,4181.154,4177.436,4183.205,4171.154,4163.077,4167.9490000000005,4176.026,4175.897,4154.231,4188.077,4171.41,0,0
458,31,0,0,4167.0509999999995,4176.026,4161.282,4172.0509999999995,4170.513,4181.282,4170.897,4156.154,4164.231,4166.538,4166.538,4153.718,4188.205,4162.692,0,0
459,32,0,0,4168.077,4183.846,4163.205,4175.513,4173.718,4182.436,4171.538,4162.821,4165.385,4167.179,4161.923,4148.974,4187.692,4159.359,0,0
460,33,0,0,4169.744000000001,4184.872,4165.128,4182.821,4179.231,4184.359,4171.795,4175.897,4170.897,4178.718,4167.692,4148.077,4189.103,4166.795,0,0
461,34,0,0,4171.154,4185.0,4169.615,4182.9490000000005,4181.923,4187.308,4171.154,4175.385,4171.282,4183.59,4174.487,4154.231,4193.462,4171.154,0,0
462,35,0,0,4176.282,4187.9490000000005,4171.538,4182.436,4184.231,4188.077,4172.179,4169.487,4166.923,4181.026,4181.667,4161.667,4197.179,4170.255999999999,0,0
463,36,0,0,4182.564,4192.0509999999995,4170.513,4185.128,4186.026,4186.026,4176.154,4176.41,4169.103,4186.154,4185.769,4166.795,4199.359,4171.795,0,0
464,37,0,0,4182.564,4192.9490000000005,4173.077,4188.077,4186.795,4185.255999999999,4176.282,4181.795,4171.923,4191.538,4182.436,4168.077,4200.513,4173.333,0,0
465,38,0,0,4179.231,4188.333,4172.821,4187.0509999999995,4184.103,4189.103,4172.436,4179.359,4170.769,4183.205,4173.59,4165.769,4197.179,4172.9490000000005,0,0
466,39,0,0,4181.795,4184.872,4170.0,4181.41,4182.436,4193.077,4175.641,4180.385,4173.333,4180.255999999999,4172.436,4167.692,4196.41,4176.282,0,0
467,40,0,0,4186.41,4185.385,4171.538,4177.692,4179.872,4190.513,4183.077,4186.41,4176.026,4188.846,4183.205,4172.0509999999995,4202.436,4182.0509999999995,0,0
468,41,0,0,4185.897,4183.59,4173.333,4180.513,4177.308,4186.667,4183.462,4188.974,4177.308,4188.846,4187.564,4170.513,4204.231,4181.923,0,0
469,42,0,0,4186.41,4184.872,4174.103,4185.385,4181.026,4191.282,4181.282,4188.718,4178.718,4184.359,4176.795,4169.487,4200.0,4176.795,0,0
470,43,0,0,4186.667,4186.538,4174.487,4182.9490000000005,4184.744000000001,4199.872,4183.846,4188.077,4179.487,4185.255999999999,4170.385,4171.41,4201.923,4173.077,0,0
471,44,0,0,4180.255999999999,4183.462,4172.821,4181.026,4185.255999999999,4199.744000000001,4188.59,4188.974,4177.692,4185.128,4172.9490000000005,4167.436,4201.795,4171.795,0,0
472,45,0,0,4172.0509999999995,4184.744000000001,4169.615,4183.718,4186.154,4191.154,4185.0,4186.154,4173.718,4176.667,4171.154,4157.0509999999995,4191.538,4168.974,0,0
473,46,0,0,4164.872,4181.026,4163.205,4180.641,4187.436,4186.154,4174.231,4175.641,4170.0,4166.667,4170.0,4152.692,4182.0509999999995,4162.821,0,0
474,47,0,0,4156.667,4173.333,4156.026,4179.359,4187.308,4186.923,4168.333,4167.0509999999995,4164.103,4166.41,4164.487,4148.59,4180.769,4156.667,0,0
475,48,0,0,4153.333,4176.667,4158.205,4182.564,4187.692,4188.333,4168.974,4161.538,4160.641,4168.462,4152.179,4139.231,4182.436,4151.41,0,0
476,49,0,0,4163.077,4187.0509999999995,4167.692,4183.718,4188.846,4189.103,4171.154,4161.667,4164.231,4167.308,4157.308,4141.923,4184.359,4155.513,0,0
477,50,0,0,4171.538,4189.103,4169.359,4185.641,4189.744000000001,4188.59,4172.436,4163.59,4169.744000000001,4174.744000000001,4176.154,4154.615,4186.923,4165.513,0,0
478,51,0,0,4166.41,4184.103,4163.077,4185.0,4187.692,4186.667,4170.255999999999,4158.718,4168.59,4185.255999999999,4174.103,4154.744000000001,4187.308,4167.0509999999995,0,0
479,52,0,0,4167.308,4185.513,4166.538,4183.718,4185.128,4186.667,4172.0509999999995,4160.255999999999,4168.718,4186.154,4165.897,4153.59,4187.821,4166.538,0,0
480,53,0,0,4176.41,4188.846,4173.974,4186.154,4186.154,4187.564,4177.9490000000005,4168.462,4172.179,4184.103,4176.282,4160.385,4190.0,4172.179,0,0
481,54,0,0,4176.538,4187.0509999999995,4172.564,4188.205,4187.692,4187.9490000000005,4175.641,4166.795,4171.795,4184.359,4183.077,4160.769,4189.231,4174.615,0,0
482,55,0,0,4172.564,4183.077,4171.026,4185.255999999999,4187.692,4189.103,4171.923,4165.128,4170.897,4183.846,4174.103,4161.41,4186.154,4169.744000000001,0,0
483,56,0,0,4178.59,4184.487,4179.359,4186.282,4187.436,4190.641,4174.744000000001,4173.333,4170.769,4183.974,4170.897,4168.462,4185.641,4174.359,0,0
484,57,0,0,4185.641,4185.769,4186.667,4188.333,4186.667,4189.359,4175.0,4170.513,4171.154,4183.333,4180.513,4173.59,4189.359,4185.128,0,0
485,58,0,0,4186.667,4186.026,4185.255999999999,4187.436,4187.692,4188.077,4174.872,4165.128,4169.872,4183.718,4185.128,4177.179,4189.103,4183.718,0,0
486,59,0,0,4195.255999999999,4195.255999999999,4190.769,4196.026,4195.0,4194.359,4183.846,4178.205,4174.487,4192.821,4184.487,4184.744000000001,4186.41,4184.359,0,0
487,60,0,0,4207.9490000000005,4204.231,4202.179,4206.026,4200.641,4197.564,4186.154,4185.128,4181.923,4198.077,4187.821,4191.923,4188.077,4196.282,0,0
488,61,0,0,4201.923,4203.718,4199.872,4203.205,4198.333,4188.718,4175.641,4172.692,4176.154,4189.359,4185.513,4190.0,4188.462,4196.667,0,0
489,62,0,0,4188.59,4197.436,4189.103,4200.128,4198.333,4186.667,4169.744000000001,4164.615,4169.103,4182.436,4174.487,4181.41,4186.667,4181.41,0,0
490,63,0,0,4185.641,4190.769,4185.385,4198.718,4201.538,4192.436,4171.923,4170.0,4171.154,4183.974,4167.0509999999995,4172.564,4185.769,4171.026,0,0
491,64,0,2569,4183.077,4187.821,4184.359,4191.795,4200.255999999999,4190.641,4176.538,4176.41,4171.154,4185.897,4168.846,4170.128,4186.026,4171.026,0,0
492,65,0,1965,4177.821,4188.462,4183.59,4190.0,4198.205,4191.41,4181.026,4181.923,4174.103,4185.0,4174.615,4170.897,4192.179,4175.128,0,0
493,66,0,3423,4177.436,4185.897,4184.872,4197.308,4198.718,4198.718,4183.462,4188.59,4182.821,4185.0,4181.923,4172.692,4199.359,4180.513,0,0
494,67,0,3351,4182.179,4184.744000000001,4184.744000000001,4200.385,4200.128,4198.333,4185.513,4191.538,4184.872,4188.077,4186.923,4179.615,4200.897,4184.103,0,0
495,68,0,3001,4186.538,4189.487,4184.615,4194.615,4200.385,4195.128,4187.821,4191.538,4182.821,4190.769,4185.385,4183.59,4199.359,4185.255999999999,0,0
496,69,0,2591,4181.923,4188.462,4180.897,4187.436,4195.255999999999,4194.231,4188.59,4187.821,4183.974,4186.026,4180.769,4177.308,4191.795,4185.128,0,0
497,70,0,2503,4172.692,4184.359,4173.974,4186.154,4187.0509999999995,4190.128,4188.333,4184.872,4183.462,4180.769,4182.436,4172.308,4180.255999999999,4184.103,0,0
498,71,0,3027,4170.385,4184.487,4170.385,4187.821,4185.897,4186.154,4183.077,4180.769,4179.615,4185.128,4187.308,4173.333,4187.0509999999995,4185.385,0,0
499,72,0,2443,4172.0509999999995,4190.255999999999,4169.615,4183.718,4188.077,4183.333,4170.769,4170.641,4177.436,4188.333,4183.333,4173.59,4199.231,4186.282,0,0
500,73,0,3486,4176.667,4200.128,4174.487,4183.846,4187.0509999999995,4180.641,4166.538,4166.795,4180.513,4184.872,4178.077,4174.231,4194.487,4186.538,0,0
501,74,0,3109,4186.667,4199.487,4183.333,4192.436,4185.641,4184.103,4172.821,4171.154,4183.462,4183.59,4183.846,4174.615,4188.333,4188.846,0,0
502,75,0,2914,4185.513,4189.359,4178.974,4190.897,4183.846,4186.795,4173.974,4174.359,4180.0,4184.872,4190.641,4170.897,4187.821,4185.897,0,0
503,76,0,2568,4179.231,4192.692,4169.487,4184.744000000001,4184.487,4188.333,4175.641,4178.718,4178.974,4185.128,4180.897,4168.205,4187.564,4181.795,0,0
504,77,0,3259,4184.744000000001,4200.128,4178.59,4188.333,4188.462,4197.436,4185.641,4186.026,4184.103,4185.0,4170.769,4168.59,4189.359,4182.436,0,0
505,78,0,3109,4186.795,4192.564,4185.513,4191.795,4188.333,4203.59,4190.385,4187.308,4181.41,4184.872,4173.846,4168.718,4189.744000000001,4181.154,0,0
506,79,0,2914,4176.154,4185.641,4174.487,4186.923,4186.923,4195.641,4186.667,4182.821,4171.667,4181.41,4180.769,4168.846,4184.872,4177.9490000000005,0,0
507,80,0,2568,4167.821,4186.282,4167.564,4183.077,4186.41,4188.333,4183.846,4179.744000000001,4166.923,4175.513,4182.0509999999995,4167.564,4183.077,4175.255999999999,0,0
508,81,0,3259,4166.282,4182.308,4170.255999999999,4182.564,4185.128,4190.385,4181.154,4177.179,4170.255999999999,4171.282,4175.255999999999,4166.41,4184.487,4173.974,0,0
509,82,0,3109,4166.538,4180.255999999999,4171.795,4185.255999999999,4184.231,4188.462,4176.026,4172.436,4172.179,4175.255999999999,4175.513,4169.359,4184.359,4177.436,0,0
510,83,0,2914,4173.718,4186.795,4176.923,4191.667,4186.538,4186.282,4171.41,4168.718,4170.0,4182.692,4183.59,4172.692,4186.795,4183.974,0,0
511,84,0,2568,4185.128,4190.255999999999,4184.231,4193.205,4187.821,4190.128,4173.077,4169.872,4171.667,4185.128,4187.9490000000005,4174.744000000001,4190.128,4187.179,0,0
512,85,0,3259,4181.923,4187.9490000000005,4182.308,4189.359,4186.923,4190.513,4179.487,4168.974,4174.744000000001,4183.333,4186.923,4174.615,4188.846,4185.385,0,0
513,86,0,3109,4174.487,4184.359,4179.231,4187.308,4185.128,4186.41,4185.128,4167.692,4173.59,4181.538,4184.487,4173.462,4184.487,4185.128,0,0
514,87,0,2914,4177.821,4182.308,4180.385,4187.9490000000005,4183.846,4187.0509999999995,4187.308,4175.0,4169.872,4183.077,4182.692,4176.41,4186.026,4188.462,0,0
515,88,0,2568,4178.718,4183.718,4182.821,4188.333,4184.487,4193.462,4187.821,4185.128,4174.487,4187.0509999999995,4182.564,4178.077,4188.974,4189.872,0,0
516,89,0,3259,4175.255999999999,4185.897,4181.026,4189.103,4185.385,4195.513,4183.59,4188.462,4184.744000000001,4188.077,4185.769,4171.538,4187.308,4182.821,0,0
517,90,0,3109,4180.769,4185.255999999999,4177.821,4188.205,4185.255999999999,4191.795,4176.282,4182.0509999999995,4182.821,4186.795,4185.385,4167.692,4189.872,4179.615,0,0
518,91,0,2914,4184.487,4185.769,4176.538,4187.821,4185.513,4189.615,4174.487,4177.308,4171.923,4190.0,4185.641,4173.718,4192.9490000000005,4186.282,0,0
519,92,0,2568,4176.538,4189.231,4177.692,4189.615,4185.641,4188.974,4174.615,4172.692,4167.179,4185.0,4182.564,4170.641,4187.308,4182.0509999999995,0,0
520,93,0,3259,4169.359,4186.282,4173.077,4187.9490000000005,4185.0,4187.0509999999995,4168.974,4162.564,4167.0509999999995,4171.538,4169.615,4155.385,4181.923,4169.359,0,0
521,94,0,3109,4169.103,4181.41,4168.462,4186.026,4186.667,4186.282,4166.026,4162.9490000000005,4168.077,4174.359,4168.718,4155.513,4184.744000000001,4167.692,0,0
522,95,0,2914,4171.154,4184.872,4176.923,4187.564,4187.692,4188.077,4175.513,4172.308,4172.0509999999995,4188.205,4183.333,4169.744000000001,4188.077,4173.333,0,0
523,96,0,2568,4171.538,4181.538,4181.154,4186.795,4181.282,4186.41,4181.282,4171.026,4171.026,4184.615,4184.744000000001,4169.744000000001,4183.718,4172.692,0,0
524,97,0,3259,4169.231,4169.744000000001,4174.359,4183.462,4176.795,4182.9490000000005,4173.333,4164.103,4165.769,4173.718,4172.0509999999995,4158.077,4174.744000000001,4169.487,0,0
525,98,0,3109,4168.846,4169.872,4170.641,4182.9490000000005,4180.897,4182.564,4171.026,4162.692,4165.769,4172.692,4166.154,4154.359,4168.974,4169.872,0,0
526,99,0,2914,4170.0,4176.282,4171.026,4183.974,4182.179,4185.513,4174.487,4163.333,4168.462,4175.769,4168.59,4155.897,4171.41,4171.154,0,0
527,100,0,2568,4168.974,4173.333,4171.41,4184.872,4173.462,4188.205,4171.923,4165.0,4168.462,4180.513,4172.564,4156.154,4178.846,4171.282,0,0
528,101,0,3259,4168.974,4169.487,4170.385,4185.769,4171.41,4188.077,4175.513,4172.564,4173.333,4185.897,4172.179,4155.0,4183.077,4169.231,0,0
529,102,0,3109,4170.641,4172.436,4172.308,4182.9490000000005,4178.205,4188.205,4182.436,4179.615,4179.872,4188.974,4168.333,4153.462,4183.333,4171.154,0,0
530,103,0,2914,4164.487,4173.333,4171.538,4176.41,4176.667,4187.564,4175.255999999999,4172.564,4175.513,4184.487,4167.0509999999995,4154.487,4185.255999999999,4171.282,0,0
531,104,0,2568,4152.821,4165.385,4163.205,4170.641,4169.615,4185.513,4167.9490000000005,4156.923,4166.026,4175.255999999999,4167.436,4153.205,4182.692,4162.436,0,0
532,105,0,3259,4150.513,4156.282,4158.846,4175.255999999999,4168.974,4183.462,4171.282,4159.615,4165.255999999999,4172.0509999999995,4168.205,4149.872,4172.436,4155.513,0,0
533,106,0,3109,4155.255999999999,4155.128,4166.41,4181.41,4170.769,4181.923,4171.282,4167.9490000000005,4167.564,4173.846,4170.897,4152.9490000000005,4168.205,4158.205,0,0
534,107,0,2914,4155.641,4155.769,4170.385,4176.282,4169.744000000001,4184.487,4166.41,4159.103,4166.026,4172.564,4169.359,4155.128,4171.667,4159.744000000001,0,0
535,108,0,2568,4152.821,4152.692,4165.255999999999,4167.308,4170.385,4184.103,4166.282,4157.692,4166.154,4170.385,4162.692,4151.026,4171.667,4157.179,0,0
536,109,0,3259,4155.513,4153.59,4166.667,4169.231,4171.154,4175.769,4166.41,4169.615,4168.462,4171.538,4165.513,4152.308,4170.897,4160.897,0,0
537,110,0,3109,4165.513,4155.641,4172.179,4180.255999999999,4170.385,4173.077,4167.0509999999995,4167.692,4169.231,4170.769,4175.385,4158.718,4172.564,4169.615,0,0
538,111,0,2914,4169.103,4155.513,4171.282,4181.282,4171.026,4177.821,4164.103,4158.846,4165.641,4170.513,4166.795,4157.821,4171.026,4172.821,0,0
539,112,0,2568,4159.872,4154.872,4168.59,4172.0509999999995,4170.897,4176.41,4155.641,4155.128,4155.513,4168.59,4152.179,4151.795,4168.462,4166.667,0,0
540,113,0,3259,4153.333,4151.026,4169.615,4170.513,4170.897,4171.282,4157.692,4156.026,4152.0509999999995,4166.667,4159.872,4153.205,4169.359,4159.744000000001,0,0
541,114,0,3109,4155.255999999999,4142.9490000000005,4165.128,4174.872,4169.872,4172.821,4169.231,4164.103,4162.692,4169.487,4164.744000000001,4150.128,4170.641,4157.308,0,0
542,115,0,2914,4151.923,4138.718,4153.718,4170.897,4169.231,4178.333,4173.59,4166.41,4169.744000000001,4168.205,4151.538,4138.333,4168.462,4151.923,0,0
543,116,0,2568,4148.462,4145.897,4155.255999999999,4172.436,4176.026,4183.333,4171.282,4164.359,4167.0509999999995,4166.282,4155.385,4140.255999999999,4172.436,4152.308,0,0
544,117,0,3259,4160.0,4155.897,4169.487,4185.897,4186.026,4185.897,4174.231,4176.538,4169.744000000001,4177.9490000000005,4174.359,4155.513,4184.231,4165.255999999999,0,0
545,118,0,3109,4166.795,4155.255999999999,4172.564,4183.205,4187.308,4186.154,4177.0509999999995,4181.41,4172.436,4188.333,4175.128,4159.359,4186.667,4173.205,0,0
546,119,0,2914,4158.205,4152.0509999999995,4164.615,4171.282,4183.846,4187.0509999999995,4173.205,4174.231,4171.41,4186.282,4171.41,4155.769,4182.9490000000005,4170.769,0,0
547,120,0,2568,4152.0509999999995,4154.103,4157.179,4172.179,4184.487,4186.923,4171.923,4176.026,4176.154,4184.487,4173.974,4156.026,4187.179,4164.744000000001,0,0
548,121,0,3259,4154.744000000001,4154.615,4153.974,4174.615,4185.769,4186.538,4177.692,4180.385,4181.667,4187.436,4170.385,4150.769,4189.231,4158.718,0,0
549,122,0,3109,4155.385,4151.923,4160.385,4171.795,4184.615,4186.538,4183.077,4180.769,4182.0509999999995,4187.564,4166.282,4146.154,4183.846,4157.308,0,0
550,123,0,2914,4152.179,4152.564,4165.128,4172.692,4182.9490000000005,4186.538,4182.692,4182.436,4177.9490000000005,4185.0,4167.179,4150.128,4183.846,4157.692,0,0
551,124,0,2568,4154.103,4152.692,4162.0509999999995,4175.385,4182.692,4186.538,4184.103,4177.9490000000005,4175.641,4185.255999999999,4171.538,4155.0,4186.538,4161.282,0,0
552,125,0,3259,4155.897,4152.9490000000005,4162.0509999999995,4175.0,4183.974,4186.538,4186.41,4170.513,4179.487,4186.795,4172.0509999999995,4155.769,4183.846,4163.205,0,0
553,126,0,3109,4153.59,4153.846,4165.769,4173.205,4185.0,4186.538,4179.872,4168.974,4179.872,4186.667,4168.462,4153.974,4182.821,4162.308,0,0
554,127,0,52,4156.026,4154.359,4167.436,4171.667,4184.872,4186.026,4174.103,4168.718,4176.026,4184.487,4167.564,4158.846,4185.255999999999,4164.487,0,0
555,0,0,2570,4162.0509999999995,4156.282,4168.846,4172.692,4183.846,4185.769,4175.128,4175.641,4179.615,4187.179,4172.308,4167.9490000000005,4185.385,4171.026,0,0
556,1,0,1979,4160.641,4155.897,4171.026,4176.026,4184.103,4184.615,4173.205,4183.333,4186.795,4195.0,4178.462,4172.436,4185.385,4172.564,0,0
557,2,0,3427,4155.897,4153.846,4165.385,4176.282,4185.769,4182.308,4167.692,4174.615,4184.103,4195.385,4177.308,4167.0509999999995,4187.308,4169.615,0,0
558,3,0,3352,4156.41,4154.615,4159.487,4171.154,4183.333,4181.667,4170.385,4170.128,4181.154,4188.59,4169.231,4160.897,4188.718,4169.359,0,0
559,4,0,3001,4155.897,4155.385,4159.872,4169.359,4175.641,4181.923,4173.974,4180.255999999999,4182.692,4183.846,4163.462,4157.821,4189.103,4167.179,0,0
560,5,0,2588,4158.974,4155.513,4162.692,4177.0509999999995,4170.769,4181.538,4170.513,4181.026,4182.436,4184.231,4170.128,4155.513,4187.692,4168.333,0,0
561,6,0,2498,4167.9490000000005,4156.41,4167.0509999999995,4182.821,4170.641,4182.564,4176.026,4176.667,4182.308,4184.359,4177.9490000000005,4162.308,4185.128,4170.897,0,0
562,7,0,3020,4170.769,4156.41,4169.872,4173.077,4171.154,4183.333,4184.231,4183.59,4183.077,4184.487,4172.692,4170.641,4186.026,4171.538,0,0
563,8,0,2444,4168.462,4155.0,4164.231,4166.154,4170.513,4177.9490000000005,4176.667,4187.692,4184.744000000001,4185.769,4167.821,4163.077,4188.59,4171.538,0,0
564,9,0,3488,4167.179,4159.103,4158.974,4177.179,4169.872,4172.308,4169.359,4181.154,4184.231,4183.59,4171.282,4153.59,4187.821,4170.513,0,0
565,10,0,3109,4169.872,4168.077,4167.564,4183.974,4171.282,4176.282,4178.974,4180.769,4182.0509999999995,4182.564,4172.0509999999995,4164.872,4185.897,4173.333,0,0
566,11,0,2919,4170.513,4171.538,4169.231,4179.231,4172.0509999999995,4185.0,4188.205,4190.128,4185.513,4184.872,4171.923,4172.0509999999995,4187.564,4174.231,0,0
567,12,0,2576,4160.385,4166.154,4156.026,4177.821,4169.487,4187.0509999999995,4185.769,4189.615,4185.513,4185.0,4172.179,4154.872,4190.0,4166.923,0,0
568,13,0,3260,4160.0,4166.026,4157.0509999999995,4185.769,4173.077,4182.821,4184.231,4180.513,4176.154,4182.179,4166.667,4148.205,4190.0,4163.718,0,0
569,14,0,3109,4176.538,4177.179,4171.923,4189.487,4184.615,4182.436,4187.692,4180.897,4175.255999999999,4183.333,4175.897,4166.41,4189.744000000001,4173.333,0,0
570,15,0,2919,4179.103,4180.513,4173.846,4184.872,4184.744000000001,4187.692,4190.0,4189.103,4184.615,4188.974,4188.846,4176.538,4194.872,4178.846,0,0
571,16,0,0,4163.59,4168.462,4164.872,4183.846,4172.821,4181.923,4187.0509999999995,4183.718,4183.974,4188.974,4175.769,4157.436,4201.154,4165.513,0,0
572,17,0,0,4164.231,4162.9490000000005,4167.179,4185.128,4169.872,4171.41,4183.462,4174.359,4180.385,4187.9490000000005,4171.538,4146.538,4198.333,4162.9490000000005,0,0
573,18,0,0,4178.974,4172.0509999999995,4173.974,4181.667,4174.231,4178.462,4183.077,4181.795,4184.872,4189.872,4188.718,4167.179,4190.641,4183.333,0,0
574,19,0,0,4168.59,4174.231,4163.205,4179.359,4172.9490000000005,4186.795,4181.026,4183.974,4178.846,4179.872,4181.667,4169.103,4186.282,4177.564,0,0
575,20,0,0,4156.026,4165.128,4156.538,4187.9490000000005,4170.255999999999,4183.462,4182.0509999999995,4173.974,4170.897,4168.846,4173.205,4150.128,4185.897,4157.436,0,0
576,21,0,0,4171.795,4162.0509999999995,4167.821,4186.154,4169.615,4184.231,4186.026,4174.487,4174.487,4171.154,4179.103,4158.59,4184.615,4171.026,0,0
577,22,0,0,4188.974,4183.974,4178.077,4180.769,4173.846,4187.692,4188.718,4183.59,4175.897,4174.615,4170.385,4178.974,4182.179,4188.077,0,0
578,23,0,0,4190.385,4210.513,4179.231,4193.59,4184.359,4186.41,4193.718,4188.462,4178.333,4178.974,4178.974,4179.744000000001,4183.59,4186.795,0,0
579,24,0,0,4196.538,4213.462,4187.179,4204.615,4186.795,4190.0,4201.667,4191.154,4183.59,4188.205,4217.436,4182.692,4187.821,4195.0,0,0
580,25,0,0,4202.9490000000005,4218.462,4193.59,4202.821,4177.0509999999995,4192.821,4203.205,4192.0509999999995,4179.231,4184.744000000001,4203.974,4195.513,4190.0,4201.795,0,0
581,26,0,0,4170.128,4225.513,4169.487,4188.718,4168.974,4181.795,4191.41,4181.026,4169.359,4169.359,4156.667,4178.205,4186.282,4176.282,0,0
582,27,0,0,4141.026,4232.0509999999995,4148.974,4176.282,4169.872,4177.179,4182.436,4173.205,4172.179,4166.795,4168.077,4152.308,4183.59,4156.538,0,0
583,28,0,0,4168.077,4264.231,4169.359,4195.255999999999,4173.846,4188.333,4191.795,4183.974,4183.59,4176.41,4198.205,4166.795,4188.077,4175.769,0,0
584,29,0,0,4187.0509999999995,4296.923,4181.026,4216.41,4173.59,4187.692,4196.667,4188.077,4184.103,4175.641,4188.205,4186.026,4189.359,4191.667,0,0
585,30,0,0,4164.103,4331.667,4158.974,4206.282,4168.333,4176.282,4186.538,4183.974,4179.231,4167.9490000000005,4176.667,4173.974,4188.077,4178.59,0,0
586,31,0,0,4156.538,4400.128,4153.333,4203.974,4167.821,4180.513,4188.333,4191.667,4182.436,4172.0509999999995,4169.487,4162.692,4191.154,4165.128,0,0
587,32,0,0,4172.9490000000005,4444.103,4169.744000000001,4220.255999999999,4170.769,4189.872,4202.308,4196.538,4183.718,4179.231,4154.744000000001,4166.667,4190.255999999999,4170.641,0,0
588,33,0,0,4173.333,4436.795,4171.923,4222.821,4164.359,4184.615,4200.513,4186.154,4172.308,4172.821,4157.308,4168.333,4183.59,4174.487,0,0
589,34,0,0,4167.564,4442.9490000000005,4166.026,4226.154,4160.769,4181.41,4190.897,4178.974,4167.436,4163.077,4151.667,4173.718,4182.564,4173.077,0,0
590,35,0,0,4160.897,4449.744000000001,4158.205,4232.436,4164.744000000001,4185.897,4185.897,4176.41,4172.564,4159.231,4134.103,4169.103,4186.282,4169.615,0,0
591,36,0,0,4153.077,4455.385,4152.308,4228.333,4161.154,4183.718,4186.795,4174.487,4173.205,4160.0,4153.974,4159.103,4185.513,4170.128,0,0
592,37,0,0,4159.487,4506.41,4158.846,4238.077,4153.462,4179.359,4191.538,4179.744000000001,4170.513,4166.154,4175.255999999999,4166.538,4182.308,4174.103,0,0
593,38,0,0,4167.308,4551.795,4168.205,4251.538,4151.923,4183.59,4191.282,4184.744000000001,4177.179,4170.0,4153.333,4172.308,4185.513,4172.821,0,0
594,39,0,0,4167.0509999999995,4550.385,4169.359,4248.077,4153.333,4183.846,4187.179,4185.128,4183.974,4167.692,4139.487,4170.641,4191.41,4178.077,0,0
595,40,0,0,4164.872,4553.59,4161.795,4253.077,4154.615,4170.897,4186.282,4186.154,4177.9490000000005,4168.974,4160.0,4174.615,4189.615,4186.667,0,0
596,41,0,0,4159.615,4557.436,4153.333,4262.564,4149.487,4167.692,4186.282,4184.744000000001,4167.564,4166.538,4152.436,4172.179,4185.641,4179.872,0,0
597,42,0,0,4150.641,4552.179,4149.231,4260.0,4144.359,4172.692,4183.077,4182.436,4168.462,4156.667,4122.692,4153.205,4186.026,4162.821,0,0
598,43,0,0,4154.872,4576.026,4155.513,4267.564,4148.59,4169.231,4186.667,4190.769,4178.462,4153.462,4134.231,4150.255999999999,4186.538,4161.923,0,0
599,44,0,0,4173.974,4602.308,4169.744000000001,4289.359,4153.718,4173.333,4195.128,4200.897,4184.359,4162.436,4162.564,4174.359,4194.359,4182.308,0,0
600,45,0,0,4179.487,4605.513,4170.513,4300.513,4154.103,4185.255999999999,4194.872,4196.923,4186.282,4170.641,4159.487,4185.255999999999,4201.41,4190.128,0,0
601,46,0,0,4165.385,4596.41,4157.9490000000005,4295.385,4148.462,4181.538,4187.308,4188.205,4182.821,4161.282,4150.128,4172.0509999999995,4189.744000000001,4173.974,0,0
602,47,0,0,4156.026,4581.282,4153.462,4289.744000000001,4137.564,4163.974,4181.795,4184.872,4172.692,4144.231,4152.308,4165.513,4181.41,4167.821,0,0
603,48,0,0,4155.513,4594.487,4156.41,4301.41,4135.255999999999,4159.615,4183.077,4174.872,4168.205,4141.923,4144.359,4164.615,4189.231,4171.282,0,0
604,49,0,0,4152.564,4689.872,4155.641,4315.255999999999,4140.769,4169.872,4180.641,4164.872,4165.769,4153.462,4137.564,4152.0509999999995,4189.359,4159.231,0,0
605,50,0,0,4154.744000000001,4803.462,4157.9490000000005,4308.718,4137.692,4171.026,4172.692,4171.538,4154.487,4155.641,4139.231,4154.359,4182.9490000000005,4159.872,0,0
606,51,0,0,4152.308,4816.923,4155.0,4309.744000000001,4139.744000000001,4156.154,4167.179,4167.179,4147.0509999999995,4141.026,4133.846,4159.487,4179.487,4171.923,0,0
607,52,0,0,4150.897,4795.0,4152.179,4335.385,4155.255999999999,4156.923,4169.487,4153.59,4155.769,4134.872,4125.255999999999,4148.718,4178.974,4166.923,0,0
608,53,0,0,4161.282,4807.692,4160.0,4346.026,4154.872,4177.308,4173.974,4161.154,4158.974,4140.769,4118.718,4157.821,4178.205,4164.872,0,0
609,54,0,0,4154.231,4814.872,4157.308,4331.154,4146.41,4177.821,4176.026,4172.564,4157.179,4145.513,4124.744000000001,4168.333,4177.308,4168.974,0,0
610,55,0,0,4147.179,4800.513,4155.128,4330.0,4149.359,4162.179,4184.103,4172.0509999999995,4166.538,4149.872,4150.255999999999,4156.41,4181.282,4162.9490000000005,0,0
611,56,0,0,4168.846,4795.0,4170.769,4346.41,4153.59,4168.333,4186.667,4170.255999999999,4171.026,4151.923,4170.128,4157.436,4185.0,4168.846,0,0
612,57,0,0,4184.487,4800.897,4174.231,4351.538,4150.255999999999,4173.974,4175.897,4165.641,4168.462,4152.0509999999995,4167.9490000000005,4174.872,4183.846,4186.154,0,0
613,58,0,0,4169.231,4796.795,4159.872,4344.231,4144.487,4145.641,4169.103,4156.923,4165.0,4153.205,4173.59,4174.487,4182.179,4184.487,0,0
614,59,0,0,4151.282,4781.154,4151.923,4336.538,4141.538,4126.795,4170.641,4155.0,4148.333,4155.769,4189.103,4161.923,4183.718,4168.59,0,0
615,60,0,0,4157.564,4764.231,4155.0,4341.282,4141.154,4147.0509999999995,4172.692,4154.744000000001,4140.641,4155.128,4196.667,4164.103,4183.846,4166.282,0,0
616,61,0,0,4173.333,4774.872,4161.667,4353.718,4139.615,4162.0509999999995,4169.744000000001,4150.255999999999,4150.769,4146.923,4205.385,4170.513,4181.667,4178.718,0,0
617,62,0,0,4186.282,4801.667,4170.128,4359.359,4142.179,4154.615,4171.538,4157.564,4157.436,4150.897,4235.769,4174.615,4181.538,4187.179,0,0
618,63,0,0,4185.255999999999,4788.718,4170.641,4356.795,4152.436,4153.846,4177.692,4169.872,4166.154,4172.564,4245.769,4170.513,4186.282,4185.385,0,0
619,64,0,2550,4176.282,4750.513,4165.897,4352.0509999999995,4156.282,4156.538,4175.769,4171.923,4170.385,4173.205,4224.872,4163.718,4182.9490000000005,4186.667,0,0
620,65,0,1929,4179.359,4736.282,4167.564,4357.308,4150.385,4160.769,4171.41,4170.641,4157.821,4152.692,4218.333,4167.179,4175.897,4185.769,0,0
621,66,0,3400,4177.821,4750.897,4166.154,4361.41,4150.897,4172.436,4172.821,4171.41,4154.615,4149.103,4221.026,4163.59,4181.026,4169.872,0,0
622,67,0,3354,4176.795,4755.641,4167.436,4359.359,4157.436,4174.615,4179.744000000001,4170.255999999999,4173.59,4162.692,4221.795,4159.615,4186.538,4171.026,0,0
623,68,0,2999,4182.692,4730.128,4172.308,4356.538,4158.974,4167.9490000000005,4181.282,4168.333,4180.897,4171.795,4233.59,4168.59,4185.128,4189.487,0,0
624,69,0,2601,4181.667,4716.795,4168.59,4359.872,4155.513,4164.744000000001,4176.154,4169.487,4171.538,4161.154,4233.205,4176.026,4185.641,4181.667,0,0
625,70,0,2489,4174.744000000001,4736.667,4175.128,4365.513,4151.923,4168.974,4175.897,4170.255999999999,4168.974,4143.846,4228.718,4164.359,4185.641,4162.564,0,0
626,71,0,3008,4183.974,4732.9490000000005,4199.744000000001,4367.179,4154.359,4172.821,4182.436,4172.308,4171.41,4153.974,4235.0,4162.179,4178.205,4177.179,0,0
627,72,0,2431,4190.641,4700.0,4207.692,4358.333,4156.282,4171.41,4186.667,4174.615,4170.385,4171.41,4216.667,4181.41,4177.179,4197.436,0,0
628,73,0,3471,4174.744000000001,4710.385,4199.103,4339.359,4154.231,4171.538,4183.59,4178.718,4174.872,4169.359,4207.821,4179.103,4182.9490000000005,4186.667,0,0
629,74,0,3092,4185.897,4735.385,4212.179,4350.641,4154.359,4169.744000000001,4182.179,4188.462,4187.436,4172.179,4243.333,4167.692,4183.077,4183.333,0,0
630,75,0,2889,4195.255999999999,4704.359,4214.487,4368.59,4154.103,4163.205,4179.744000000001,4184.744000000001,4185.641,4170.897,4249.231,4170.897,4178.205,4191.795,0,0
631,76,0,2570,4189.231,4691.154,4207.564,4358.333,4156.795,4173.974,4183.205,4177.308,4180.0,4175.0,4249.231,4183.59,4187.821,4199.103,0,0
632,77,0,3236,4210.769,4720.385,4228.077,4350.897,4155.255999999999,4190.255999999999,4192.0509999999995,4184.103,4186.795,4189.744000000001,4261.41,4197.564,4200.0,4215.641,0,0
633,78,0,3092,4214.615,4709.615,4226.154,4356.41,4142.821,4176.538,4183.718,4185.0,4177.692,4166.282,4218.462,4192.821,4187.692,4211.154,0,0
634,79,0,2889,4181.41,4677.9490000000005,4195.0,4350.385,4136.154,4168.974,4175.897,4179.615,4165.255999999999,4145.255999999999,4194.231,4172.308,4178.718,4184.231,0,0
635,80,0,2570,4181.41,4691.795,4201.282,4347.308,4140.128,4173.205,4179.615,4187.9490000000005,4173.077,4171.154,4259.872,4166.667,4184.103,4188.205,0,0
636,81,0,3236,4215.769,4689.487,4226.795,4363.462,4141.026,4149.615,4175.128,4188.077,4164.231,4168.333,4277.821,4176.667,4175.128,4209.231,0,0
637,82,0,3092,4210.255999999999,4636.923,4214.231,4372.179,4136.923,4140.0,4164.615,4170.0,4145.897,4143.333,4204.487,4171.41,4165.0,4197.0509999999995,0,0
638,83,0,2889,4183.077,4633.846,4197.179,4364.872,4137.564,4163.846,4166.538,4164.744000000001,4157.9490000000005,4159.359,4191.923,4158.846,4173.333,4179.103,0,0
639,84,0,2570,4177.821,4682.821,4197.821,4358.333,4145.128,4165.0,4176.026,4173.205,4170.128,4168.462,4246.41,4163.718,4175.128,4187.564,0,0
640,85,0,3236,4171.538,4665.769,4190.769,4361.154,4156.154,4156.538,4182.0509999999995,4178.205,4167.308,4155.385,4242.821,4168.077,4169.615,4186.282,0,0
641,86,0,3092,4160.641,4595.769,4187.179,4364.231,4157.0509999999995,4198.59,4186.026,4179.744000000001,4177.692,4164.359,4192.308,4162.179,4174.744000000001,4167.692,0,0
642,87,0,2889,4164.744000000001,4614.744000000001,4195.897,4370.0,4152.564,4189.744000000001,4180.385,4190.128,4180.513,4184.744000000001,4203.846,4161.538,4179.744000000001,4169.359,0,0
643,88,0,2570,4189.872,4684.615,4211.282,4380.128,4162.0509999999995,4082.5640000000003,4170.255999999999,4206.538,4145.255999999999,4188.462,4261.41,4183.59,4182.0509999999995,4200.513,0,0
644,89,0,3236,4193.333,4683.077,4212.821,4376.538,4163.333,4081.026,4168.462,4198.077,4122.308,4169.487,4240.513,4195.641,4184.872,4210.641,0,0
645,90,0,3092,4159.744000000001,4661.795,4189.231,4377.564,4142.179,4205.128,4171.667,4164.487,4153.974,4140.897,4190.255999999999,4166.667,4180.385,4180.769,0,0
646,91,0,2889,4156.538,4682.821,4178.205,4396.923,4134.103,4233.974,4177.821,4157.692,4191.538,4136.795,4215.255999999999,4145.0,4179.359,4170.255999999999,0,0
647,92,0,2570,4188.462,4683.974,4199.231,4400.255999999999,4148.59,4157.179,4182.436,4178.846,4180.513,4148.846,4234.744000000001,4155.255999999999,4180.513,4191.282,0,0
648,93,0,3236,4193.718,4673.205,4208.333,4388.846,4157.692,4158.333,4183.846,4180.385,4154.487,4139.744000000001,4202.308,4159.231,4172.692,4196.41,0,0
649,94,0,3092,4170.641,4686.41,4189.872,4393.333,4152.0509999999995,4221.667,4186.026,4161.538,4162.436,4114.487,4193.462,4150.769,4164.103,4185.128,0,0
650,95,0,2889,4162.179,4662.0509999999995,4184.615,4403.333,4155.128,4188.462,4184.103,4165.128,4146.667,4109.231,4215.255999999999,4155.128,4164.744000000001,4185.0,0,0
651,96,0,2570,4176.41,4633.59,4200.897,4409.103,4169.615,4107.9490000000005,4180.0,4190.641,4105.769,4144.231,4224.872,4172.9490000000005,4170.641,4201.026,0,0
652,97,0,3236,4184.872,4648.205,4205.0,4420.128,4168.333,4130.255999999999,4188.462,4185.769,4130.641,4160.255999999999,4224.615,4179.744000000001,4173.974,4208.718,0,0
653,98,0,3092,4172.692,4649.615,4191.538,4418.974,4152.821,4233.846,4203.718,4161.154,4189.615,4137.179,4217.308,4163.846,4172.9490000000005,4190.513,0,0
654,99,0,2889,4156.41,4645.255999999999,4184.231,4404.744000000001,4148.333,4263.077,4207.436,4173.718,4194.744000000001,4144.103,4217.564,4149.615,4170.385,4178.974,0,0
655,100,0,2570,4160.897,4687.821,4187.692,4412.564,4158.077,4211.667,4205.255999999999,4197.0509999999995,4182.0509999999995,4176.795,4239.872,4154.872,4177.692,4192.821,0,0
656,101,0,3236,4164.615,4734.487,4186.667,4422.179,4157.179,4196.154,4200.897,4180.513,4190.641,4177.308,4232.0509999999995,4154.103,4187.692,4197.308,0,0
657,102,0,3092,4149.359,4736.282,4178.59,4403.846,4144.103,4209.103,4187.564,4160.897,4176.026,4159.615,4190.0,4145.255999999999,4177.564,4183.59,0,0
658,103,0,2889,4157.0509999999995,4736.282,4183.333,4408.974,4147.9490000000005,4215.897,4182.9490000000005,4168.333,4156.795,4161.41,4199.231,4158.846,4159.615,4192.9490000000005,0,0
659,104,0,2570,4178.205,4743.205,4195.513,4439.615,4164.872,4201.667,4182.821,4169.103,4171.538,4158.718,4244.744000000001,4177.179,4152.308,4218.718,0,0
660,105,0,3236,4179.615,4737.9490000000005,4203.718,4432.692,4172.821,4142.0509999999995,4173.462,4168.333,4175.128,4151.923,4247.564,4173.718,4149.872,4218.077,0,0
661,106,0,3092,4175.897,4721.282,4203.974,4407.564,4168.974,4122.9490000000005,4175.0,4175.385,4148.59,4151.667,4218.974,4169.744000000001,4142.821,4206.026,0,0
662,107,0,2889,4172.692,4706.538,4192.821,4406.923,4164.231,4178.718,4187.9490000000005,4173.974,4121.538,4150.385,4213.462,4167.436,4139.359,4200.385,0,0
663,108,0,2570,4169.487,4701.923,4187.0509999999995,4413.59,4162.821,4203.846,4190.0,4169.615,4117.308,4159.103,4222.308,4159.103,4144.103,4201.667,0,0
664,109,0,3236,4164.359,4691.026,4187.436,4413.718,4165.385,4146.667,4185.255999999999,4171.41,4131.154,4165.0,4218.718,4153.462,4142.9490000000005,4196.923,0,0
665,110,0,3092,4160.0,4682.692,4186.667,4409.359,4174.744000000001,4070.385,4180.769,4181.667,4136.923,4160.641,4215.0,4153.59,4140.513,4187.436,0,0
666,111,0,2889,4158.462,4667.9490000000005,4183.59,4389.744000000001,4165.897,4092.5640000000003,4175.897,4184.487,4128.846,4162.308,4214.744000000001,4152.308,4148.718,4190.641,0,0
667,112,0,2570,4165.255999999999,4649.615,4185.385,4377.821,4153.462,4128.59,4170.641,4178.077,4127.692,4174.744000000001,4223.077,4154.744000000001,4157.436,4202.179,0,0
668,113,0,3236,4181.41,4656.41,4194.744000000001,4392.564,4166.026,4103.205,4167.308,4185.769,4138.59,4177.436,4231.923,4166.154,4155.769,4214.872,0,0
669,114,0,3092,4184.487,4652.179,4199.872,4392.436,4175.513,4135.769,4173.333,4182.436,4173.974,4164.231,4219.872,4167.308,4146.923,4216.795,0,0
670,115,0,2889,4181.795,4616.026,4199.231,4363.846,4169.359,4235.769,4185.0,4161.795,4184.744000000001,4161.538,4210.769,4163.462,4144.744000000001,4214.744000000001,0,0
671,116,0,2570,4186.282,4591.154,4199.359,4354.615,4181.538,4158.205,4175.0,4187.308,4082.4359999999997,4178.205,4221.923,4169.487,4139.103,4216.923,0,0
672,117,0,3236,4191.154,4574.103,4203.462,4369.615,4197.179,4016.1540000000005,4159.872,4206.795,4039.487,4174.872,4219.615,4167.821,4123.462,4216.154,0,0
673,118,0,3092,4187.179,4543.974,4204.487,4357.436,4180.385,4095.6409999999996,4176.41,4163.59,4146.795,4151.026,4199.615,4160.255999999999,4121.923,4214.487,0,0
674,119,0,2889,4183.333,4514.359,4200.128,4324.487,4172.308,4096.795,4185.128,4169.487,4111.923,4177.692,4196.538,4165.255999999999,4140.255999999999,4216.667,0,0
675,120,0,2570,4187.564,4483.718,4198.718,4317.0509999999995,4186.154,3948.333,4167.564,4209.615,3989.744,4220.385,4214.231,4170.0,4152.692,4216.282,0,0
676,121,0,3236,4186.41,4440.897,4205.385,4321.923,4184.744000000001,3960.0,4165.255999999999,4186.154,4073.333,4203.718,4220.0,4166.026,4152.308,4216.282,0,0
677,122,0,3092,4185.0,4421.667,4215.641,4313.718,4189.487,3956.41,4157.436,4188.718,4050.6409999999996,4209.231,4207.0509999999995,4169.872,4151.923,4223.718,0,0
678,123,0,2889,4184.487,4412.9490000000005,4215.513,4294.872,4199.359,3847.179,4140.897,4201.41,3907.308,4223.718,4195.641,4165.769,4146.538,4217.436,0,0
679,124,0,2570,4189.487,4388.846,4217.9490000000005,4278.59,4183.333,3922.051,4155.385,4151.538,4095.385,4163.59,4190.513,4162.0509999999995,4136.41,4220.0,0,0
680,125,0,3236,4202.0509999999995,4397.564,4233.462,4276.41,4177.9490000000005,4027.308,4162.0509999999995,4155.128,4247.821,4158.846,4186.538,4182.821,4136.538,4244.615,0,0
681,126,0,3092,4201.282,4435.897,4235.897,4273.462,4208.205,3884.103,4138.205,4211.154,4022.4359999999997,4238.718,4181.538,4190.128,4147.692,4242.0509999999995,0,0
682,127,0,52,4188.462,4448.333,4221.282,4255.897,4221.923,3861.923,4145.769,4195.128,3963.205,4231.923,4182.821,4166.795,4151.923,4215.641,0,0
683,0,0,2558,4192.564,4427.564,4221.538,4242.564,4216.795,4038.718,4162.821,4166.538,4147.821,4174.744000000001,4191.154,4160.0,4141.154,4217.0509999999995,0,0
684,1,0,1968,4208.846,4380.385,4235.128,4237.179,4226.923,4043.974,4152.179,4193.974,4151.667,4196.41,4187.9490000000005,4178.846,4137.179,4231.923,0,0
685,2,0,3420,4214.744000000001,4313.077,4238.59,4228.462,4238.974,3995.1279999999997,4169.487,4206.41,4097.0509999999995,4222.436,4180.897,4193.462,4146.026,4227.179,0,0
686,3,0,3345,4227.564,4268.718,4243.718,4228.59,4259.487,4030.513,4192.9490000000005,4197.179,4159.872,4210.0,4187.436,4206.538,4153.333,4229.231,0,0
687,4,0,3005,4249.615,4269.487,4252.564,4227.692,4279.615,4082.821,4180.128,4211.667,4161.154,4231.923,4191.538,4218.462,4154.231,4242.308,0,0
688,5,0,2517,4253.718,4258.077,4249.615,4206.154,4276.923,4082.179,4171.282,4234.359,4112.9490000000005,4253.205,4181.026,4218.462,4155.769,4241.795,0,0
689,6,0,2460,4259.103,4219.487,4252.308,4197.564,4298.718,3899.615,4155.641,4248.974,4022.821,4261.026,4191.923,4228.718,4163.205,4244.872,0,0
690,7,0,3051,4267.308,4175.513,4256.667,4194.872,4303.846,3846.667,4136.282,4229.744000000001,3992.821,4255.128,4199.359,4228.846,4168.59,4243.846,0,0
691,8,0,2412,4251.026,4130.0,4243.333,4175.641,4251.41,4143.205,4167.692,4182.0509999999995,4200.255999999999,4203.718,4157.436,4196.026,4160.897,4216.282,0,0
692,9,0,3512,4239.872,4110.769,4241.667,4165.769,4254.487,4250.513,4192.9490000000005,4179.487,4291.282,4197.436,4138.974,4186.282,4150.255999999999,4202.308,0,0
693,10,0,3117,4250.513,4103.974,4249.615,4156.923,4304.359,4075.1279999999997,4169.744000000001,4216.154,4126.538,4246.795,4170.385,4203.205,4153.718,4220.513,0,0
694,11,0,2922,4248.333,4072.821,4237.821,4135.769,4287.692,4126.154,4170.897,4216.923,4127.436,4230.897,4172.0509999999995,4192.564,4152.179,4222.0509999999995,0,0
695,12,0,2575,4239.872,4054.487,4230.641,4131.026,4271.923,4216.538,4191.667,4184.615,4279.231,4183.462,4141.282,4180.255999999999,4142.179,4207.308,0,0
696,13,0,3269,4253.205,4070.385,4246.026,4144.615,4314.231,4038.718,4174.359,4198.205,4204.872,4223.846,4152.564,4195.897,4154.872,4216.795,0,0
697,14,0,3117,4272.821,4069.2309999999998,4253.846,4141.154,4316.923,3971.1540000000005,4158.077,4241.282,4051.1540000000005,4269.231,4177.692,4206.282,4166.923,4233.59,0,0
698,15,0,2922,4274.359,4051.795,4247.436,4125.513,4287.0509999999995,4115.0,4179.487,4240.128,4109.487,4239.487,4163.462,4202.821,4161.923,4233.59,0,0
699,16,0,0,4262.436,4045.385,4242.308,4114.744000000001,4281.667,4263.718,4204.744000000001,4194.487,4241.795,4204.872,4152.0509999999995,4195.128,4161.667,4225.513,0,0
700,17,0,0,4262.436,4047.821,4245.897,4116.667,4305.255999999999,4191.026,4188.846,4193.718,4283.077,4218.846,4167.179,4194.487,4170.897,4227.821,0,0
701,18,0,0,4269.231,4055.0,4247.308,4121.026,4331.667,3992.5640000000003,4149.231,4251.923,4181.795,4258.077,4178.333,4199.231,4170.897,4231.923,0,0
702,19,0,0,4263.59,4053.718,4237.821,4112.308,4312.179,4103.59,4157.436,4240.255999999999,4141.923,4246.923,4164.872,4192.179,4168.077,4225.128,0,0
703,20,0,0,4265.128,4035.513,4232.564,4105.641,4283.205,4360.255999999999,4198.333,4167.564,4275.513,4198.462,4148.462,4185.255999999999,4167.436,4225.0,0,0
704,21,0,0,4282.179,4029.8720000000003,4242.821,4107.308,4306.795,4258.205,4190.769,4174.615,4303.205,4198.462,4148.077,4201.026,4159.744000000001,4237.692,0,0
705,22,0,0,4283.077,4027.308,4248.846,4110.128,4336.538,4021.795,4143.846,4225.641,4181.795,4231.154,4164.359,4206.154,4151.026,4237.436,0,0
706,23,0,0,4268.846,4004.744,4240.128,4104.231,4314.872,4068.718,4130.0,4206.282,4143.846,4225.769,4179.615,4190.897,4141.538,4230.255999999999,0,0
707,24,0,0,4263.718,3993.59,4229.231,4085.7690000000002,4295.513,4160.0,4163.718,4164.359,4180.897,4201.923,4162.692,4191.026,4140.255999999999,4239.359,0,0
708,25,0,0,4264.744000000001,3996.667,4230.128,4085.897,4307.564,4104.359,4175.0,4178.077,4166.667,4205.769,4145.513,4199.487,4152.564,4244.487,0,0
709,26,0,0,4264.487,3990.6409999999996,4235.897,4097.564,4304.103,4098.205,4151.923,4191.41,4158.974,4222.564,4169.872,4206.41,4161.026,4243.205,0,0
710,27,0,0,4262.308,3981.538,4228.205,4090.256,4292.179,4154.872,4155.385,4177.436,4181.154,4221.795,4182.9490000000005,4200.897,4158.205,4238.846,0,0
711,28,0,0,4265.513,3985.256,4226.026,4090.256,4302.564,4152.179,4180.128,4184.615,4185.897,4202.9490000000005,4142.179,4190.0,4155.897,4235.641,0,0
712,29,0,0,4266.154,3993.718,4231.026,4092.179,4308.59,4132.821,4174.872,4197.9490000000005,4198.846,4198.974,4131.41,4193.333,4155.128,4245.255999999999,0,0
713,30,0,0,4244.872,3980.0,4215.641,4067.821,4292.179,4163.974,4166.282,4172.9490000000005,4197.692,4203.846,4176.282,4187.436,4153.718,4240.385,0,0
714,31,0,0,4245.513,3963.462,4214.103,4081.1540000000005,4293.718,4118.59,4173.077,4161.282,4166.154,4195.385,4173.333,4180.641,4156.026,4226.923,0,0
715,32,0,0,4278.718,3982.5640000000003,4239.872,4115.128,4302.692,4042.051,4161.282,4175.513,4171.667,4179.103,4114.103,4208.59,4147.821,4243.59,0,0
716,33,0,0,4262.821,4001.1540000000005,4228.846,4080.7690000000002,4283.718,4095.256,4147.692,4161.026,4202.0509999999995,4172.9490000000005,4116.795,4211.667,4141.41,4243.718,0,0
717,34,0,0,4214.615,3985.0,4190.641,4051.923,4272.308,4125.513,4141.41,4141.026,4188.205,4177.179,4190.128,4151.026,4148.718,4197.308,0,0
718,35,0,0,4231.923,3986.41,4202.9490000000005,4096.538,4284.359,4079.3590000000004,4136.667,4155.255999999999,4138.846,4192.692,4188.718,4151.795,4148.846,4206.41,0,0
719,36,0,0,4250.513,4015.0,4222.9490000000005,4111.538,4279.487,4110.0,4145.513,4157.179,4132.9490000000005,4193.974,4120.769,4201.923,4134.615,4243.59,0,0
720,37,0,0,4211.282,4030.385,4195.513,4084.2309999999998,4260.897,4139.872,4143.846,4132.308,4206.026,4169.359,4136.923,4170.513,4140.513,4206.41,0,0
721,38,0,0,4193.077,4035.7690000000002,4174.615,4079.2309999999998,4259.744000000001,4070.256,4123.205,4135.0,4266.41,4161.154,4215.641,4122.821,4152.564,4172.308,0,0
722,39,0,0,4215.513,4040.385,4193.205,4094.615,4264.615,4065.513,4127.0509999999995,4162.821,4228.974,4172.308,4195.128,4147.564,4136.923,4198.846,0,0
723,40,0,0,4225.641,4051.1540000000005,4205.897,4115.128,4262.436,4102.564,4146.154,4158.846,4157.436,4170.769,4118.59,4176.282,4122.0509999999995,4214.615,0,0
724,41,0,0,4208.718,4064.8720000000003,4186.026,4105.385,4260.769,4053.974,4130.513,4121.538,4176.538,4155.255999999999,4135.385,4152.436,4125.513,4190.769,0,0
725,42,0,0,4185.513,4079.744,4165.897,4069.487,4249.744000000001,4075.256,4109.231,4117.692,4235.385,4136.795,4186.538,4132.821,4134.231,4175.897,0,0
726,43,0,0,4187.0509999999995,4125.0,4175.769,4075.1279999999997,4238.333,4157.821,4120.128,4140.641,4235.769,4137.436,4183.974,4143.333,4138.718,4185.255999999999,0,0
727,44,0,0,4208.846,4183.462,4196.538,4114.615,4256.667,4111.923,4132.0509999999995,4134.359,4198.718,4167.821,4162.436,4159.359,4129.615,4200.641,0,0
728,45,0,0,4210.385,4200.128,4195.0,4115.769,4263.718,4081.282,4133.077,4115.769,4198.333,4171.923,4153.077,4168.333,4118.333,4206.923,0,0
729,46,0,0,4197.821,4203.846,4182.692,4100.385,4249.359,4134.359,4129.872,4117.436,4247.692,4150.513,4159.872,4162.692,4122.692,4198.59,0,0
730,47,0,0,4198.333,4221.154,4183.718,4114.615,4256.154,4117.179,4124.231,4129.744000000001,4259.231,4153.718,4170.0,4155.128,4125.128,4193.718,0,0
731,48,0,0,4198.846,4225.897,4187.821,4122.564,4264.359,4062.179,4126.538,4138.077,4205.769,4165.255999999999,4175.0,4156.795,4117.821,4194.872,0,0
732,49,0,0,4199.615,4223.718,4185.385,4118.462,4247.821,4089.8720000000003,4135.385,4143.205,4194.359,4166.795,4173.077,4169.231,4128.205,4199.615,0,0
733,50,0,0,4195.641,4223.59,4181.026,4114.872,4234.487,4153.846,4142.9490000000005,4132.821,4234.103,4154.487,4177.308,4171.538,4138.462,4201.026,0,0
734,51,0,0,4185.385,4218.205,4180.897,4115.897,4244.872,4125.385,4136.282,4113.59,4223.718,4140.128,4169.744000000001,4159.872,4125.385,4193.205,0,0
735,52,0,0,4187.9490000000005,4218.205,4181.41,4121.282,4250.513,4069.744,4122.821,4102.821,4223.718,4141.923,4157.9490000000005,4153.974,4113.974,4189.103,0,0
736,53,0,0,4200.897,4219.615,4187.308,4125.641,4239.231,4121.026,4131.026,4111.795,4271.41,4158.846,4166.923,4164.231,4126.026,4202.9490000000005,0,0
737,54,0,0,4206.538,4220.641,4196.538,4124.744000000001,4245.641,4144.872,4144.231,4140.0,4245.385,4181.538,4182.9490000000005,4183.205,4143.333,4221.667,0,0
738,55,0,0,4202.308,4217.564,4192.692,4121.41,4260.0,4099.744000000001,4144.487,4132.436,4205.0,4187.179,4191.154,4177.821,4142.692,4211.923,0,0
739,56,0,0,4200.897,4196.41,4188.974,4125.0,4253.59,4134.872,4147.179,4102.0509999999995,4258.462,4164.487,4182.692,4165.641,4135.897,4198.59,0,0
740,57,0,0,4204.487,4181.795,4196.282,4123.333,4248.077,4151.41,4149.103,4116.282,4283.718,4156.667,4171.026,4179.231,4141.026,4207.564,0,0
741,58,0,0,4206.026,4185.255999999999,4197.0509999999995,4119.103,4258.846,4067.5640000000003,4136.795,4143.205,4218.718,4189.872,4174.231,4187.179,4145.385,4211.282,0,0
742,59,0,0,4202.179,4173.974,4189.487,4122.9490000000005,4252.308,4105.0,4136.282,4126.538,4209.359,4186.538,4175.0,4172.9490000000005,4139.615,4203.077,0,0
743,60,0,0,4197.0509999999995,4152.821,4187.179,4119.872,4239.487,4194.231,4146.795,4110.769,4254.487,4151.41,4166.667,4165.897,4137.821,4200.255999999999,0,0
744,61,0,0,4199.359,4148.59,4188.077,4114.744000000001,4250.128,4130.641,4142.436,4130.255999999999,4224.615,4171.41,4168.205,4170.128,4139.744000000001,4201.923,0,0
745,62,0,0,4199.615,4145.513,4187.436,4117.564,4253.718,4106.026,4136.538,4131.026,4202.692,4188.59,4165.769,4165.513,4137.9490000000005,4198.333,0,0
746,63,0,0,4201.154,4136.538,4193.333,4121.538,4246.41,4177.436,4141.538,4117.692,4255.128,4162.308,4162.692,4171.026,4141.41,4201.538,0,0
747,64,0,2577,4210.769,4122.179,4202.308,4124.744000000001,4250.641,4153.077,4145.641,4126.026,4261.026,4158.462,4173.59,4185.255999999999,4144.744000000001,4210.641,0,0
748,65,0,1992,4206.795,4094.103,4198.205,4120.385,4251.282,4098.205,4138.846,4128.333,4211.667,4170.641,4174.487,4175.513,4138.333,4204.487,0,0
749,66,0,3414,4192.692,4079.487,4186.282,4104.359,4244.231,4139.615,4131.41,4115.897,4221.282,4152.436,4162.692,4159.359,4135.769,4196.795,0,0
750,67,0,3342,4204.359,4085.0,4192.436,4101.154,4254.872,4141.923,4135.0,4125.769,4229.103,4153.59,4163.846,4178.718,4145.255999999999,4212.9490000000005,0,0
751,68,0,3014,4218.077,4069.3590000000004,4202.564,4115.0,4265.769,4104.359,4144.744000000001,4138.333,4185.897,4175.255999999999,4174.487,4202.179,4152.9490000000005,4225.897,0,0
752,69,0,2476,4202.692,4026.41,4194.872,4110.0,4251.795,4180.897,4154.487,4117.436,4221.026,4160.769,4172.692,4185.897,4153.333,4208.718,0,0
753,70,0,2472,4201.538,4012.4359999999997,4193.205,4100.641,4253.59,4241.795,4157.9490000000005,4116.41,4266.667,4152.564,4178.205,4176.282,4153.077,4210.641,0,0
754,71,0,2976,4224.359,4029.8720000000003,4205.897,4113.846,4274.487,4175.385,4152.564,4147.436,4231.41,4175.128,4183.846,4202.179,4153.974,4236.026,0,0
755,72,0,2498,4215.641,4021.41,4205.255999999999,4110.385,4271.026,4138.718,4151.41,4147.692,4222.692,4177.436,4177.436,4204.487,4153.974,4222.0509999999995,0,0
756,73,0,3463,4198.333,3999.744,4197.308,4096.923,4263.718,4129.103,4155.769,4133.333,4246.923,4165.385,4176.41,4181.538,4154.744000000001,4192.436,0,0
757,74,0,3115,4207.9490000000005,3994.2309999999998,4200.128,4100.128,4263.462,4105.897,4153.077,4142.308,4232.308,4172.179,4175.0,4180.128,4155.385,4197.179,0,0
758,75,0,2908,4209.615,3985.897,4200.641,4100.897,4253.59,4155.641,4150.897,4139.615,4231.538,4176.282,4169.231,4181.282,4154.615,4206.923,0,0
759,76,0,2542,4195.513,3973.205,4196.41,4100.128,4250.513,4199.359,4156.795,4121.41,4265.897,4167.179,4163.846,4169.231,4154.231,4197.564,0,0
760,77,0,3253,4197.179,3976.1540000000005,4196.795,4107.436,4253.718,4176.41,4158.333,4122.0509999999995,4239.872,4173.846,4172.0509999999995,4174.615,4156.667,4195.255999999999,0,0
761,78,0,3115,4211.026,3968.974,4200.513,4109.744000000001,4254.231,4167.436,4153.333,4125.385,4223.59,4183.974,4183.462,4185.255999999999,4163.333,4202.9490000000005,0,0
762,79,0,2908,4216.923,3946.026,4203.077,4104.744000000001,4262.308,4170.897,4159.359,4132.179,4262.436,4183.846,4177.308,4185.897,4169.359,4204.487,0,0
763,80,0,2542,4210.385,3938.8459999999995,4202.9490000000005,4106.795,4260.641,4185.255999999999,4177.692,4150.641,4258.205,4187.692,4167.821,4189.359,4169.231,4202.564,0,0
764,81,0,3253,4207.436,3937.821,4202.564,4108.462,4248.59,4172.692,4171.41,4141.41,4220.255999999999,4198.59,4175.128,4188.846,4167.308,4200.769,0,0
765,82,0,3115,4216.923,3928.333,4201.667,4106.667,4247.9490000000005,4133.974,4146.41,4108.974,4208.974,4203.333,4187.179,4189.231,4169.231,4200.513,0,0
766,83,0,2908,4220.255999999999,3914.8720000000003,4202.0509999999995,4104.231,4249.487,4155.0,4145.0,4106.538,4222.179,4204.744000000001,4183.462,4202.692,4175.128,4201.923,0,0
767,84,0,2542,4212.0509999999995,3907.692,4205.0,4107.436,4244.359,4213.974,4159.615,4117.9490000000005,4256.154,4201.923,4184.615,4204.231,4177.436,4207.0509999999995,0,0
768,85,0,3253,4222.179,3918.59,4211.41,4121.667,4247.564,4217.179,4160.641,4122.0509999999995,4277.308,4203.205,4188.846,4196.41,4172.179,4213.205,0,0
769,86,0,3115,4242.564,3931.282,4219.487,4125.0,4256.923,4159.487,4153.718,4141.41,4228.846,4228.205,4189.231,4209.744000000001,4170.513,4218.205,0,0
