,COUNTER, INTERPOLATED, RAW_CQ, AF3, F7, F3, FC5, T7, P7, O1, O2, P8, T8, FC6, F4, F8, AF4, MARKER_HARDWARE, MARKER
0,95,0,2907,4203.974,4157.821,4204.231,4079.744,4194.872,4175.513,4182.821,4189.615,4191.538,4190.255999999999,4187.564,4190.128,4172.179,4204.103,0,0
1,96,0,2610,4200.385,4152.9490000000005,4203.718,4076.923,4185.513,4173.205,4173.718,4191.41,4196.667,4196.538,4186.154,4186.282,4169.103,4198.974,0,0
2,97,0,3277,4199.103,4154.615,4202.308,4083.974,4182.308,4171.538,4166.795,4186.923,4189.359,4214.231,4189.872,4186.026,4165.513,4202.179,0,0
3,98,0,2999,4201.154,4156.41,4203.718,4090.513,4186.026,4173.846,4172.0509999999995,4180.513,4185.385,4219.872,4188.462,4187.436,4171.667,4202.564,0,0
4,99,0,2907,4200.255999999999,4153.846,4202.564,4089.3590000000004,4185.641,4172.179,4172.436,4175.128,4186.282,4202.821,4179.744000000001,4184.231,4171.923,4197.564,0,0
5,100,0,2610,4197.179,4153.974,4200.385,4088.59,4182.9490000000005,4169.744000000001,4168.205,4169.744000000001,4181.795,4184.744000000001,4181.41,4181.282,4168.462,4197.0509999999995,0,0
6,101,0,3277,4206.026,4163.205,4205.513,4090.513,4184.744000000001,4170.769,4170.641,4170.769,4182.308,4189.359,4189.487,4185.385,4175.255999999999,4202.692,0,0
7,102,0,2999,4214.872,4172.0509999999995,4208.718,4093.333,4188.718,4169.872,4171.667,4175.128,4188.846,4203.59,4188.718,4191.667,4179.615,4206.795,0,0
8,103,0,2907,4208.333,4166.795,4202.0509999999995,4093.462,4186.282,4168.718,4169.103,4171.923,4184.872,4205.0,4185.255999999999,4185.513,4172.9490000000005,4201.538,0,0
9,104,0,2610,4194.872,4155.897,4197.821,4091.1540000000005,4181.923,4166.154,4168.718,4170.385,4182.0509999999995,4193.846,4187.821,4172.436,4170.128,4194.103,0,0
10,105,0,3277,4187.9490000000005,4152.9490000000005,4198.077,4088.462,4183.462,4159.231,4167.692,4177.179,4183.462,4191.282,4187.821,4172.692,4171.41,4193.462,0,0
11,106,0,2999,4191.795,4154.103,4198.077,4089.487,4180.897,4159.487,4166.795,4178.077,4178.333,4186.154,4183.333,4181.538,4169.103,4196.41,0,0
12,107,0,2907,4196.282,4153.718,4199.231,4094.744,4172.179,4166.795,4168.333,4169.487,4172.821,4176.667,4183.333,4182.821,4167.0509999999995,4197.821,0,0
13,108,0,2610,4193.846,4153.462,4198.974,4096.026,4169.615,4166.667,4169.103,4165.255999999999,4173.333,4184.231,4186.41,4178.205,4167.564,4195.897,0,0
14,109,0,3277,4191.41,4157.179,4197.308,4092.4359999999997,4173.462,4163.718,4168.846,4169.615,4173.462,4203.846,4181.923,4175.769,4167.692,4196.538,0,0
15,110,0,2999,4191.667,4157.9490000000005,4197.308,4093.718,4172.821,4166.026,4170.897,4171.538,4170.641,4202.0509999999995,4177.179,4174.103,4168.718,4197.692,0,0
16,111,0,2907,4189.103,4151.026,4197.436,4100.769,4171.282,4168.077,4169.487,4168.333,4171.538,4183.974,4182.0509999999995,4172.179,4168.077,4196.795,0,0
17,112,0,2610,4193.462,4155.641,4198.462,4104.359,4178.59,4169.231,4166.923,4167.0509999999995,4178.077,4188.205,4186.795,4172.9490000000005,4168.846,4199.487,0,0
18,113,0,3277,4202.564,4170.513,4197.9490000000005,4103.718,4183.205,4171.026,4170.513,4171.154,4183.077,4193.205,4185.255999999999,4172.692,4171.795,4198.59,0,0
19,114,0,2999,4200.385,4169.231,4195.0,4104.744000000001,4175.385,4170.769,4172.0509999999995,4173.974,4182.821,4183.205,4186.282,4168.718,4170.641,4190.897,0,0
20,115,0,2907,4193.59,4156.667,4193.462,4106.026,4169.872,4170.128,4170.513,4171.282,4181.41,4189.615,4184.872,4164.615,4169.103,4185.255999999999,0,0
21,116,0,2610,4192.436,4155.769,4196.538,4107.0509999999995,4176.026,4170.897,4171.154,4170.513,4181.923,4201.667,4175.385,4166.923,4172.308,4185.641,0,0
22,117,0,3277,4188.974,4157.821,4193.846,4106.538,4181.795,4171.667,4170.641,4176.026,4182.9490000000005,4191.667,4170.641,4170.128,4174.231,4184.615,0,0
23,118,0,2999,4184.103,4153.077,4186.026,4103.846,4183.974,4172.436,4172.9490000000005,4182.436,4185.385,4185.897,4176.026,4167.308,4171.923,4184.103,0,0
24,119,0,2907,4188.205,4152.436,4190.0,4104.615,4182.308,4173.974,4177.9490000000005,4184.744000000001,4186.923,4199.359,4182.692,4168.846,4172.0509999999995,4186.026,0,0
25,120,0,2610,4196.667,4155.641,4199.615,4110.385,4176.154,4174.615,4176.41,4187.308,4186.154,4206.667,4184.103,4178.59,4178.59,4185.769,0,0
26,121,0,3277,4201.026,4157.692,4200.255999999999,4110.385,4173.205,4171.795,4171.667,4190.255999999999,4186.538,4202.564,4187.436,4186.41,4181.282,4193.077,0,0
27,122,0,2999,4199.231,4155.641,4198.333,4106.538,4175.385,4169.872,4171.795,4182.692,4187.179,4188.333,4190.513,4184.103,4176.667,4199.487,0,0
28,123,0,2907,4194.231,4154.359,4197.179,4108.205,4175.641,4171.154,4170.897,4171.41,4185.513,4176.923,4182.692,4175.769,4172.692,4191.282,0,0
29,124,0,2610,4187.308,4153.205,4187.821,4104.231,4172.564,4170.641,4169.231,4170.769,4185.128,4180.641,4171.538,4168.846,4172.821,4183.205,0,0
30,125,0,3277,4181.538,4147.308,4181.923,4096.667,4169.744000000001,4166.154,4169.231,4172.821,4183.205,4186.667,4172.9490000000005,4166.282,4171.41,4185.255999999999,0,0
31,126,0,2999,4182.821,4149.615,4187.9490000000005,4101.41,4169.615,4167.436,4167.9490000000005,4171.026,4176.667,4180.769,4186.026,4169.359,4171.154,4188.974,0,0
32,127,0,52,4186.026,4151.026,4188.974,4110.255999999999,4172.692,4172.308,4168.462,4170.769,4171.026,4172.564,4185.513,4171.923,4173.718,4188.333,0,0
33,0,0,2462,4184.744000000001,4143.333,4184.103,4108.077,4175.897,4165.641,4164.359,4171.667,4171.282,4180.0,4168.333,4170.513,4169.872,4184.359,0,0
34,1,0,1942,4181.923,4143.974,4184.744000000001,4104.103,4177.692,4158.077,4156.667,4168.846,4174.231,4193.846,4163.333,4168.077,4164.487,4181.026,0,0
35,2,0,3430,4185.897,4150.128,4187.692,4107.308,4181.026,4164.359,4159.231,4165.769,4170.897,4190.385,4178.846,4168.718,4164.744000000001,4184.103,0,0
36,3,0,3359,4192.436,4148.077,4188.59,4109.359,4183.333,4170.897,4166.923,4166.795,4170.255999999999,4181.026,4190.513,4177.564,4168.59,4189.872,0,0
37,4,0,2951,4188.974,4147.436,4186.923,4108.077,4181.282,4167.692,4167.9490000000005,4170.897,4179.359,4187.9490000000005,4182.179,4182.0509999999995,4171.538,4187.692,0,0
38,5,0,2529,4187.564,4152.9490000000005,4185.513,4111.923,4179.487,4167.0509999999995,4166.026,4172.821,4180.897,4190.255999999999,4173.333,4174.231,4169.103,4180.897,0,0
39,6,0,2428,4197.308,4155.128,4191.154,4121.282,4181.538,4171.667,4167.308,4173.205,4171.026,4180.255999999999,4178.077,4174.487,4166.154,4187.179,0,0
40,7,0,3011,4204.359,4156.667,4198.462,4122.564,4183.077,4172.9490000000005,4170.385,4172.0509999999995,4167.564,4185.641,4183.59,4181.667,4171.026,4199.103,0,0
41,8,0,2431,4200.897,4156.154,4196.41,4118.462,4181.538,4171.538,4171.154,4168.846,4171.538,4188.974,4182.308,4175.128,4175.0,4193.462,0,0
42,9,0,3483,4199.487,4154.359,4194.487,4120.128,4181.154,4170.0,4170.128,4173.846,4175.769,4178.846,4182.9490000000005,4171.026,4172.9490000000005,4183.462,0,0
43,10,0,3008,4202.0509999999995,4156.41,4197.0509999999995,4122.564,4183.718,4171.538,4172.436,4184.103,4185.128,4195.255999999999,4185.128,4181.667,4175.255999999999,4191.282,0,0
44,11,0,2912,4197.564,4154.487,4193.846,4120.385,4183.59,4173.718,4175.769,4185.128,4189.359,4218.333,4185.128,4185.769,4177.9490000000005,4200.128,0,0
45,12,0,2602,4195.128,4153.59,4188.718,4120.128,4183.974,4172.179,4171.282,4183.462,4184.487,4207.179,4187.436,4181.41,4178.718,4196.667,0,0
46,13,0,3276,4199.487,4159.872,4190.0,4129.359,4186.795,4171.282,4168.974,4187.436,4185.255999999999,4195.128,4186.154,4176.923,4181.026,4191.282,0,0
47,14,0,3008,4198.846,4159.615,4187.821,4135.385,4185.897,4173.846,4177.821,4188.846,4186.154,4199.744000000001,4181.667,4170.255999999999,4176.026,4187.436,0,0
48,15,0,2912,4195.0,4155.641,4186.282,4126.667,4182.0509999999995,4175.641,4182.308,4187.308,4182.821,4194.231,4183.59,4175.128,4167.692,4186.41,0,0
49,16,0,0,4196.923,4161.282,4195.255999999999,4121.026,4181.538,4172.692,4175.385,4187.436,4182.821,4183.462,4184.615,4186.026,4174.231,4188.333,0,0
50,17,0,0,4201.282,4164.744000000001,4199.359,4126.41,4182.0509999999995,4169.231,4169.103,4187.821,4183.077,4185.641,4184.231,4183.333,4187.308,4192.436,0,0
51,18,0,0,4201.282,4159.359,4195.513,4128.462,4180.385,4170.128,4169.103,4185.255999999999,4180.513,4191.41,4184.872,4178.462,4185.641,4197.179,0,0
52,19,0,0,4200.0,4158.718,4196.026,4129.103,4182.0509999999995,4172.692,4175.385,4184.487,4181.923,4197.436,4186.026,4181.795,4180.513,4198.462,0,0
53,20,0,0,4201.026,4165.513,4200.641,4136.538,4185.385,4173.718,4184.103,4192.9490000000005,4187.692,4202.692,4189.744000000001,4187.0509999999995,4183.205,4199.359,0,0
54,21,0,0,4200.255999999999,4170.513,4198.718,4141.282,4184.744000000001,4175.255999999999,4181.795,4197.436,4188.974,4203.59,4190.0,4185.128,4188.333,4197.9490000000005,0,0
55,22,0,0,4192.179,4165.128,4189.872,4134.744000000001,4182.692,4176.667,4172.9490000000005,4188.333,4180.0,4196.538,4182.692,4175.128,4183.077,4190.385,0,0
56,23,0,0,4183.077,4157.9490000000005,4184.103,4125.513,4181.154,4174.872,4170.513,4182.436,4175.385,4188.974,4179.359,4165.128,4172.436,4180.897,0,0
57,24,0,0,4188.462,4161.282,4189.487,4127.564,4181.41,4175.513,4171.795,4186.795,4182.0509999999995,4198.205,4186.667,4168.333,4174.487,4182.179,0,0
58,25,0,0,4204.487,4174.615,4199.615,4139.487,4182.179,4184.615,4178.077,4188.205,4187.308,4209.231,4191.923,4185.0,4184.359,4196.538,0,0
59,26,0,0,4201.795,4174.872,4193.59,4142.436,4180.513,4186.154,4182.692,4185.769,4185.385,4200.0,4185.897,4187.564,4184.872,4198.59,0,0
60,27,0,0,4185.769,4158.59,4183.333,4135.255999999999,4178.333,4174.359,4176.282,4185.897,4184.744000000001,4196.41,4179.872,4174.744000000001,4180.385,4184.487,0,0
61,28,0,0,4189.872,4155.128,4191.41,4135.0,4179.744000000001,4173.59,4171.154,4184.103,4186.282,4204.487,4189.231,4174.872,4184.103,4186.923,0,0
62,29,0,0,4206.154,4166.154,4204.231,4140.255999999999,4182.821,4184.103,4174.615,4184.744000000001,4186.923,4203.59,4202.692,4188.59,4188.59,4205.513,0,0
63,30,0,0,4208.718,4170.641,4206.026,4142.0509999999995,4185.385,4186.026,4176.154,4191.154,4190.128,4202.0509999999995,4202.308,4193.846,4187.9490000000005,4208.974,0,0
64,31,0,0,4204.872,4165.0,4203.333,4140.513,4186.667,4184.231,4178.205,4198.205,4190.769,4204.744000000001,4198.846,4189.359,4188.718,4201.282,0,0
65,32,0,0,4206.026,4161.538,4204.103,4140.385,4186.154,4188.077,4185.513,4200.897,4190.255999999999,4203.333,4198.718,4188.718,4189.103,4203.846,0,0
66,33,0,0,4206.795,4160.769,4203.974,4142.179,4186.41,4189.487,4184.359,4195.513,4189.231,4196.538,4192.564,4188.974,4187.308,4202.692,0,0
67,34,0,0,4198.59,4156.026,4196.795,4138.846,4186.795,4184.615,4174.359,4187.564,4184.359,4190.0,4186.282,4181.667,4185.385,4193.333,0,0
68,35,0,0,4187.0509999999995,4151.538,4190.769,4134.231,4180.897,4182.0509999999995,4167.564,4185.0,4181.41,4187.436,4187.564,4171.538,4181.538,4186.667,0,0
69,36,0,0,4189.103,4150.641,4194.872,4136.282,4176.923,4182.692,4174.103,4185.385,4181.923,4183.077,4186.282,4173.333,4178.846,4185.385,0,0
70,37,0,0,4201.41,4155.385,4201.538,4140.385,4181.026,4186.154,4184.744000000001,4185.769,4184.744000000001,4182.179,4188.59,4185.385,4182.821,4190.897,0,0
71,38,0,0,4201.282,4156.538,4200.255999999999,4141.667,4183.333,4185.769,4184.231,4187.821,4186.923,4193.846,4197.692,4187.0509999999995,4186.667,4196.026,0,0
72,39,0,0,4193.846,4154.359,4196.154,4144.744000000001,4182.0509999999995,4184.872,4180.769,4193.846,4186.538,4201.538,4200.769,4184.487,4186.026,4194.231,0,0
73,40,0,0,4190.255999999999,4155.255999999999,4191.282,4143.974,4183.718,4191.795,4183.718,4201.154,4186.795,4195.255999999999,4196.538,4184.615,4186.795,4187.821,0,0
74,41,0,0,4181.538,4152.821,4183.333,4138.846,4183.59,4193.59,4185.769,4198.846,4187.821,4185.769,4192.564,4176.154,4187.0509999999995,4183.077,0,0
75,42,0,0,4176.026,4149.359,4181.026,4140.128,4173.974,4186.154,4181.026,4185.128,4185.769,4174.487,4184.103,4163.205,4183.59,4181.923,0,0
76,43,0,0,4181.41,4151.667,4181.667,4141.795,4170.0,4184.487,4178.462,4178.077,4181.795,4170.897,4180.769,4161.795,4183.846,4182.0509999999995,0,0
77,44,0,0,4185.513,4154.487,4184.615,4142.564,4177.308,4188.59,4182.692,4182.9490000000005,4181.923,4183.974,4192.821,4171.282,4187.692,4183.462,0,0
78,45,0,0,4188.846,4154.872,4193.846,4150.513,4180.385,4188.974,4187.564,4191.923,4185.0,4191.282,4201.795,4181.538,4188.846,4192.308,0,0
79,46,0,0,4191.154,4154.872,4200.641,4154.103,4180.385,4189.487,4189.359,4196.795,4187.179,4186.667,4198.59,4187.308,4186.41,4199.615,0,0
80,47,0,0,4187.308,4151.538,4198.333,4149.615,4178.718,4191.667,4188.462,4191.41,4186.026,4185.385,4197.9490000000005,4185.513,4183.077,4193.462,0,0
81,48,0,0,4192.308,4155.769,4199.103,4153.077,4176.282,4192.308,4187.564,4189.359,4185.255999999999,4186.154,4201.026,4189.487,4182.564,4192.436,0,0
82,49,0,0,4205.641,4162.436,4204.872,4155.255999999999,4176.667,4195.897,4188.718,4199.744000000001,4188.462,4185.897,4200.128,4196.923,4183.333,4203.718,0,0
83,50,0,0,4205.385,4157.9490000000005,4204.359,4152.179,4177.0509999999995,4198.333,4188.718,4199.487,4189.487,4186.026,4197.9490000000005,4192.564,4183.333,4205.513,0,0
84,51,0,0,4200.385,4159.615,4201.026,4158.462,4175.385,4197.308,4186.795,4191.026,4187.692,4188.718,4203.462,4192.0509999999995,4186.41,4201.667,0,0
85,52,0,0,4203.59,4169.103,4200.641,4161.154,4178.333,4198.077,4186.795,4196.154,4186.026,4188.077,4204.103,4200.385,4186.538,4205.513,0,0
86,53,0,0,4203.462,4162.821,4199.231,4155.769,4182.436,4199.487,4186.41,4197.564,4186.41,4186.795,4196.026,4194.615,4185.385,4203.462,0,0
87,54,0,0,4199.359,4155.255999999999,4197.9490000000005,4154.615,4180.641,4199.615,4185.0,4186.538,4188.462,4196.41,4201.923,4181.282,4190.513,4197.179,0,0
88,55,0,0,4202.308,4165.0,4199.744000000001,4158.077,4183.974,4201.154,4186.026,4185.769,4188.205,4201.026,4219.359,4186.282,4195.897,4203.333,0,0
89,56,0,0,4206.154,4168.974,4203.077,4160.513,4183.846,4201.795,4187.308,4190.0,4184.872,4193.077,4210.769,4190.255999999999,4194.487,4204.103,0,0
90,57,0,0,4198.846,4160.255999999999,4199.103,4159.744000000001,4171.282,4199.359,4186.282,4183.974,4183.59,4182.821,4184.872,4174.744000000001,4187.308,4190.513,0,0
91,58,0,0,4188.077,4156.026,4193.205,4155.385,4168.333,4197.308,4185.769,4182.179,4185.0,4181.154,4186.667,4167.308,4179.872,4183.846,0,0
92,59,0,0,4187.692,4154.744000000001,4192.436,4155.128,4174.744000000001,4197.692,4186.795,4189.744000000001,4185.513,4183.974,4205.385,4172.692,4182.692,4187.308,0,0
93,60,0,0,4189.487,4151.923,4190.513,4157.308,4172.436,4198.718,4187.179,4184.359,4183.462,4175.769,4202.179,4173.333,4189.487,4186.026,0,0
94,61,0,0,4186.923,4151.538,4192.179,4156.154,4167.692,4198.462,4188.59,4174.359,4184.744000000001,4166.538,4198.205,4175.641,4187.436,4190.641,0,0
95,62,0,0,4188.59,4154.744000000001,4197.821,4159.103,4169.744000000001,4192.821,4187.821,4179.103,4184.359,4179.744000000001,4210.641,4186.923,4182.179,4202.436,0,0
96,63,0,0,4188.718,4153.205,4192.821,4162.564,4170.128,4185.641,4183.333,4184.231,4173.846,4188.846,4209.103,4186.795,4182.0509999999995,4200.0,0,0
97,64,0,2455,4186.026,4152.692,4187.564,4167.564,4168.846,4191.41,4182.692,4181.41,4171.667,4173.205,4203.846,4180.641,4182.308,4196.538,0,0
98,65,0,1926,4186.538,4153.974,4192.308,4171.41,4170.769,4199.231,4186.41,4182.564,4183.333,4169.744000000001,4219.615,4183.333,4183.205,4200.0,0,0
99,66,0,3416,4180.897,4151.41,4188.718,4162.0509999999995,4170.641,4195.255999999999,4187.564,4183.462,4185.255999999999,4167.564,4219.359,4179.231,4181.795,4192.692,0,0
100,67,0,3350,4174.359,4150.641,4179.872,4157.308,4170.897,4192.564,4184.487,4182.179,4180.255999999999,4156.923,4204.231,4174.744000000001,4177.9490000000005,4187.9490000000005,0,0
101,68,0,2946,4179.872,4156.154,4183.974,4166.41,4171.795,4198.718,4184.359,4190.897,4184.744000000001,4171.154,4213.718,4180.513,4181.667,4196.795,0,0
102,69,0,2527,4191.667,4162.821,4189.615,4172.179,4170.385,4202.0509999999995,4192.9490000000005,4197.179,4190.0,4194.744000000001,4226.154,4185.0,4189.744000000001,4203.59,0,0
103,70,0,2424,4196.795,4167.821,4190.513,4170.0,4177.179,4200.385,4197.179,4190.0,4188.333,4193.462,4220.128,4184.359,4190.255999999999,4202.9490000000005,0,0
104,71,0,3000,4193.462,4170.897,4194.744000000001,4172.0509999999995,4183.333,4201.923,4194.231,4186.538,4186.41,4187.308,4215.255999999999,4183.333,4186.282,4201.41,0,0
105,72,0,2426,4189.615,4169.615,4195.128,4181.41,4176.026,4204.231,4197.179,4190.897,4188.077,4186.538,4216.41,4184.231,4185.128,4199.872,0,0
106,73,0,3466,4187.9490000000005,4167.821,4188.462,4184.487,4170.769,4203.462,4204.487,4188.846,4188.59,4173.59,4213.846,4182.436,4185.513,4198.205,0,0
107,74,0,3005,4184.359,4168.974,4184.744000000001,4172.0509999999995,4174.359,4203.59,4204.231,4188.205,4185.769,4166.41,4213.462,4175.385,4184.103,4196.026,0,0
108,75,0,2908,4181.41,4171.41,4185.0,4163.077,4173.077,4206.538,4202.9490000000005,4199.615,4192.564,4184.231,4223.846,4169.487,4184.487,4196.154,0,0
109,76,0,2599,4185.255999999999,4170.513,4188.205,4174.103,4167.179,4205.897,4203.333,4202.179,4198.846,4193.846,4228.846,4174.487,4185.641,4199.487,0,0
110,77,0,3265,4193.077,4172.0509999999995,4195.513,4185.513,4175.385,4202.308,4201.154,4193.077,4193.205,4183.974,4226.923,4183.846,4187.9490000000005,4204.359,0,0
111,78,0,3005,4201.923,4186.282,4200.641,4185.513,4184.359,4201.154,4197.692,4186.282,4190.641,4188.077,4232.692,4191.154,4191.538,4213.205,0,0
112,79,0,2908,4203.718,4188.718,4200.641,4182.9490000000005,4177.821,4200.255999999999,4190.769,4183.846,4191.795,4207.692,4236.282,4191.026,4191.923,4213.718,0,0
113,80,0,2599,4194.103,4173.333,4200.769,4184.231,4169.231,4197.9490000000005,4184.872,4182.692,4188.333,4206.538,4224.359,4183.846,4188.974,4202.0509999999995,0,0
114,81,0,3265,4188.846,4170.128,4198.846,4188.205,4168.462,4197.179,4185.0,4181.923,4188.718,4188.333,4218.333,4187.0509999999995,4186.795,4199.872,0,0
115,82,0,3005,4187.9490000000005,4175.0,4192.564,4183.846,4168.974,4199.103,4186.538,4183.205,4189.872,4185.513,4217.564,4187.564,4185.255999999999,4203.718,0,0
116,83,0,2908,4183.974,4170.897,4189.359,4178.718,4167.821,4202.0509999999995,4188.462,4187.9490000000005,4185.128,4203.077,4214.487,4172.9490000000005,4185.385,4196.795,0,0
117,84,0,2599,4183.077,4171.667,4187.821,4187.308,4167.692,4203.333,4190.255999999999,4187.436,4187.692,4206.282,4232.179,4172.564,4188.077,4194.359,0,0
118,85,0,3265,4182.0509999999995,4174.872,4185.0,4186.538,4166.795,4201.795,4188.333,4175.513,4190.128,4183.205,4232.436,4189.744000000001,4187.821,4202.9490000000005,0,0
119,86,0,3005,4174.231,4167.436,4184.744000000001,4172.179,4167.179,4201.41,4186.41,4170.255999999999,4185.128,4177.821,4212.9490000000005,4185.513,4184.231,4198.077,0,0
120,87,0,2908,4169.103,4164.872,4182.436,4174.872,4163.59,4202.179,4188.846,4180.513,4186.538,4202.564,4229.615,4165.0,4182.9490000000005,4187.179,0,0
121,88,0,2599,4171.154,4168.59,4177.564,4183.205,4152.436,4199.744000000001,4187.9490000000005,4183.462,4189.872,4203.974,4243.205,4164.359,4183.59,4188.333,0,0
122,89,0,3265,4166.026,4160.641,4173.333,4176.795,4152.0509999999995,4199.487,4184.103,4174.615,4187.436,4186.41,4221.795,4171.923,4183.462,4190.0,0,0
123,90,0,3005,4156.795,4153.974,4176.154,4176.795,4165.255999999999,4207.821,4185.513,4175.385,4185.0,4182.564,4212.0509999999995,4165.641,4182.9490000000005,4184.231,0,0
124,91,0,2908,4157.179,4161.41,4182.0509999999995,4183.333,4169.872,4212.436,4189.359,4181.667,4186.923,4177.692,4216.282,4157.821,4183.974,4179.615,0,0
125,92,0,2599,4159.487,4163.846,4179.231,4176.923,4159.487,4205.769,4187.0509999999995,4176.154,4187.9490000000005,4168.718,4210.641,4153.974,4182.821,4176.667,0,0
126,93,0,3265,4148.077,4150.513,4166.538,4165.769,4149.487,4200.0,4183.974,4166.41,4183.846,4167.0509999999995,4202.179,4144.744000000001,4178.462,4166.026,0,0
127,94,0,3005,4136.538,4148.077,4158.718,4164.744000000001,4149.615,4200.0,4184.103,4165.255999999999,4178.718,4158.974,4192.179,4131.923,4174.359,4155.897,0,0
128,95,0,2908,4149.615,4171.538,4167.179,4177.564,4154.615,4197.9490000000005,4182.564,4166.538,4180.513,4155.385,4193.205,4134.615,4173.846,4163.333,0,0
129,96,0,2599,4171.923,4190.641,4176.154,4191.282,4156.026,4196.923,4182.821,4166.667,4184.231,4169.487,4219.615,4150.897,4174.103,4181.795,0,0
130,97,0,3265,4174.231,4187.9490000000005,4173.205,4187.9490000000005,4154.103,4200.385,4185.513,4166.154,4183.462,4176.154,4220.769,4156.923,4172.436,4185.128,0,0
131,98,0,3005,4167.0509999999995,4185.255999999999,4170.897,4184.744000000001,4161.282,4202.564,4184.359,4165.385,4183.333,4168.462,4196.667,4152.308,4172.308,4175.385,0,0
132,99,0,2908,4169.872,4190.255999999999,4176.154,4188.59,4170.385,4203.205,4182.821,4170.641,4186.026,4165.128,4202.179,4155.128,4176.795,4174.615,0,0
133,100,0,2599,4167.436,4187.0509999999995,4173.846,4188.718,4164.231,4204.487,4185.897,4174.744000000001,4187.308,4168.077,4216.154,4154.872,4185.0,4173.718,0,0
134,101,0,3265,4155.513,4181.154,4166.667,4192.692,4154.744000000001,4203.846,4187.692,4172.436,4186.795,4170.128,4209.487,4141.923,4184.744000000001,4166.41,0,0
135,102,0,3005,4152.436,4180.255999999999,4167.821,4191.667,4156.154,4200.255999999999,4185.255999999999,4171.923,4185.641,4163.59,4194.615,4143.718,4176.282,4166.795,0,0
136,103,0,2908,4160.255999999999,4182.436,4170.897,4184.231,4157.308,4198.59,4185.0,4173.205,4184.615,4156.282,4199.359,4160.255999999999,4177.0509999999995,4173.205,0,0
137,104,0,2599,4168.333,4194.359,4172.564,4192.179,4155.255999999999,4199.872,4188.718,4170.128,4185.641,4162.692,4222.179,4161.538,4186.41,4175.255999999999,0,0
138,105,0,3265,4171.41,4204.487,4173.59,4205.385,4156.026,4198.333,4188.718,4165.769,4185.255999999999,4162.0509999999995,4230.513,4153.59,4184.615,4174.231,0,0
139,106,0,3005,4170.897,4201.282,4173.718,4204.359,4156.026,4196.41,4185.641,4165.897,4182.821,4155.128,4211.026,4155.897,4179.103,4172.436,0,0
140,107,0,2908,4168.462,4202.564,4172.308,4201.667,4154.359,4198.333,4184.231,4166.538,4181.923,4158.974,4195.255999999999,4158.077,4181.923,4170.255999999999,0,0
141,108,0,2599,4168.718,4213.974,4171.538,4209.359,4153.333,4199.744000000001,4186.154,4166.538,4182.9490000000005,4161.154,4204.359,4154.359,4177.692,4170.385,0,0
142,109,0,3265,4170.0,4217.564,4171.795,4218.462,4152.436,4201.026,4193.333,4174.487,4182.821,4155.641,4201.667,4155.255999999999,4172.692,4171.154,0,0
143,110,0,3005,4163.974,4214.231,4169.615,4214.231,4152.692,4203.846,4201.154,4184.359,4182.564,4155.385,4194.359,4155.897,4180.513,4168.205,0,0
144,111,0,2908,4154.231,4216.026,4165.769,4200.769,4154.231,4202.308,4199.231,4188.205,4191.538,4168.846,4208.333,4152.564,4185.513,4165.641,0,0
145,112,0,2599,4156.923,4215.641,4167.179,4204.872,4155.897,4199.615,4190.897,4190.255999999999,4202.179,4181.795,4218.462,4153.59,4184.615,4167.9490000000005,0,0
146,113,0,3265,4167.821,4218.846,4172.564,4219.744000000001,4154.872,4196.026,4185.385,4186.538,4195.769,4177.0509999999995,4203.205,4155.897,4186.154,4168.59,0,0
147,114,0,3005,4170.0,4229.103,4171.538,4218.974,4155.0,4191.795,4182.821,4173.846,4184.103,4166.41,4192.9490000000005,4156.41,4185.0,4171.538,0,0
148,115,0,2908,4166.667,4226.282,4168.59,4213.59,4154.103,4192.308,4182.564,4166.667,4183.974,4165.769,4210.769,4157.0509999999995,4181.026,4176.667,0,0
149,116,0,2599,4169.744000000001,4221.282,4170.641,4215.897,4151.538,4196.795,4184.744000000001,4174.744000000001,4184.487,4167.0509999999995,4214.615,4155.128,4184.359,4175.128,0,0
150,117,0,3265,4175.0,4232.821,4172.564,4219.231,4160.513,4200.641,4187.692,4186.282,4188.59,4170.255999999999,4207.564,4154.231,4189.744000000001,4173.077,0,0
151,118,0,3005,4166.923,4232.9490000000005,4169.744000000001,4217.821,4167.308,4201.026,4186.282,4187.9490000000005,4195.128,4170.769,4212.9490000000005,4155.128,4189.231,4173.077,0,0
152,119,0,2908,4153.59,4215.641,4165.641,4215.641,4159.744000000001,4200.128,4183.462,4181.667,4188.846,4162.9490000000005,4197.692,4151.538,4185.641,4167.9490000000005,0,0
153,120,0,2599,4157.692,4215.897,4165.641,4217.0509999999995,4161.026,4200.897,4194.487,4182.179,4187.821,4172.564,4182.0509999999995,4151.923,4189.359,4165.769,0,0
154,121,0,3265,4168.974,4223.974,4167.436,4218.333,4169.615,4202.9490000000005,4201.667,4188.974,4197.821,4188.59,4205.128,4155.255999999999,4195.897,4170.255999999999,0,0
155,122,0,3005,4169.615,4217.9490000000005,4169.872,4216.667,4161.667,4198.846,4190.128,4189.359,4193.462,4176.026,4217.564,4151.538,4191.795,4170.255999999999,0,0
156,123,0,2908,4168.59,4217.0509999999995,4171.538,4217.692,4153.974,4195.0,4189.487,4186.795,4186.026,4162.9490000000005,4196.282,4151.026,4184.231,4168.59,0,0
157,124,0,2599,4171.154,4219.487,4170.255999999999,4218.333,4160.513,4199.231,4200.513,4189.359,4193.59,4170.897,4195.255999999999,4157.308,4185.0,4172.308,0,0
158,125,0,3265,4167.9490000000005,4214.359,4167.9490000000005,4214.359,4158.718,4196.795,4193.846,4188.718,4193.974,4171.923,4205.897,4154.487,4187.179,4172.308,0,0
159,126,0,3005,4166.026,4213.718,4167.821,4212.436,4153.718,4190.128,4183.333,4183.077,4185.641,4165.513,4202.692,4150.641,4185.128,4170.897,0,0
160,127,0,52,4168.59,4215.385,4167.9490000000005,4215.641,4158.718,4192.0509999999995,4187.564,4183.077,4186.41,4166.923,4202.564,4155.0,4182.564,4171.538,0,0
161,0,0,2448,4167.0509999999995,4213.974,4166.538,4215.897,4159.359,4195.255999999999,4188.718,4180.385,4187.9490000000005,4169.359,4201.282,4155.513,4182.436,4170.0,0,0
162,1,0,1912,4168.077,4212.308,4168.974,4216.282,4153.974,4192.179,4186.538,4169.359,4187.564,4172.179,4202.9490000000005,4150.385,4184.103,4168.205,0,0
163,2,0,3408,4167.9490000000005,4206.667,4166.026,4212.308,4153.462,4192.308,4188.59,4172.692,4187.564,4170.128,4208.974,4151.154,4185.0,4169.615,0,0
164,3,0,3333,4160.385,4200.641,4155.897,4202.0509999999995,4155.897,4193.462,4186.923,4184.744000000001,4187.564,4162.9490000000005,4201.795,4153.974,4182.692,4169.615,0,0
165,4,0,2942,4161.026,4202.564,4157.821,4205.0,4155.128,4190.255999999999,4185.0,4183.974,4192.308,4168.333,4197.436,4150.385,4182.821,4168.077,0,0
166,5,0,2527,4168.205,4203.333,4168.846,4213.205,4155.0,4191.538,4187.0509999999995,4189.744000000001,4200.128,4183.846,4210.385,4150.769,4188.077,4170.255999999999,0,0
167,6,0,2424,4160.897,4198.077,4168.974,4205.513,4156.282,4195.385,4187.0509999999995,4202.564,4200.769,4184.103,4216.026,4152.436,4190.385,4172.821,0,0
168,7,0,2997,4155.0,4198.462,4164.231,4198.462,4158.077,4196.667,4186.282,4195.255999999999,4196.538,4171.154,4203.718,4148.846,4185.769,4171.41,0,0
169,8,0,2418,4165.897,4203.077,4166.923,4205.385,4160.0,4199.231,4186.923,4183.333,4195.513,4170.513,4190.385,4151.41,4183.205,4171.282,0,0
170,9,0,3465,4170.255999999999,4200.641,4167.692,4206.923,4158.59,4202.179,4187.0509999999995,4187.0509999999995,4196.667,4176.026,4196.026,4153.846,4185.769,4169.615,0,0
171,10,0,3003,4165.385,4200.385,4167.308,4202.9490000000005,4158.718,4202.821,4193.462,4192.308,4198.974,4172.564,4207.0509999999995,4150.641,4185.0,4169.487,0,0
172,11,0,2904,4171.282,4207.692,4173.718,4204.359,4162.9490000000005,4201.41,4199.615,4196.154,4202.308,4173.333,4211.026,4158.205,4186.154,4179.359,0,0
173,12,0,2593,4180.128,4211.538,4177.179,4204.231,4167.564,4199.615,4192.436,4201.667,4202.564,4187.179,4217.436,4171.154,4192.564,4186.923,0,0
174,13,0,3270,4182.821,4209.872,4178.846,4209.359,4164.615,4197.821,4183.974,4200.641,4200.513,4191.538,4214.744000000001,4170.0,4191.026,4185.513,0,0
175,14,0,3003,4183.462,4212.821,4184.359,4217.564,4158.718,4198.077,4186.923,4200.513,4196.795,4177.0509999999995,4205.769,4162.0509999999995,4184.487,4183.462,0,0
176,15,0,2904,4180.0,4219.872,4182.9490000000005,4216.41,4158.077,4198.077,4189.359,4200.897,4192.821,4170.641,4201.026,4159.615,4185.385,4180.128,0,0
177,16,0,0,4169.744000000001,4211.795,4172.179,4209.231,4155.641,4196.795,4185.641,4189.872,4187.9490000000005,4170.385,4198.718,4156.154,4183.974,4172.308,0,0
178,17,0,0,4165.385,4201.538,4167.564,4209.231,4156.154,4197.308,4186.282,4180.0,4183.974,4162.0509999999995,4201.667,4151.667,4177.564,4168.59,0,0
179,18,0,0,4171.923,4211.667,4171.282,4214.359,4166.538,4198.462,4188.718,4181.667,4185.641,4164.103,4211.282,4149.615,4180.128,4171.538,0,0
180,19,0,0,4176.667,4218.205,4172.0509999999995,4216.667,4171.41,4197.179,4187.436,4180.513,4187.692,4174.103,4202.9490000000005,4152.179,4179.487,4173.333,0,0
181,20,0,0,4171.923,4206.282,4169.103,4214.359,4163.205,4195.385,4186.026,4176.154,4184.359,4167.179,4186.41,4152.0509999999995,4168.333,4170.513,0,0
182,21,0,0,4167.9490000000005,4199.359,4169.872,4207.436,4162.821,4198.846,4187.0509999999995,4182.0509999999995,4185.385,4159.103,4192.692,4145.897,4172.692,4167.436,0,0
183,22,0,0,4167.692,4206.026,4172.179,4202.179,4168.077,4201.923,4187.821,4188.462,4190.128,4165.513,4195.769,4147.564,4186.538,4169.103,0,0
184,23,0,0,4167.308,4207.308,4171.667,4203.462,4160.255999999999,4196.795,4184.359,4184.872,4185.385,4170.128,4193.333,4152.692,4184.487,4171.538,0,0
185,24,0,0,4173.59,4205.0,4174.359,4210.128,4154.359,4194.103,4181.667,4183.718,4189.231,4169.615,4204.615,4151.41,4180.385,4174.487,0,0
186,25,0,0,4184.103,4209.615,4183.333,4215.255999999999,4159.487,4199.359,4184.231,4190.641,4202.821,4168.333,4207.436,4153.718,4184.487,4182.308,0,0
187,26,0,0,4187.564,4211.795,4186.923,4213.974,4160.255999999999,4201.154,4185.255999999999,4190.641,4195.385,4166.282,4198.59,4157.692,4180.513,4186.795,0,0
188,27,0,0,4181.538,4207.179,4179.615,4206.282,4155.769,4198.462,4182.308,4182.179,4181.154,4168.718,4198.974,4154.487,4175.897,4181.538,0,0
189,28,0,0,4175.769,4202.436,4172.692,4201.41,4156.538,4196.154,4182.821,4181.923,4186.154,4171.41,4205.255999999999,4152.179,4181.923,4178.846,0,0
190,29,0,0,4172.179,4203.077,4171.41,4204.103,4156.282,4191.795,4185.128,4186.41,4190.769,4168.333,4200.385,4156.154,4184.103,4180.641,0,0
191,30,0,0,4168.59,4202.9490000000005,4171.41,4202.0509999999995,4152.9490000000005,4188.462,4183.333,4185.385,4188.077,4165.385,4198.333,4154.487,4182.564,4179.359,0,0
192,31,0,0,4175.0,4205.769,4173.974,4204.359,4156.795,4191.026,4183.462,4190.255999999999,4197.308,4172.0509999999995,4202.179,4157.179,4188.205,4181.154,0,0
193,32,0,0,4185.769,4216.154,4174.359,4210.897,4162.179,4191.41,4186.41,4203.846,4205.385,4182.0509999999995,4203.333,4164.615,4193.846,4186.538,0,0
194,33,0,0,4182.0509999999995,4215.255999999999,4171.923,4208.59,4161.154,4187.564,4184.872,4201.667,4199.615,4179.231,4208.974,4158.718,4191.667,4180.255999999999,0,0
195,34,0,0,4177.692,4207.308,4177.308,4208.974,4158.846,4187.692,4183.333,4188.59,4198.59,4171.923,4216.41,4154.872,4187.179,4174.615,0,0
196,35,0,0,4183.333,4211.795,4185.769,4211.923,4157.564,4189.359,4186.538,4186.026,4197.308,4171.538,4207.821,4162.9490000000005,4188.333,4180.255999999999,0,0
197,36,0,0,4179.103,4214.103,4182.0509999999995,4205.128,4159.103,4189.487,4185.897,4188.974,4191.538,4170.0,4192.0509999999995,4160.769,4189.487,4178.077,0,0
198,37,0,0,4174.744000000001,4207.692,4178.205,4203.462,4168.077,4191.667,4186.282,4190.255999999999,4192.821,4168.846,4195.641,4153.846,4181.41,4174.359,0,0
199,38,0,0,4183.974,4203.846,4183.462,4211.538,4172.0509999999995,4196.795,4192.821,4188.846,4197.9490000000005,4171.667,4209.744000000001,4158.974,4176.667,4177.692,0,0
200,39,0,0,4180.897,4202.179,4178.205,4205.128,4166.538,4201.538,4193.462,4186.667,4198.205,4170.769,4202.821,4160.0,4182.821,4174.359,0,0
201,40,0,0,4167.9490000000005,4201.154,4168.846,4195.897,4165.0,4198.718,4186.026,4189.744000000001,4197.308,4168.462,4194.872,4151.795,4186.795,4168.462,0,0
202,41,0,0,4170.769,4206.282,4177.692,4208.718,4168.718,4191.795,4186.026,4196.026,4199.231,4171.667,4203.974,4155.513,4188.333,4172.308,0,0
203,42,0,0,4176.538,4210.769,4184.359,4218.974,4171.667,4190.0,4190.897,4199.744000000001,4201.41,4174.615,4198.205,4163.974,4192.436,4175.385,0,0
204,43,0,0,4170.897,4206.41,4174.359,4210.128,4167.9490000000005,4190.128,4187.179,4196.282,4200.641,4172.436,4183.333,4159.872,4189.744000000001,4172.0509999999995,0,0
205,44,0,0,4165.897,4200.255999999999,4169.615,4199.744000000001,4158.974,4186.795,4183.077,4189.872,4196.41,4166.795,4196.538,4149.872,4183.462,4168.974,0,0
206,45,0,0,4167.692,4202.0509999999995,4174.487,4202.564,4157.9490000000005,4185.0,4186.282,4186.41,4196.538,4168.077,4211.667,4149.744000000001,4185.128,4169.359,0,0
207,46,0,0,4173.077,4207.436,4174.615,4206.282,4165.513,4188.205,4186.795,4188.205,4198.077,4167.692,4195.0,4156.282,4185.513,4173.333,0,0
208,47,0,0,4168.205,4197.9490000000005,4172.179,4202.0509999999995,4167.692,4189.615,4182.9490000000005,4188.718,4189.872,4156.538,4180.769,4150.128,4179.487,4170.128,0,0
209,48,0,0,4159.744000000001,4187.9490000000005,4170.897,4201.795,4166.667,4188.333,4181.154,4181.923,4183.718,4156.154,4181.41,4144.231,4177.9490000000005,4165.641,0,0
210,49,0,0,4163.59,4193.333,4169.487,4203.846,4169.872,4187.0509999999995,4183.205,4177.821,4190.255999999999,4165.897,4190.513,4151.923,4183.718,4169.359,0,0
211,50,0,0,4169.231,4192.0509999999995,4172.179,4201.154,4169.487,4187.179,4183.333,4183.077,4198.59,4174.359,4210.641,4157.436,4189.487,4178.718,0,0
212,51,0,0,4169.615,4184.231,4175.897,4199.231,4168.462,4187.0509999999995,4181.667,4188.077,4199.231,4184.744000000001,4209.231,4162.436,4189.231,4187.821,0,0
213,52,0,0,4173.974,4183.333,4177.0509999999995,4200.0,4167.9490000000005,4183.205,4180.769,4184.487,4197.436,4187.179,4195.897,4170.0,4184.872,4189.231,0,0
214,53,0,0,4184.872,4191.154,4182.821,4202.821,4165.641,4182.9490000000005,4183.846,4187.9490000000005,4201.667,4188.077,4206.154,4170.769,4192.179,4190.769,0,0
215,54,0,0,4191.667,4197.179,4190.128,4208.205,4167.564,4187.308,4188.077,4199.744000000001,4205.255999999999,4197.564,4225.385,4171.538,4203.718,4198.462,0,0
216,55,0,0,4181.795,4193.333,4182.564,4205.513,4166.282,4187.179,4186.667,4196.795,4200.769,4194.487,4218.718,4172.0509999999995,4196.282,4195.255999999999,0,0
217,56,0,0,4167.308,4188.205,4175.0,4198.077,4157.179,4185.897,4183.59,4187.564,4198.462,4178.974,4189.359,4163.462,4183.462,4181.795,0,0
218,57,0,0,4168.718,4196.795,4179.359,4198.59,4154.744000000001,4187.9490000000005,4186.154,4191.795,4198.077,4182.308,4181.667,4157.0509999999995,4185.0,4181.795,0,0
219,58,0,0,4167.564,4209.615,4176.923,4202.564,4162.821,4188.974,4190.128,4198.846,4189.615,4188.333,4202.308,4154.744000000001,4188.333,4182.436,0,0
220,59,0,0,4155.0,4210.513,4167.308,4198.333,4162.0509999999995,4187.0509999999995,4186.795,4197.179,4183.718,4175.0,4211.154,4147.564,4184.487,4173.077,0,0
221,60,0,0,4156.538,4211.795,4168.59,4186.154,4155.769,4187.179,4186.538,4197.564,4192.564,4173.846,4201.795,4154.744000000001,4185.0,4175.128,0,0
222,61,0,0,4167.436,4227.0509999999995,4177.179,4188.077,4156.795,4187.436,4193.462,4202.692,4200.897,4186.41,4193.718,4168.333,4191.795,4185.128,0,0
223,62,0,0,4175.769,4249.615,4182.564,4209.487,4158.205,4187.179,4194.487,4205.128,4200.255999999999,4188.462,4191.795,4173.077,4197.821,4191.667,0,0
224,63,0,0,4188.718,4264.487,4187.821,4211.282,4156.923,4185.897,4187.821,4202.179,4200.128,4191.923,4205.0,4177.821,4198.205,4200.128,0,0
225,64,0,2453,4188.462,4274.615,4186.41,4189.487,4155.769,4179.487,4184.359,4200.128,4198.974,4202.436,4223.718,4178.462,4199.231,4201.282,0,0
226,65,0,1931,4173.59,4281.282,4180.897,4189.103,4156.282,4173.974,4186.667,4197.0509999999995,4193.59,4197.821,4213.205,4170.897,4203.077,4188.974,0,0
227,66,0,3420,4175.513,4281.026,4184.744000000001,4206.795,4158.718,4174.231,4187.436,4191.282,4187.436,4183.205,4186.923,4168.59,4195.128,4183.59,0,0
228,67,0,3337,4178.718,4293.59,4184.103,4203.974,4158.846,4173.974,4183.974,4186.667,4183.59,4184.231,4185.641,4164.744000000001,4183.59,4186.41,0,0
229,68,0,2941,4162.821,4313.59,4170.385,4192.436,4156.41,4171.282,4182.308,4181.154,4182.0509999999995,4183.333,4198.205,4150.0,4186.538,4179.359,0,0
230,69,0,2527,4157.9490000000005,4310.385,4166.41,4196.538,4160.769,4172.308,4184.744000000001,4176.795,4182.821,4169.615,4201.026,4149.744000000001,4190.641,4176.154,0,0
231,70,0,2424,4172.179,4308.846,4174.359,4203.59,4169.359,4171.026,4187.436,4179.744000000001,4185.385,4170.641,4198.205,4162.821,4187.0509999999995,4181.538,0,0
232,71,0,2997,4181.282,4323.846,4177.821,4200.641,4171.282,4168.974,4189.744000000001,4194.103,4194.487,4191.154,4201.41,4172.564,4191.026,4187.692,0,0
233,72,0,2415,4183.846,4323.718,4183.333,4200.513,4173.333,4175.385,4196.795,4210.513,4206.923,4205.513,4202.9490000000005,4185.641,4202.0509999999995,4197.692,0,0
234,73,0,3475,4188.462,4314.615,4186.41,4208.59,4175.255999999999,4178.077,4202.0509999999995,4212.308,4207.308,4203.718,4204.359,4190.0,4205.897,4200.641,0,0
235,74,0,2998,4182.308,4312.9490000000005,4175.128,4208.205,4170.769,4173.59,4195.128,4199.487,4202.179,4198.846,4214.103,4176.667,4198.205,4189.872,0,0
236,75,0,2903,4170.255999999999,4307.179,4170.255999999999,4199.231,4167.821,4172.0509999999995,4185.897,4189.103,4199.615,4191.795,4211.667,4163.462,4190.385,4180.128,0,0
237,76,0,2564,4170.255999999999,4304.872,4177.179,4199.744000000001,4171.026,4174.359,4185.769,4185.0,4190.897,4179.231,4193.974,4159.487,4191.154,4176.41,0,0
238,77,0,3274,4168.333,4312.436,4175.0,4204.231,4172.564,4177.821,4187.0509999999995,4175.0,4180.897,4169.872,4176.41,4155.769,4190.255999999999,4172.0509999999995,0,0
239,78,0,2998,4157.179,4313.205,4166.026,4203.59,4170.128,4178.718,4187.179,4169.487,4181.795,4163.333,4168.846,4152.692,4180.769,4169.103,0,0
240,79,0,2903,4157.9490000000005,4309.487,4166.154,4202.308,4167.821,4178.205,4193.59,4178.077,4183.718,4165.513,4182.9490000000005,4153.462,4177.0509999999995,4167.821,0,0
241,80,0,2564,4173.59,4313.077,4173.846,4202.9490000000005,4168.59,4181.282,4201.026,4186.282,4186.41,4181.538,4204.359,4160.897,4192.9490000000005,4176.282,0,0
242,81,0,3274,4176.282,4310.769,4175.513,4200.385,4168.974,4184.872,4199.359,4184.872,4195.769,4190.641,4203.333,4169.744000000001,4203.205,4185.769,0,0
243,82,0,2998,4167.821,4294.744000000001,4171.282,4197.0509999999995,4162.692,4183.846,4198.974,4187.436,4199.231,4186.154,4196.282,4170.255999999999,4195.385,4179.231,0,0
244,83,0,2903,4168.974,4275.0,4172.821,4201.154,4160.255999999999,4184.872,4200.513,4197.821,4196.923,4184.744000000001,4202.9490000000005,4170.255999999999,4191.795,4173.974,0,0
245,84,0,2564,4165.769,4279.103,4174.103,4203.333,4168.974,4187.564,4192.821,4197.692,4199.744000000001,4184.487,4201.026,4165.897,4193.846,4177.308,0,0
246,85,0,3274,4156.538,4302.9490000000005,4168.846,4200.385,4175.513,4187.9490000000005,4188.59,4190.255999999999,4197.9490000000005,4179.872,4188.333,4156.154,4189.872,4174.615,0,0
247,86,0,2998,4161.667,4314.615,4169.231,4210.0,4172.0509999999995,4187.692,4194.487,4185.641,4188.718,4174.359,4180.255999999999,4154.872,4185.385,4170.513,0,0
248,87,0,2903,4166.667,4309.359,4172.821,4217.692,4170.513,4185.0,4192.564,4175.641,4180.897,4162.436,4173.59,4149.103,4182.0509999999995,4163.846,0,0
249,88,0,2564,4155.385,4306.026,4169.103,4206.41,4173.846,4182.564,4184.231,4163.718,4176.41,4148.59,4169.231,4133.974,4173.59,4153.333,0,0
250,89,0,3274,4149.872,4302.179,4164.103,4200.255999999999,4166.154,4179.615,4184.872,4162.821,4172.179,4143.077,4171.282,4132.9490000000005,4171.026,4153.974,0,0
251,90,0,2998,4157.564,4288.205,4163.59,4206.795,4154.359,4177.179,4185.255999999999,4167.9490000000005,4173.205,4140.769,4171.538,4143.333,4177.9490000000005,4160.128,0,0
252,91,0,2903,4156.154,4272.564,4162.308,4202.564,4152.692,4181.026,4181.026,4172.9490000000005,4179.487,4140.385,4164.615,4145.769,4183.077,4153.077,0,0
253,92,0,2564,4150.255999999999,4258.718,4165.128,4196.026,4155.0,4189.487,4191.282,4186.923,4186.667,4149.487,4168.205,4151.026,4184.872,4151.923,0,0
254,93,0,3274,4155.128,4252.821,4173.205,4202.308,4156.923,4196.667,4205.513,4203.846,4189.872,4165.513,4179.615,4161.667,4186.538,4164.103,0,0
255,94,0,2998,4159.231,4247.308,4175.128,4204.615,4163.333,4200.897,4197.9490000000005,4201.538,4187.564,4168.846,4175.255999999999,4161.41,4182.9490000000005,4162.9490000000005,0,0
256,95,0,2903,4151.282,4230.769,4169.103,4199.103,4169.103,4196.667,4183.59,4181.282,4185.385,4157.179,4159.103,4149.359,4175.769,4150.0,0,0
257,96,0,2564,4138.077,4216.667,4161.923,4196.667,4167.179,4187.692,4182.0509999999995,4167.179,4181.667,4149.231,4153.59,4140.385,4170.255999999999,4147.9490000000005,0,0
258,97,0,3274,4133.974,4211.923,4160.513,4197.564,4165.513,4189.359,4184.231,4170.128,4175.255999999999,4148.462,4162.821,4144.487,4169.103,4151.41,0,0
259,98,0,2998,4142.821,4207.308,4164.487,4198.077,4169.744000000001,4194.487,4182.821,4173.333,4173.333,4153.333,4171.026,4152.436,4174.744000000001,4152.0509999999995,0,0
260,99,0,2903,4152.0509999999995,4203.333,4168.462,4200.385,4174.359,4193.59,4184.487,4168.462,4170.897,4161.154,4168.333,4155.513,4178.718,4160.513,0,0
261,100,0,2564,4154.103,4202.436,4168.846,4202.436,4168.333,4183.846,4185.897,4170.897,4166.795,4159.744000000001,4163.462,4154.615,4177.692,4170.128,0,0
262,101,0,3274,4158.462,4200.769,4170.255999999999,4199.615,4155.255999999999,4169.359,4184.487,4185.641,4173.974,4156.795,4165.897,4155.513,4179.744000000001,4170.385,0,0
263,102,0,2998,4168.846,4197.564,4174.103,4197.821,4150.128,4171.154,4183.205,4189.615,4183.718,4166.923,4171.154,4164.231,4184.487,4171.795,0,0
264,103,0,2903,4176.538,4192.9490000000005,4174.872,4200.769,4153.205,4193.718,4186.154,4182.436,4182.308,4172.821,4170.0,4170.255999999999,4184.103,4176.41,0,0
265,104,0,2564,4172.821,4179.744000000001,4176.667,4197.9490000000005,4160.769,4212.0509999999995,4195.0,4191.026,4189.872,4178.974,4170.0,4169.231,4191.026,4176.41,0,0
266,105,0,3274,4163.077,4162.9490000000005,4178.846,4187.308,4166.026,4219.359,4204.231,4206.41,4203.462,4196.795,4172.0509999999995,4168.974,4201.667,4173.077,0,0
267,106,0,2998,4159.872,4153.077,4181.026,4187.179,4167.9490000000005,4229.872,4211.795,4206.923,4201.282,4204.872,4171.154,4171.538,4194.359,4169.103,0,0
268,107,0,2903,4165.641,4149.615,4185.769,4198.077,4177.308,4237.436,4216.667,4205.255999999999,4198.077,4202.9490000000005,4172.308,4171.795,4185.513,4168.718,0,0
269,108,0,2564,4175.897,4151.282,4188.846,4200.769,4185.513,4234.487,4210.769,4205.255999999999,4199.872,4198.205,4171.795,4174.231,4181.538,4177.179,0,0
270,109,0,3274,4183.333,4159.231,4187.821,4200.641,4181.154,4222.436,4195.128,4191.41,4187.436,4183.59,4160.255999999999,4169.615,4173.59,4183.205,0,0
271,110,0,2998,4187.179,4170.641,4189.615,4208.333,4180.128,4205.641,4181.41,4173.59,4171.667,4173.846,4151.795,4156.667,4169.231,4182.692,0,0
272,111,0,2903,4193.462,4175.385,4205.513,4221.154,4187.436,4197.692,4174.231,4166.282,4167.692,4165.385,4155.769,4156.026,4163.718,4183.846,0,0
273,112,0,2564,4200.255999999999,4176.667,4225.128,4231.026,4185.128,4196.538,4172.0509999999995,4166.41,4163.846,4147.9490000000005,4157.692,4165.385,4155.0,4188.718,0,0
274,113,0,3274,4203.846,4180.641,4214.872,4221.282,4174.487,4189.359,4168.462,4173.077,4162.436,4152.308,4156.538,4173.846,4163.846,4191.923,0,0
275,114,0,2998,4209.487,4180.128,4185.641,4197.9490000000005,4167.564,4182.0509999999995,4165.0,4183.462,4174.103,4179.615,4162.436,4182.0509999999995,4181.538,4195.0,0,0
276,115,0,2903,4219.359,4174.359,4180.897,4192.436,4172.436,4186.538,4172.179,4196.026,4188.718,4192.692,4170.255999999999,4188.846,4185.0,4200.641,0,0
277,116,0,2564,4218.333,4165.385,4189.872,4201.41,4183.333,4200.513,4184.872,4208.333,4200.385,4200.897,4168.846,4189.231,4190.513,4199.231,0,0
278,117,0,3274,4208.205,4148.462,4187.436,4195.641,4181.795,4214.231,4196.795,4218.718,4213.718,4218.974,4159.744000000001,4183.333,4199.744000000001,4190.641,0,0
279,118,0,2998,4196.282,4127.9490000000005,4185.641,4183.205,4176.282,4218.59,4202.436,4223.59,4221.026,4226.923,4154.231,4176.538,4193.462,4182.692,0,0
280,119,0,2903,4183.718,4122.0509999999995,4188.077,4183.974,4179.872,4216.795,4200.897,4221.154,4219.744000000001,4220.897,4153.59,4170.385,4184.487,4180.385,0,0
281,120,0,2564,4186.538,4132.564,4191.667,4188.846,4183.974,4221.154,4209.744000000001,4221.282,4220.385,4222.564,4154.103,4170.897,4191.282,4182.0509999999995,0,0
282,121,0,3274,4200.255999999999,4137.821,4195.769,4188.59,4184.487,4225.255999999999,4220.641,4217.821,4214.103,4221.41,4154.872,4173.077,4202.436,4187.692,0,0
283,122,0,2998,4201.41,4134.744000000001,4192.436,4185.769,4185.0,4215.385,4206.026,4192.9490000000005,4187.308,4191.795,4150.0,4167.0509999999995,4195.0,4190.0,0,0
284,123,0,2903,4196.667,4143.974,4185.0,4186.282,4184.487,4202.564,4184.615,4166.282,4166.41,4172.821,4143.846,4158.59,4173.462,4183.846,0,0
285,124,0,2564,4206.41,4159.487,4186.282,4191.154,4188.333,4201.026,4184.744000000001,4173.462,4173.718,4179.231,4148.205,4164.103,4164.487,4188.205,0,0
286,125,0,3274,4217.436,4159.359,4192.564,4192.0509999999995,4195.385,4201.282,4187.564,4197.308,4186.154,4173.718,4154.615,4178.846,4166.667,4198.718,0,0
287,126,0,2998,4217.436,4161.282,4198.59,4192.0509999999995,4199.359,4196.41,4181.154,4199.103,4186.795,4175.769,4155.128,4182.0509999999995,4167.436,4199.872,0,0
288,127,0,52,4217.436,4169.103,4202.564,4195.255999999999,4196.667,4191.538,4172.564,4180.897,4182.9490000000005,4195.513,4156.282,4177.436,4174.487,4200.513,0,0
289,0,0,2453,4217.9490000000005,4160.897,4200.0,4192.821,4188.974,4186.538,4162.436,4164.231,4182.564,4197.0509999999995,4154.615,4172.692,4183.974,4197.9490000000005,0,0
290,1,0,1929,4214.744000000001,4150.385,4198.718,4186.795,4182.692,4186.41,4161.026,4164.615,4186.154,4198.974,4150.513,4168.59,4186.41,4191.41,0,0
291,2,0,3417,4216.154,4154.615,4198.59,4186.41,4185.0,4194.744000000001,4169.103,4174.872,4188.846,4222.9490000000005,4152.692,4169.615,4187.9490000000005,4194.872,0,0
292,3,0,3335,4219.103,4149.872,4194.744000000001,4185.769,4186.154,4198.718,4173.59,4174.615,4186.667,4221.282,4154.487,4175.641,4188.846,4199.487,0,0
293,4,0,2941,4217.692,4140.255999999999,4195.513,4182.308,4183.846,4198.846,4178.59,4171.923,4183.59,4201.923,4151.41,4181.667,4186.026,4196.282,0,0
294,5,0,2526,4222.0509999999995,4145.769,4201.538,4184.359,4190.513,4205.513,4187.821,4181.41,4185.255999999999,4200.513,4155.641,4186.282,4184.103,4205.255999999999,0,0
295,6,0,2424,4229.872,4153.077,4202.821,4186.923,4200.513,4207.9490000000005,4190.0,4193.846,4186.154,4202.564,4165.385,4195.385,4183.333,4216.795,0,0
296,7,0,2997,4231.282,4153.205,4204.359,4185.641,4203.077,4203.718,4187.179,4197.821,4186.795,4206.923,4167.436,4204.231,4181.795,4218.59,0,0
297,8,0,2415,4233.974,4154.615,4211.41,4187.692,4204.487,4203.974,4187.179,4198.59,4192.692,4215.128,4169.231,4205.641,4183.974,4225.513,0,0
298,9,0,3475,4233.846,4154.615,4209.744000000001,4188.974,4205.0,4201.795,4181.026,4199.872,4199.231,4215.385,4173.077,4201.795,4184.359,4227.9490000000005,0,0
299,10,0,2998,4223.205,4151.282,4200.641,4182.821,4200.641,4191.026,4171.026,4197.692,4201.667,4214.231,4164.359,4198.333,4181.41,4217.692,0,0
300,11,0,2903,4220.0,4151.41,4200.0,4176.538,4197.9490000000005,4186.538,4169.487,4197.179,4202.0509999999995,4225.897,4159.103,4197.692,4181.026,4217.0509999999995,0,0
301,12,0,2588,4227.692,4152.0509999999995,4204.103,4174.615,4199.615,4188.077,4170.128,4198.205,4203.077,4231.154,4169.487,4202.564,4185.0,4226.538,0,0
302,13,0,3273,4233.718,4152.179,4203.333,4173.59,4200.641,4188.462,4173.59,4196.667,4203.462,4228.462,4175.769,4213.718,4195.255999999999,4234.231,0,0
303,14,0,2998,4239.487,4157.436,4202.9490000000005,4175.0,4201.667,4193.846,4179.872,4198.205,4203.846,4246.667,4176.538,4221.026,4205.641,4243.59,0,0
304,15,0,2903,4242.308,4161.154,4202.821,4175.641,4201.795,4196.923,4176.41,4199.103,4204.231,4264.359,4178.462,4215.897,4200.641,4243.462,0,0
305,16,0,0,4233.59,4151.795,4202.308,4173.077,4201.154,4192.179,4168.974,4192.9490000000005,4201.154,4243.718,4166.795,4202.0509999999995,4188.974,4227.821,0,0
306,17,0,0,4221.923,4138.846,4198.974,4170.255999999999,4200.641,4192.564,4171.795,4190.128,4197.436,4216.923,4151.538,4188.59,4189.359,4215.385,0,0
307,18,0,0,4213.59,4136.41,4189.487,4165.385,4203.333,4197.179,4173.205,4192.308,4198.077,4215.641,4152.692,4175.769,4191.538,4209.103,0,0
308,19,0,0,4204.359,4134.231,4183.205,4158.718,4206.026,4195.897,4170.769,4189.231,4198.462,4208.718,4152.692,4165.255999999999,4182.9490000000005,4200.385,0,0
309,20,0,0,4198.59,4126.538,4182.9490000000005,4158.205,4205.128,4196.538,4181.923,4184.359,4193.077,4197.308,4148.333,4162.9490000000005,4175.769,4196.282,0,0
310,21,0,0,4198.077,4123.59,4184.615,4159.872,4207.9490000000005,4201.41,4192.821,4187.692,4188.205,4196.026,4151.282,4166.41,4176.923,4200.128,0,0
311,22,0,0,4199.615,4124.615,4186.795,4155.641,4216.154,4203.462,4185.897,4190.769,4187.821,4195.385,4148.333,4167.308,4174.487,4199.487,0,0
312,23,0,0,4200.897,4121.154,4185.128,4154.103,4217.564,4201.667,4173.974,4182.179,4186.026,4198.205,4136.41,4164.359,4171.154,4196.923,0,0
313,24,0,0,4200.255999999999,4117.692,4183.205,4155.897,4213.333,4196.923,4163.462,4170.128,4181.923,4203.59,4138.59,4165.128,4178.846,4197.821,0,0
314,25,0,0,4202.0509999999995,4121.667,4186.923,4154.615,4215.255999999999,4196.026,4159.744000000001,4167.9490000000005,4182.692,4205.128,4151.026,4169.744000000001,4185.897,4199.872,0,0
315,26,0,0,4203.462,4127.308,4183.59,4154.231,4218.205,4201.538,4166.538,4174.744000000001,4185.513,4200.513,4146.795,4169.744000000001,4185.255999999999,4200.255999999999,0,0
316,27,0,0,4200.0,4126.282,4172.9490000000005,4155.255999999999,4218.077,4199.359,4166.667,4170.769,4177.821,4193.077,4136.282,4166.667,4182.821,4198.974,0,0
317,28,0,0,4198.462,4122.179,4174.231,4155.128,4213.205,4190.255999999999,4155.385,4161.667,4169.744000000001,4191.795,4142.308,4167.436,4177.436,4197.9490000000005,0,0
318,29,0,0,4199.615,4121.154,4177.821,4151.923,4203.333,4188.846,4152.9490000000005,4160.513,4174.744000000001,4200.0,4153.846,4168.718,4171.923,4197.564,0,0
319,30,0,0,4196.154,4122.308,4174.103,4151.282,4203.846,4193.974,4157.564,4169.487,4184.487,4201.282,4151.923,4169.231,4170.897,4199.615,0,0
320,31,0,0,4192.436,4123.59,4173.846,4154.487,4212.9490000000005,4194.744000000001,4154.359,4173.077,4182.436,4190.641,4141.538,4166.41,4164.872,4197.564,0,0
321,32,0,0,4190.385,4124.872,4171.923,4153.974,4212.9490000000005,4190.0,4150.385,4153.333,4170.385,4180.769,4134.231,4157.179,4159.487,4188.462,0,0
322,33,0,0,4186.538,4125.128,4165.255999999999,4152.308,4205.513,4186.41,4152.436,4138.974,4158.59,4172.0509999999995,4134.103,4151.026,4165.641,4185.0,0,0
323,34,0,0,4182.9490000000005,4118.846,4166.282,4151.795,4203.077,4188.333,4153.59,4147.692,4157.0509999999995,4163.462,4138.718,4152.436,4163.333,4185.641,0,0
324,35,0,0,4180.513,4111.795,4169.359,4151.026,4204.103,4189.487,4151.795,4157.692,4165.897,4166.795,4136.154,4151.538,4153.59,4183.59,0,0
325,36,0,0,4182.308,4117.692,4168.077,4150.897,4203.077,4184.359,4149.103,4157.692,4175.128,4186.795,4130.513,4152.821,4156.667,4189.744000000001,0,0
326,37,0,0,4194.872,4128.718,4178.59,4155.385,4204.615,4186.538,4151.026,4171.795,4187.436,4207.179,4145.897,4166.154,4169.231,4203.59,0,0
327,38,0,0,4202.436,4127.308,4188.077,4164.744000000001,4212.179,4197.308,4155.385,4196.282,4203.462,4219.231,4166.667,4177.564,4183.718,4203.974,0,0
328,39,0,0,4187.564,4124.359,4175.385,4165.513,4214.744000000001,4197.564,4157.179,4197.821,4209.103,4226.923,4163.846,4169.615,4185.897,4191.795,0,0
329,40,0,0,4170.513,4127.436,4164.615,4156.667,4205.769,4191.154,4157.179,4189.744000000001,4202.821,4225.385,4149.103,4153.205,4173.718,4181.154,0,0
330,41,0,0,4168.59,4126.154,4170.0,4152.436,4198.077,4191.667,4157.179,4186.026,4195.513,4210.769,4141.923,4143.462,4169.487,4168.846,0,0
331,42,0,0,4165.641,4121.41,4164.872,4155.255999999999,4199.872,4190.641,4155.769,4172.179,4182.179,4186.282,4133.974,4134.487,4165.128,4157.9490000000005,0,0
332,43,0,0,4163.846,4120.641,4155.897,4153.718,4199.359,4186.026,4153.462,4155.128,4169.487,4167.0509999999995,4133.077,4131.923,4152.821,4161.538,0,0
333,44,0,0,4177.179,4128.205,4169.744000000001,4155.897,4190.641,4187.692,4154.359,4159.872,4175.0,4171.923,4143.846,4144.103,4157.308,4177.436,0,0
334,45,0,0,4189.487,4138.077,4186.667,4167.692,4185.641,4185.0,4157.436,4169.872,4185.128,4185.641,4147.308,4158.59,4172.692,4184.359,0,0
335,46,0,0,4187.308,4136.538,4186.41,4168.462,4183.462,4173.718,4155.128,4167.179,4182.179,4187.0509999999995,4148.974,4166.282,4177.0509999999995,4183.077,0,0
336,47,0,0,4185.385,4127.308,4183.974,4161.41,4182.0509999999995,4173.718,4155.385,4173.59,4181.795,4189.359,4156.538,4172.564,4181.538,4192.9490000000005,0,0
337,48,0,0,4190.385,4126.282,4186.282,4165.641,4191.154,4184.359,4164.744000000001,4184.872,4194.744000000001,4203.974,4158.846,4175.513,4187.692,4200.0,0,0
338,49,0,0,4183.205,4125.255999999999,4182.0509999999995,4171.923,4200.128,4189.872,4173.077,4187.436,4200.513,4212.821,4154.872,4171.154,4185.128,4190.0,0,0
339,50,0,0,4170.385,4121.282,4177.564,4164.103,4198.333,4189.744000000001,4175.513,4190.769,4200.255999999999,4207.308,4155.128,4171.026,4180.897,4183.59,0,0
340,51,0,0,4169.231,4122.692,4181.667,4155.128,4197.564,4187.9490000000005,4174.872,4190.255999999999,4200.769,4197.564,4156.41,4176.282,4176.923,4189.487,0,0
341,52,0,0,4171.538,4120.641,4184.872,4160.513,4197.0509999999995,4183.974,4170.897,4179.103,4192.692,4185.128,4150.255999999999,4173.077,4170.641,4187.9490000000005,0,0
342,53,0,0,4175.513,4120.897,4186.154,4170.0,4193.974,4185.255999999999,4168.718,4176.154,4183.718,4174.103,4152.308,4171.154,4166.538,4184.615,0,0
343,54,0,0,4184.231,4127.564,4189.103,4172.179,4197.564,4188.59,4174.103,4180.385,4183.718,4168.59,4154.103,4173.462,4165.255999999999,4187.9490000000005,0,0
344,55,0,0,4186.282,4129.744000000001,4187.564,4172.179,4199.615,4183.718,4183.333,4176.923,4183.59,4168.205,4142.692,4165.513,4165.128,4184.231,0,0
345,56,0,0,4182.0509999999995,4132.821,4187.821,4177.308,4193.59,4181.923,4188.718,4180.897,4182.9490000000005,4174.103,4142.436,4159.744000000001,4167.308,4181.282,0,0
346,57,0,0,4185.255999999999,4144.103,4194.359,4183.59,4193.846,4181.667,4184.615,4196.282,4191.667,4183.59,4155.385,4168.333,4175.897,4185.641,0,0
347,58,0,0,4186.154,4148.59,4193.205,4185.641,4199.744000000001,4175.769,4189.615,4209.872,4199.487,4196.154,4159.103,4173.077,4186.154,4188.974,0,0
348,59,0,0,4176.923,4140.769,4188.718,4180.897,4197.564,4174.744000000001,4204.487,4218.077,4205.0,4203.974,4160.641,4170.769,4185.128,4185.513,0,0
349,60,0,0,4163.974,4131.154,4181.795,4172.179,4188.462,4173.974,4189.103,4213.077,4203.718,4198.333,4162.9490000000005,4166.538,4177.308,4175.897,0,0
350,61,0,0,4151.667,4121.282,4171.795,4167.436,4183.205,4164.231,4156.026,4197.0509999999995,4191.795,4188.333,4148.846,4154.872,4172.564,4167.179,0,0
351,62,0,0,4148.462,4119.615,4174.359,4168.59,4190.513,4163.59,4155.255999999999,4195.897,4185.897,4183.718,4138.846,4148.077,4169.231,4166.282,0,0
352,63,0,0,4152.821,4128.205,4185.897,4172.308,4196.154,4173.59,4172.436,4194.872,4184.231,4169.744000000001,4145.385,4152.0509999999995,4168.59,4170.897,0,0
353,64,0,2454,4154.359,4127.692,4185.385,4172.308,4186.923,4172.564,4170.128,4173.846,4173.077,4150.0,4142.9490000000005,4150.255999999999,4168.974,4170.255999999999,0,0
354,65,0,1937,4154.744000000001,4125.513,4181.154,4168.974,4185.255999999999,4170.255999999999,4169.744000000001,4166.923,4166.538,4158.462,4133.718,4149.615,4165.0,4167.564,0,0
355,66,0,3422,4157.436,4133.077,4183.846,4168.718,4198.59,4175.641,4184.231,4183.718,4176.41,4176.41,4136.667,4153.846,4164.231,4168.205,0,0
356,67,0,3354,4156.154,4134.615,4183.077,4172.564,4201.154,4173.077,4186.154,4188.205,4181.923,4170.641,4147.692,4155.897,4168.462,4169.615,0,0
357,68,0,2944,4157.564,4131.154,4181.923,4172.308,4189.231,4166.41,4171.538,4183.718,4180.255999999999,4163.59,4152.9490000000005,4160.897,4166.923,4175.385,0,0
358,69,0,2526,4164.487,4132.692,4182.692,4169.615,4186.282,4165.897,4166.538,4193.462,4183.462,4176.667,4160.128,4169.872,4166.154,4183.974,0,0
359,70,0,2424,4175.513,4142.308,4185.897,4177.308,4194.359,4167.9490000000005,4175.128,4204.487,4186.41,4189.487,4171.923,4178.718,4173.077,4187.179,0,0
360,71,0,3000,4192.9490000000005,4160.769,4197.0509999999995,4188.846,4199.487,4169.487,4177.9490000000005,4203.974,4189.487,4187.0509999999995,4171.282,4186.795,4176.538,4189.359,0,0
361,72,0,2417,4201.667,4174.231,4202.179,4190.385,4202.308,4172.0509999999995,4174.615,4197.9490000000005,4190.385,4186.154,4160.385,4186.667,4173.077,4194.744000000001,0,0
362,73,0,3487,4195.385,4170.128,4196.026,4184.872,4201.795,4175.255999999999,4172.692,4188.205,4183.205,4184.487,4156.026,4174.615,4171.538,4193.077,0,0
363,74,0,3005,4190.255999999999,4166.667,4193.333,4183.846,4199.872,4177.436,4171.538,4183.462,4177.692,4174.487,4154.872,4168.205,4171.282,4185.0,0,0
364,75,0,2907,4190.897,4171.282,4191.795,4185.513,4202.179,4176.923,4169.615,4180.641,4182.564,4169.359,4150.769,4166.795,4170.0,4183.846,0,0
365,76,0,2591,4185.128,4165.255999999999,4185.0,4183.974,4199.231,4171.282,4167.308,4172.9490000000005,4185.385,4169.487,4151.154,4159.359,4168.59,4185.513,0,0
366,77,0,3275,4181.154,4161.795,4188.59,4186.538,4191.538,4169.103,4168.59,4174.872,4182.308,4172.179,4151.154,4159.872,4166.667,4183.333,0,0
367,78,0,3005,4188.974,4170.385,4201.538,4193.462,4193.974,4177.692,4173.462,4186.538,4184.231,4185.0,4154.744000000001,4169.487,4169.744000000001,4182.9490000000005,0,0
368,79,0,2907,4191.795,4168.462,4204.103,4191.154,4196.154,4180.769,4175.255999999999,4188.462,4186.026,4191.154,4165.769,4173.462,4174.744000000001,4188.718,0,0
369,80,0,2591,4185.385,4158.205,4200.897,4185.385,4188.333,4174.231,4174.103,4185.513,4183.974,4183.077,4169.615,4174.615,4170.0,4191.026,0,0
370,81,0,3275,4187.692,4157.0509999999995,4206.41,4190.897,4183.846,4176.795,4174.615,4185.641,4183.718,4183.718,4165.513,4180.641,4166.795,4187.821,0,0
371,82,0,3005,4195.769,4158.974,4212.821,4197.308,4186.41,4185.255999999999,4173.333,4184.103,4185.897,4187.692,4167.0509999999995,4183.974,4170.385,4189.103,0,0
372,83,0,2907,4197.9490000000005,4158.462,4214.487,4197.308,4192.692,4187.308,4175.769,4188.077,4187.308,4182.692,4170.641,4183.974,4165.641,4197.436,0,0
373,84,0,2591,4197.308,4163.846,4215.513,4200.385,4200.0,4187.436,4182.9490000000005,4197.821,4185.897,4181.41,4170.128,4186.026,4155.897,4199.744000000001,0,0
374,85,0,3275,4201.923,4169.615,4216.154,4204.103,4198.718,4190.513,4185.255999999999,4199.231,4189.231,4179.615,4174.487,4191.538,4159.103,4199.487,0,0
375,86,0,3005,4210.769,4170.513,4217.436,4203.333,4196.154,4194.487,4184.487,4201.795,4199.487,4181.795,4180.769,4199.872,4168.718,4208.077,0,0
376,87,0,2907,4215.128,4174.359,4220.385,4203.846,4202.436,4197.564,4187.308,4210.641,4202.821,4197.692,4186.795,4205.385,4171.667,4218.974,0,0
377,88,0,2591,4208.077,4175.769,4221.923,4205.0,4199.487,4192.692,4189.744000000001,4209.744000000001,4197.564,4201.667,4193.205,4202.179,4169.744000000001,4218.59,0,0
378,89,0,3275,4200.255999999999,4167.0509999999995,4217.308,4203.846,4190.128,4185.769,4186.282,4201.282,4199.359,4189.487,4194.359,4192.821,4168.974,4208.846,0,0
379,90,0,3005,4200.897,4160.897,4214.744000000001,4201.154,4195.385,4190.128,4182.692,4200.128,4203.846,4185.0,4183.333,4186.795,4169.231,4201.667,0,0
380,91,0,2907,4196.667,4165.385,4215.0,4199.231,4202.9490000000005,4195.128,4184.103,4201.154,4199.615,4181.795,4170.0,4185.255999999999,4168.077,4200.255999999999,0,0
381,92,0,2591,4192.308,4173.333,4208.462,4199.103,4202.564,4196.795,4186.154,4198.974,4198.077,4178.205,4175.513,4184.872,4166.923,4200.255999999999,0,0
382,93,0,3275,4196.795,4173.846,4201.923,4199.872,4204.231,4198.59,4185.385,4200.385,4202.692,4184.231,4188.718,4183.077,4169.487,4198.59,0,0
383,94,0,3005,4193.462,4169.359,4201.41,4198.077,4205.897,4196.154,4180.255999999999,4197.436,4202.564,4185.513,4180.513,4175.513,4169.872,4189.231,0,0
384,95,0,2907,4178.718,4166.923,4200.513,4195.897,4201.154,4194.615,4173.974,4185.255999999999,4199.487,4179.872,4162.179,4167.436,4165.641,4179.872,0,0
385,96,0,2591,4173.846,4168.205,4198.077,4198.718,4198.846,4194.231,4170.641,4179.872,4199.359,4179.487,4165.128,4165.641,4165.0,4182.564,0,0
386,97,0,3275,4182.692,4173.333,4197.9490000000005,4203.077,4200.255999999999,4193.59,4170.769,4183.333,4198.205,4177.564,4177.564,4171.41,4168.846,4187.564,0,0
387,98,0,3005,4185.255999999999,4175.897,4199.103,4202.821,4199.872,4195.897,4171.667,4185.128,4197.0509999999995,4173.462,4173.974,4177.692,4170.385,4185.0,0,0
388,99,0,2907,4176.282,4171.154,4199.487,4199.359,4198.59,4198.59,4172.436,4183.333,4199.231,4172.179,4166.026,4177.436,4169.359,4186.154,0,0
389,100,0,2591,4168.974,4166.795,4199.615,4198.205,4197.308,4196.154,4172.564,4182.821,4201.538,4168.333,4176.41,4175.385,4176.667,4189.872,0,0
390,101,0,3275,4172.821,4170.128,4200.897,4197.179,4201.282,4196.667,4173.333,4185.897,4203.333,4171.538,4190.128,4183.974,4184.615,4190.769,0,0
391,102,0,3005,4172.0509999999995,4170.128,4198.846,4197.692,4205.641,4199.872,4178.59,4187.692,4200.255999999999,4172.308,4179.744000000001,4186.154,4176.923,4185.513,0,0
392,103,0,2907,4161.154,4160.769,4189.872,4198.077,4200.128,4198.205,4185.769,4185.897,4196.667,4158.205,4164.615,4170.513,4166.538,4175.641,0,0
393,104,0,2591,4153.462,4154.359,4182.436,4188.462,4190.769,4198.462,4183.333,4181.538,4201.795,4151.795,4167.308,4164.359,4169.231,4170.385,0,0
394,105,0,3275,4146.41,4152.692,4180.513,4180.128,4186.538,4195.513,4173.333,4174.872,4201.026,4152.692,4171.282,4163.333,4172.436,4168.205,0,0
395,106,0,3005,4143.077,4153.205,4182.564,4185.128,4185.385,4192.308,4167.821,4166.667,4190.641,4150.513,4167.9490000000005,4155.255999999999,4168.205,4166.667,0,0
396,107,0,2907,4148.333,4153.59,4185.128,4188.974,4184.615,4195.897,4171.282,4166.282,4193.333,4156.538,4170.897,4156.667,4173.718,4167.436,0,0
397,108,0,2591,4153.718,4154.744000000001,4185.128,4190.255999999999,4184.872,4199.103,4178.077,4176.41,4203.846,4167.692,4172.692,4165.128,4183.59,4170.769,0,0
398,109,0,3275,4158.718,4162.9490000000005,4190.0,4198.462,4185.0,4197.692,4182.179,4184.103,4202.9490000000005,4170.897,4171.026,4175.513,4184.744000000001,4177.436,0,0
399,110,0,3005,4167.564,4172.436,4199.231,4202.308,4186.282,4198.718,4184.231,4184.615,4200.513,4169.744000000001,4178.205,4181.538,4182.0509999999995,4186.282,0,0
400,111,0,2907,4171.795,4169.359,4197.9490000000005,4198.333,4186.538,4199.615,4182.308,4183.846,4204.231,4170.128,4187.564,4176.026,4181.282,4186.41,0,0
401,112,0,2591,4165.0,4158.205,4187.821,4195.128,4181.154,4197.436,4176.41,4184.872,4202.9490000000005,4173.077,4193.462,4168.333,4183.205,4182.821,0,0
402,113,0,3275,4158.974,4156.154,4184.872,4192.0509999999995,4173.59,4197.692,4173.974,4184.103,4201.923,4176.41,4187.9490000000005,4171.026,4179.615,4183.077,0,0
403,114,0,3005,4160.769,4162.0509999999995,4185.897,4187.564,4169.231,4196.795,4177.179,4181.923,4203.462,4169.231,4181.282,4170.769,4174.615,4176.026,0,0
404,115,0,2907,4168.462,4168.846,4185.128,4187.692,4168.718,4196.41,4179.615,4182.179,4201.538,4163.333,4189.872,4165.513,4177.821,4171.282,0,0
405,116,0,2591,4171.923,4172.9490000000005,4185.513,4190.0,4168.59,4198.974,4177.179,4185.641,4205.255999999999,4173.077,4201.41,4170.641,4184.872,4180.385,0,0
406,117,0,3275,4169.103,4171.795,4186.154,4187.821,4169.231,4196.026,4173.462,4189.103,4217.0509999999995,4187.179,4201.026,4175.513,4185.513,4186.41,0,0
407,118,0,3005,4167.308,4172.821,4185.641,4186.538,4172.308,4189.359,4168.846,4187.436,4215.897,4185.385,4192.9490000000005,4173.846,4184.744000000001,4183.718,0,0
408,119,0,2907,4162.564,4174.103,4183.205,4187.0509999999995,4171.538,4186.282,4166.154,4183.718,4206.282,4172.0509999999995,4193.333,4172.308,4187.9490000000005,4183.333,0,0
409,120,0,2591,4156.026,4169.872,4182.436,4186.154,4169.744000000001,4187.821,4167.179,4181.026,4207.0509999999995,4173.846,4198.846,4172.436,4186.154,4180.897,0,0
410,121,0,3275,4159.615,4167.308,4184.872,4193.974,4176.795,4191.795,4167.308,4181.538,4211.154,4188.333,4199.744000000001,4171.538,4183.59,4175.897,0,0
411,122,0,3005,4166.154,4171.795,4188.205,4203.718,4183.077,4197.564,4167.821,4185.897,4209.359,4191.923,4203.333,4168.846,4185.513,4178.59,0,0
412,123,0,2907,4161.154,4173.077,4182.564,4195.0,4178.077,4200.513,4171.538,4183.077,4206.154,4178.718,4200.385,4170.128,4181.41,4179.744000000001,0,0
413,124,0,2591,4151.795,4162.564,4169.487,4180.641,4170.513,4199.615,4173.974,4173.333,4202.436,4165.897,4189.231,4170.255999999999,4171.41,4172.436,0,0
414,125,0,3275,4153.59,4160.128,4173.077,4185.385,4172.9490000000005,4200.128,4170.641,4171.026,4199.615,4168.59,4192.9490000000005,4167.308,4169.744000000001,4168.333,0,0
415,126,0,3005,4158.846,4165.128,4184.744000000001,4190.897,4178.59,4202.692,4170.641,4176.41,4200.0,4172.0509999999995,4201.795,4168.974,4173.718,4172.308,0,0
416,127,0,52,4155.641,4159.487,4177.564,4185.128,4176.282,4203.718,4174.231,4174.103,4200.641,4155.769,4191.667,4166.282,4170.769,4170.897,0,0
417,0,0,2453,4151.154,4153.59,4166.795,4184.487,4170.255999999999,4197.0509999999995,4167.436,4163.077,4197.9490000000005,4146.282,4193.462,4155.128,4168.333,4166.795,0,0
418,1,0,1931,4153.846,4162.179,4171.795,4186.667,4170.897,4187.692,4160.769,4159.615,4196.026,4158.59,4204.615,4155.897,4170.513,4169.615,0,0
419,2,0,3423,4158.974,4170.0,4176.923,4186.026,4179.359,4191.026,4166.923,4168.846,4197.821,4158.846,4189.103,4169.615,4173.462,4172.9490000000005,0,0
420,3,0,3353,4158.077,4167.179,4172.308,4185.769,4183.846,4196.538,4170.385,4173.333,4200.897,4148.59,4181.154,4171.41,4174.359,4170.255999999999,0,0
421,4,0,2945,4153.846,4165.513,4170.255999999999,4182.9490000000005,4181.795,4193.974,4165.385,4165.385,4198.333,4149.872,4197.179,4165.641,4173.205,4168.333,0,0
422,5,0,2529,4157.564,4169.872,4174.103,4183.59,4184.872,4196.667,4168.333,4165.0,4199.231,4162.692,4205.128,4170.385,4179.231,4171.41,0,0
423,6,0,2424,4161.282,4171.667,4174.487,4188.59,4187.821,4203.462,4171.795,4172.564,4203.718,4170.128,4196.538,4173.077,4181.154,4172.564,0,0
424,7,0,2998,4157.9490000000005,4170.255999999999,4172.436,4187.436,4185.255999999999,4199.487,4172.0509999999995,4171.795,4202.308,4165.769,4187.564,4168.59,4175.897,4173.205,0,0
425,8,0,2420,4157.179,4171.795,4173.846,4186.795,4192.308,4194.615,4177.692,4169.359,4199.103,4159.103,4192.9490000000005,4167.821,4180.0,4173.59,0,0
426,9,0,3493,4158.077,4172.436,4172.436,4194.231,4197.436,4199.744000000001,4177.0509999999995,4169.487,4193.718,4147.692,4205.385,4164.359,4183.718,4170.255999999999,0,0
427,10,0,3005,4152.0509999999995,4168.974,4166.538,4192.0509999999995,4186.026,4199.231,4170.0,4171.026,4179.615,4135.769,4196.923,4155.897,4171.538,4166.41,0,0
428,11,0,2907,4149.231,4170.769,4166.923,4185.128,4188.462,4188.718,4172.0509999999995,4173.974,4174.103,4142.564,4180.513,4152.436,4166.538,4160.769,0,0
429,12,0,2585,4156.154,4174.359,4167.179,4191.923,4201.923,4183.333,4176.538,4168.462,4183.333,4161.667,4190.255999999999,4154.359,4176.282,4155.385,0,0
430,13,0,3268,4153.077,4170.641,4158.59,4196.538,4192.9490000000005,4191.667,4170.0,4155.641,4189.615,4153.333,4203.462,4151.41,4174.359,4154.103,0,0
431,14,0,3005,4140.641,4168.462,4152.564,4187.308,4180.255999999999,4203.333,4164.103,4153.205,4186.667,4134.103,4199.487,4142.308,4168.718,4150.513,0,0
432,15,0,2907,4141.795,4171.667,4153.077,4182.692,4186.667,4203.846,4167.9490000000005,4154.487,4185.0,4135.641,4194.231,4135.0,4170.513,4143.462,0,0
433,16,0,0,4154.487,4174.103,4159.615,4192.308,4190.128,4202.436,4172.9490000000005,4155.769,4192.0509999999995,4149.487,4199.359,4139.615,4172.821,4151.282,0,0
434,17,0,0,4158.333,4177.9490000000005,4169.103,4197.564,4185.513,4211.154,4173.462,4166.026,4200.128,4156.026,4206.538,4152.564,4174.103,4163.718,0,0
435,18,0,0,4157.0509999999995,4183.333,4172.436,4196.795,4187.564,4214.615,4172.436,4170.641,4201.026,4142.179,4203.462,4156.667,4172.821,4162.0509999999995,0,0
436,19,0,0,4158.077,4182.0509999999995,4169.103,4199.359,4188.462,4204.744000000001,4173.718,4167.0509999999995,4197.692,4135.128,4196.538,4153.205,4168.846,4155.513,0,0
437,20,0,0,4155.0,4177.9490000000005,4166.923,4196.154,4183.59,4198.205,4170.897,4179.744000000001,4197.692,4154.744000000001,4196.282,4153.718,4169.744000000001,4153.846,0,0
438,21,0,0,4152.9490000000005,4174.615,4166.795,4185.897,4181.41,4203.333,4165.128,4190.255999999999,4199.615,4164.744000000001,4200.255999999999,4157.564,4176.795,4161.923,0,0
439,22,1,0,4151.026,4173.59,4165.128,4185.897,4180.128,4202.821,4166.154,4188.333,4198.718,4160.897,4198.077,4156.667,4177.179,4160.769,0,0
440,23,1,0,4149.103,4172.564,4163.462,4185.897,4178.846,4202.308,4167.179,4186.41,4197.821,4157.0509999999995,4195.897,4155.769,4177.564,4159.615,0,0
441,24,1,0,4147.179,4171.538,4161.795,4185.897,4177.564,4201.795,4168.205,4184.487,4196.923,4153.205,4193.718,4154.872,4177.9490000000005,4158.462,0,0
442,25,1,0,4145.255999999999,4170.513,4160.128,4185.897,4176.282,4201.282,4169.231,4182.564,4196.026,4149.359,4191.538,4153.974,4178.333,4157.308,0,0
443,26,1,0,4143.333,4169.487,4158.462,4185.897,4175.0,4200.769,4170.255999999999,4180.641,4195.128,4145.513,4189.359,4153.077,4178.718,4156.154,0,0
444,27,1,0,4141.41,4168.462,4156.795,4185.897,4173.718,4200.255999999999,4171.282,4178.718,4194.231,4141.667,4187.179,4152.179,4179.103,4155.0,0,0
445,28,0,0,4139.487,4167.308,4154.872,4185.255999999999,4171.795,4199.744000000001,4172.9490000000005,4176.538,4192.821,4137.692,4185.0,4151.154,4180.128,4153.462,0,0
446,29,0,0,4147.9490000000005,4170.128,4159.487,4188.333,4170.897,4196.538,4172.821,4185.128,4206.026,4157.821,4190.513,4155.385,4182.821,4161.154,0,0
447,30,0,0,4154.231,4174.744000000001,4160.769,4189.872,4170.513,4195.769,4169.487,4176.154,4203.462,4156.026,4189.872,4156.667,4184.231,4164.615,0,0
448,31,0,0,4151.795,4173.077,4160.513,4187.692,4171.667,4197.821,4168.462,4165.897,4194.487,4147.564,4186.923,4154.615,4184.231,4166.282,0,0
449,32,0,0,4152.308,4180.255999999999,4165.128,4189.744000000001,4171.923,4197.564,4172.308,4161.41,4190.897,4157.0509999999995,4184.615,4154.615,4184.744000000001,4166.538,0,0
450,33,0,0,4155.513,4183.846,4167.564,4188.205,4175.769,4198.59,4173.59,4155.641,4184.744000000001,4157.436,4183.462,4155.385,4178.077,4165.513,0,0
451,34,0,0,4155.897,4176.667,4167.0509999999995,4185.255999999999,4179.487,4200.385,4170.513,4148.846,4174.103,4142.179,4188.333,4153.718,4170.513,4167.9490000000005,0,0
452,35,0,0,4160.0,4173.974,4170.641,4193.59,4179.103,4199.615,4170.255999999999,4149.231,4172.436,4135.385,4187.692,4159.103,4172.692,4171.026,0,0
453,36,0,0,4163.59,4172.436,4173.974,4199.103,4182.0509999999995,4197.692,4171.538,4152.0509999999995,4181.667,4141.026,4183.333,4167.0509999999995,4176.282,4169.872,0,0
454,37,0,0,4167.692,4174.487,4173.59,4195.513,4184.359,4199.359,4174.359,4158.077,4191.154,4153.718,4193.59,4168.205,4172.564,4174.872,0,0
455,38,0,0,4169.231,4179.872,4172.436,4195.255999999999,4178.077,4199.359,4178.077,4165.641,4195.769,4158.333,4201.282,4171.282,4174.103,4183.59,0,0
456,39,0,0,4161.795,4175.897,4170.897,4201.026,4173.077,4191.795,4176.795,4171.026,4200.897,4158.59,4188.59,4172.821,4182.0509999999995,4179.615,0,0
457,40,0,0,4153.718,4167.179,4170.128,4198.974,4173.974,4182.821,4174.615,4175.0,4202.692,4168.462,4180.897,4161.667,4181.795,4169.231,0,0
458,41,0,0,4153.846,4169.103,4168.846,4189.103,4172.0509999999995,4180.0,4173.718,4174.231,4197.308,4169.615,4187.436,4152.9490000000005,4180.255999999999,4167.436,0,0
459,42,0,0,4156.795,4172.308,4168.462,4186.538,4172.436,4181.41,4170.641,4169.231,4195.0,4155.385,4187.436,4163.974,4180.385,4170.897,0,0
460,43,0,0,4155.255999999999,4169.231,4168.077,4186.923,4178.333,4181.538,4173.077,4167.179,4191.923,4152.308,4185.128,4170.641,4177.308,4170.255999999999,0,0
461,44,0,0,4152.9490000000005,4167.0509999999995,4166.667,4188.205,4182.564,4182.179,4183.333,4169.359,4189.231,4160.769,4188.718,4159.744000000001,4173.974,4167.821,0,0
462,45,0,0,4151.538,4166.41,4167.308,4191.667,4182.564,4183.974,4188.462,4167.564,4190.641,4156.282,4187.9490000000005,4153.974,4175.641,4166.795,0,0
463,46,0,0,4151.026,4167.9490000000005,4169.231,4193.462,4183.846,4184.231,4185.641,4167.436,4194.615,4149.231,4186.538,4163.205,4176.41,4168.333,0,0
464,47,0,0,4152.9490000000005,4168.718,4168.59,4190.385,4185.769,4188.333,4186.41,4172.821,4198.333,4156.154,4186.154,4168.333,4174.872,4169.744000000001,0,0
465,48,0,0,4152.308,4165.897,4167.692,4186.538,4186.282,4186.41,4187.436,4172.821,4200.513,4159.359,4185.513,4161.154,4174.487,4168.333,0,0
466,49,0,0,4149.872,4165.128,4168.974,4187.308,4187.0509999999995,4172.821,4181.282,4168.59,4200.769,4153.718,4184.487,4155.128,4173.333,4162.179,0,0
467,50,0,0,4150.0,4167.9490000000005,4168.333,4186.41,4185.513,4171.923,4176.795,4169.744000000001,4197.308,4160.128,4185.255999999999,4158.846,4172.564,4158.846,0,0
468,51,0,0,4157.0509999999995,4169.744000000001,4167.9490000000005,4187.0509999999995,4181.154,4181.026,4178.718,4171.538,4196.154,4164.231,4186.667,4167.436,4171.282,4165.385,0,0
469,52,0,0,4166.282,4169.103,4173.077,4191.41,4181.923,4178.462,4180.769,4170.385,4197.436,4154.487,4183.974,4172.564,4171.538,4171.795,0,0
470,53,0,0,4171.795,4175.513,4180.0,4199.615,4186.923,4174.103,4183.077,4177.9490000000005,4201.667,4157.436,4184.744000000001,4178.333,4175.641,4175.255999999999,0,0
471,54,0,0,4173.846,4187.179,4182.436,4200.385,4186.282,4175.769,4181.282,4183.846,4202.436,4176.795,4201.667,4184.872,4176.282,4183.462,0,0
472,55,0,0,4173.077,4182.692,4177.564,4189.744000000001,4182.308,4171.923,4173.462,4175.0,4190.255999999999,4171.026,4212.0509999999995,4186.41,4171.538,4188.846,0,0
473,56,0,0,4173.462,4170.513,4173.077,4192.436,4180.769,4169.744000000001,4169.744000000001,4168.59,4187.179,4147.9490000000005,4194.231,4185.255999999999,4170.0,4184.744000000001,0,0
474,57,0,0,4170.255999999999,4175.128,4171.667,4197.821,4179.872,4172.564,4172.436,4172.564,4198.462,4154.615,4180.769,4175.385,4176.026,4175.641,0,0
475,58,0,0,4159.231,4182.564,4164.103,4190.255999999999,4178.974,4173.59,4176.667,4170.128,4197.179,4172.564,4186.538,4156.538,4176.41,4161.41,0,0
476,59,0,0,4153.077,4177.9490000000005,4159.615,4188.205,4180.897,4183.59,4184.103,4167.308,4190.0,4161.795,4189.231,4153.974,4172.564,4156.923,0,0
477,60,0,0,4156.538,4171.667,4165.513,4192.564,4185.641,4191.154,4188.205,4177.692,4197.564,4146.795,4184.615,4163.59,4178.59,4166.923,0,0
478,61,0,0,4157.436,4170.769,4168.462,4186.538,4186.154,4184.744000000001,4185.255999999999,4185.0,4202.692,4162.179,4182.564,4160.769,4185.385,4169.615,0,0
479,62,0,0,4155.769,4174.103,4167.308,4184.359,4182.564,4182.308,4186.026,4183.974,4198.718,4178.077,4187.436,4161.41,4183.718,4165.769,0,0
480,63,0,0,4154.872,4173.974,4167.564,4191.41,4183.077,4188.59,4189.487,4181.026,4200.0,4172.564,4189.359,4167.308,4180.769,4166.41,0,0
481,64,0,2456,4155.0,4169.359,4166.923,4187.821,4186.923,4190.0,4186.795,4173.846,4197.436,4161.538,4184.231,4159.872,4180.513,4167.692,0,0
482,65,0,1934,4163.462,4173.077,4168.718,4189.744000000001,4187.308,4187.436,4183.718,4168.718,4193.205,4153.462,4182.821,4157.821,4182.0509999999995,4167.692,0,0
483,66,0,3420,4170.897,4181.41,4171.667,4198.974,4185.769,4188.077,4183.59,4168.59,4196.795,4159.103,4188.205,4166.154,4184.359,4168.846,0,0
484,67,0,3339,4170.513,4182.308,4170.641,4200.128,4184.487,4187.692,4184.615,4168.462,4198.333,4170.0,4185.769,4168.846,4182.308,4173.846,0,0
485,68,0,2945,4174.359,4180.255999999999,4176.667,4197.692,4181.538,4183.718,4184.487,4165.641,4196.026,4170.897,4178.205,4173.333,4177.821,4183.462,0,0
486,69,0,2537,4183.077,4181.923,4186.026,4193.205,4181.667,4182.821,4184.487,4169.359,4199.615,4168.59,4184.872,4180.255999999999,4181.154,4188.846,0,0
487,70,0,2430,4186.282,4185.128,4185.513,4192.179,4184.615,4184.615,4182.9490000000005,4179.359,4204.359,4175.0,4194.744000000001,4175.385,4187.9490000000005,4186.026,0,0
488,71,0,2999,4179.359,4182.0509999999995,4180.769,4193.59,4185.769,4183.718,4181.795,4181.282,4202.179,4176.41,4191.282,4169.615,4183.846,4181.923,0,0
489,72,0,2424,4171.026,4174.103,4177.0509999999995,4191.538,4185.513,4182.821,4182.821,4174.615,4200.385,4164.872,4187.308,4169.103,4174.103,4177.179,0,0
490,73,0,3471,4167.821,4168.333,4171.538,4187.564,4181.154,4183.333,4178.846,4171.026,4196.795,4158.846,4185.255999999999,4162.564,4169.872,4170.128,0,0
491,74,0,3002,4163.205,4167.179,4167.692,4187.692,4175.128,4182.692,4171.282,4172.308,4187.0509999999995,4160.385,4174.487,4154.103,4167.179,4166.41,0,0
492,75,0,2908,4159.487,4172.436,4168.59,4188.846,4178.846,4184.231,4170.769,4170.641,4183.333,4161.41,4170.897,4153.205,4168.205,4165.513,0,0
493,76,0,2609,4167.179,4183.974,4175.255999999999,4195.255999999999,4188.333,4187.821,4173.718,4170.255999999999,4192.821,4164.359,4183.59,4162.436,4175.897,4169.872,0,0
494,77,0,3270,4174.231,4188.077,4180.897,4202.564,4188.974,4186.795,4172.9490000000005,4172.179,4194.744000000001,4170.255999999999,4189.359,4170.769,4179.615,4175.641,0,0
495,78,0,3002,4169.615,4183.846,4180.513,4199.744000000001,4185.513,4183.077,4171.282,4169.744000000001,4184.744000000001,4163.718,4184.615,4166.282,4173.333,4176.667,0,0
496,79,0,2908,4169.231,4183.718,4182.308,4200.0,4187.308,4183.974,4172.692,4167.564,4190.0,4158.59,4184.615,4163.974,4174.359,4177.179,0,0
497,80,0,2609,4172.0509999999995,4183.974,4185.385,4203.846,4188.59,4184.872,4173.333,4170.255999999999,4198.59,4168.462,4184.615,4169.744000000001,4180.513,4175.769,0,0
498,81,0,3270,4171.538,4183.077,4183.077,4202.0509999999995,4188.205,4184.744000000001,4170.255999999999,4172.9490000000005,4191.41,4173.59,4183.846,4168.974,4174.231,4171.667,0,0
499,82,0,3002,4171.282,4181.282,4180.897,4196.667,4189.359,4185.769,4167.564,4170.769,4189.872,4173.846,4180.128,4161.538,4170.513,4170.385,0,0
500,83,0,2908,4172.564,4179.487,4182.436,4194.231,4188.718,4186.538,4176.538,4173.59,4201.282,4174.615,4177.564,4162.436,4181.154,4175.897,0,0
501,84,0,2609,4176.41,4183.59,4182.821,4196.667,4186.026,4184.744000000001,4185.128,4183.846,4201.026,4166.154,4186.923,4170.897,4186.282,4183.077,0,0
502,85,0,3270,4177.179,4185.0,4179.487,4198.59,4187.0509999999995,4182.9490000000005,4177.692,4188.205,4195.641,4173.974,4188.846,4174.231,4183.077,4184.615,0,0
503,86,0,3002,4172.179,4182.179,4181.154,4200.0,4183.333,4185.641,4169.487,4181.282,4202.0509999999995,4200.0,4180.128,4169.615,4186.41,4183.59,0,0
504,87,0,2908,4169.103,4182.436,4189.872,4202.308,4175.255999999999,4185.385,4171.667,4172.436,4201.795,4183.59,4186.923,4164.744000000001,4187.564,4180.513,0,0
505,88,0,2609,4174.872,4183.974,4193.974,4204.231,4177.9490000000005,4175.641,4172.179,4170.128,4194.103,4157.692,4187.564,4166.667,4175.641,4179.359,0,0
506,89,0,3270,4183.59,4183.718,4197.436,4202.692,4185.513,4166.923,4170.255999999999,4172.0509999999995,4198.077,4183.333,4172.821,4170.769,4170.513,4181.41,0,0
507,90,0,3002,4185.128,4184.103,4201.026,4203.077,4184.103,4174.103,4172.436,4171.923,4203.462,4206.41,4176.795,4170.641,4178.974,4184.744000000001,0,0
508,91,0,2908,4182.9490000000005,4185.897,4193.333,4202.9490000000005,4180.897,4186.923,4172.436,4167.821,4195.255999999999,4183.846,4190.641,4168.974,4183.59,4183.718,0,0
509,92,0,2609,4185.897,4188.333,4182.9490000000005,4196.282,4182.821,4189.487,4171.538,4168.333,4191.154,4168.718,4190.513,4170.641,4181.282,4182.308,0,0
510,93,0,3270,4191.538,4189.231,4173.59,4187.692,4183.846,4186.41,4173.077,4174.744000000001,4199.359,4184.744000000001,4183.59,4172.436,4183.462,4183.205,0,0
511,94,0,3002,4190.255999999999,4188.846,4157.179,4181.282,4184.487,4187.308,4172.179,4183.846,4204.103,4189.487,4180.897,4171.795,4190.0,4180.513,0,0
512,95,0,2908,4188.205,4190.128,4148.462,4180.255999999999,4187.821,4183.462,4168.846,4193.846,4204.615,4183.462,4191.282,4171.538,4192.821,4175.255999999999,0,0
513,96,0,2609,4187.692,4190.769,4152.0509999999995,4182.308,4190.128,4172.179,4169.359,4200.385,4203.846,4190.897,4200.255999999999,4170.897,4192.436,4171.154,0,0
514,97,0,3270,4182.436,4185.641,4152.821,4184.744000000001,4188.718,4166.282,4177.564,4199.744000000001,4202.564,4203.462,4189.615,4170.513,4190.897,4170.897,0,0
515,98,0,3002,4175.0,4176.795,4159.103,4185.128,4184.359,4167.179,4185.513,4193.718,4202.9490000000005,4193.59,4183.205,4168.205,4188.59,4171.923,0,0
516,99,0,2908,4164.231,4168.59,4167.0509999999995,4184.231,4184.359,4165.385,4180.897,4186.154,4196.026,4164.231,4181.795,4156.154,4184.744000000001,4168.846,0,0
517,100,0,2609,4157.308,4167.9490000000005,4165.641,4190.255999999999,4187.564,4165.128,4170.385,4180.255999999999,4187.564,4156.538,4168.974,4150.0,4177.692,4164.744000000001,0,0
518,101,0,3270,4166.154,4177.308,4172.564,4198.846,4189.872,4170.897,4171.282,4180.385,4192.692,4169.615,4172.564,4163.718,4176.795,4166.667,0,0
519,102,0,3002,4173.077,4178.718,4184.103,4199.872,4189.231,4173.462,4177.436,4182.564,4199.487,4173.59,4186.154,4172.308,4181.795,4169.615,0,0
520,103,0,2908,4169.231,4172.821,4187.9490000000005,4199.872,4188.718,4170.897,4172.692,4176.795,4196.795,4168.974,4183.205,4172.179,4183.462,4171.795,0,0
521,104,0,2609,4170.897,4177.436,4192.179,4203.205,4188.846,4171.026,4171.923,4172.436,4198.59,4172.0509999999995,4182.692,4179.487,4183.718,4176.795,0,0
522,105,0,3270,4175.0,4186.282,4188.205,4202.692,4188.846,4173.205,4179.359,4178.59,4198.718,4177.821,4183.462,4179.615,4181.282,4175.641,0,0
523,106,0,3002,4170.255999999999,4185.255999999999,4176.026,4201.154,4192.436,4172.9490000000005,4178.205,4183.077,4187.179,4169.872,4175.128,4169.103,4173.59,4169.744000000001,0,0
524,107,0,2908,4168.59,4181.923,4164.487,4195.128,4200.0,4171.538,4170.385,4183.333,4187.436,4161.282,4172.179,4168.077,4172.308,4169.231,0,0
525,108,0,2609,4172.436,4182.821,4157.564,4185.641,4198.846,4169.744000000001,4169.359,4188.59,4197.9490000000005,4174.615,4173.333,4170.385,4183.333,4169.359,0,0
526,109,0,3270,4171.282,4183.718,4167.308,4194.359,4187.9490000000005,4169.744000000001,4175.769,4186.923,4194.103,4190.513,4171.795,4167.179,4184.615,4167.179,0,0
527,110,0,3002,4168.077,4179.744000000001,4185.513,4210.0,4184.872,4172.0509999999995,4183.333,4174.872,4183.333,4183.205,4171.538,4168.077,4172.564,4170.255999999999,0,0
528,111,0,2908,4167.179,4174.359,4190.385,4208.077,4190.0,4168.205,4186.282,4173.205,4182.0509999999995,4168.205,4170.641,4166.41,4170.641,4171.026,0,0
529,112,0,2609,4169.231,4178.462,4184.615,4202.0509999999995,4192.692,4158.974,4181.923,4184.359,4187.308,4169.487,4177.9490000000005,4164.872,4181.923,4167.9490000000005,0,0
530,113,0,3270,4171.41,4182.692,4176.795,4197.436,4193.077,4155.897,4176.282,4182.692,4188.462,4178.59,4184.615,4169.744000000001,4185.769,4170.513,0,0
531,114,0,3002,4169.872,4178.846,4165.769,4191.154,4192.308,4155.513,4171.154,4170.0,4185.385,4183.846,4174.744000000001,4166.41,4180.769,4170.385,0,0
532,115,0,2908,4170.255999999999,4180.641,4167.0509999999995,4196.41,4188.718,4153.59,4170.769,4171.026,4184.231,4186.41,4166.667,4157.9490000000005,4179.487,4165.769,0,0
533,116,0,2609,4173.077,4183.205,4175.0,4199.487,4186.282,4159.872,4178.462,4183.077,4187.308,4179.231,4171.923,4157.9490000000005,4175.641,4167.0509999999995,0,0
534,117,0,3270,4172.821,4181.026,4172.179,4193.205,4193.462,4167.692,4182.9490000000005,4187.564,4188.077,4176.795,4172.308,4160.385,4171.026,4170.769,0,0
535,118,0,3002,4170.513,4182.0509999999995,4168.205,4197.0509999999995,4199.231,4168.205,4181.538,4179.744000000001,4185.385,4180.513,4169.231,4157.436,4180.128,4168.718,0,0
536,119,0,2908,4166.795,4181.154,4166.923,4198.077,4190.897,4169.231,4181.667,4175.0,4185.385,4185.128,4177.821,4157.564,4190.641,4167.179,0,0
537,120,0,2609,4166.538,4178.462,4168.077,4194.615,4184.744000000001,4173.333,4184.744000000001,4182.692,4187.564,4194.359,4182.692,4162.821,4190.0,4171.538,0,0
538,121,0,3270,4165.128,4178.333,4165.385,4195.255999999999,4192.436,4174.744000000001,4187.436,4187.821,4189.872,4188.462,4172.564,4160.897,4187.821,4165.897,0,0
539,122,0,3002,4157.564,4174.872,4160.128,4189.744000000001,4196.41,4173.974,4189.359,4186.41,4192.179,4175.0,4163.462,4151.154,4187.0509999999995,4152.308,0,0
540,123,0,2908,4160.0,4176.154,4163.462,4188.846,4188.718,4174.744000000001,4188.077,4192.308,4197.0509999999995,4177.564,4167.436,4154.744000000001,4181.795,4156.923,0,0
541,124,0,2609,4173.333,4184.487,4173.205,4200.0,4189.359,4174.615,4184.231,4197.692,4201.282,4191.282,4178.333,4169.744000000001,4181.667,4173.718,0,0
542,125,0,3270,4174.872,4186.795,4180.128,4204.231,4197.179,4173.846,4181.282,4186.795,4193.846,4190.769,4184.615,4170.0,4189.359,4173.077,0,0
543,126,0,3002,4171.667,4186.795,4183.333,4199.487,4193.846,4177.0509999999995,4181.282,4180.385,4184.359,4180.128,4178.718,4167.821,4190.769,4169.231,0,0
544,127,0,52,4180.641,4190.0,4185.385,4201.282,4185.769,4184.103,4186.667,4192.436,4190.385,4186.923,4169.103,4178.333,4183.974,4181.667,0,0
545,0,0,2456,4185.897,4187.9490000000005,4184.615,4201.923,4188.205,4182.692,4189.103,4195.128,4196.923,4198.077,4175.769,4180.128,4182.9490000000005,4184.615,0,0
546,1,0,1935,4183.59,4185.897,4185.0,4200.0,4191.795,4174.615,4186.923,4179.359,4188.718,4194.615,4185.769,4169.615,4192.692,4177.0509999999995,0,0
547,2,0,3418,4181.41,4187.821,4181.026,4201.154,4186.923,4177.821,4189.487,4173.59,4181.795,4179.103,4183.077,4167.564,4199.487,4175.385,0,0
548,3,0,3336,4173.846,4187.0509999999995,4175.513,4199.615,4184.744000000001,4184.103,4199.487,4186.026,4190.255999999999,4178.333,4185.641,4169.615,4193.718,4173.846,0,0
549,4,0,2945,4171.026,4183.718,4176.41,4197.308,4186.538,4178.974,4202.0509999999995,4192.0509999999995,4196.538,4186.282,4185.128,4165.769,4188.333,4172.9490000000005,0,0
550,5,0,2528,4172.692,4183.333,4174.615,4195.385,4184.744000000001,4171.923,4190.513,4185.385,4189.615,4185.641,4170.897,4159.103,4187.308,4172.821,0,0
551,6,0,2420,4167.692,4186.538,4168.974,4197.0509999999995,4183.333,4169.359,4180.897,4183.077,4184.103,4193.333,4171.923,4150.897,4186.41,4166.026,0,0
552,7,0,2999,4171.41,4189.359,4171.923,4200.0,4186.026,4171.795,4185.255999999999,4184.359,4187.308,4206.026,4183.077,4158.59,4193.077,4169.359,0,0
553,8,0,2424,4181.154,4189.487,4177.436,4200.255999999999,4188.333,4180.255999999999,4192.436,4186.154,4190.385,4199.615,4179.103,4173.333,4198.462,4182.308,0,0
554,9,0,3489,4180.255999999999,4194.744000000001,4175.641,4202.0509999999995,4185.0,4181.282,4190.0,4185.255999999999,4187.692,4183.333,4180.0,4164.231,4189.615,4180.769,0,0
555,10,0,3004,4176.795,4200.513,4173.59,4202.308,4185.255999999999,4171.41,4185.769,4175.128,4185.641,4184.359,4188.077,4149.872,4183.205,4171.795,0,0
556,11,0,2904,4179.359,4195.128,4176.026,4195.641,4191.923,4169.359,4185.128,4166.795,4185.769,4189.744000000001,4184.744000000001,4157.564,4187.9490000000005,4171.026,0,0
557,12,0,2581,4183.59,4191.026,4180.128,4197.821,4190.385,4175.385,4186.667,4172.308,4186.154,4180.769,4181.795,4169.103,4187.9490000000005,4176.667,0,0
558,13,0,3267,4189.744000000001,4199.359,4187.179,4211.538,4185.641,4175.385,4193.59,4183.974,4186.154,4181.923,4184.615,4171.41,4187.179,4185.641,0,0
559,14,0,3004,4193.077,4206.026,4189.103,4211.41,4189.231,4173.333,4196.282,4189.359,4185.0,4201.538,4190.0,4173.462,4190.385,4185.897,0,0
560,15,0,2904,4182.436,4196.667,4177.9490000000005,4196.667,4188.077,4173.205,4189.231,4187.821,4186.538,4212.179,4195.641,4165.255999999999,4186.923,4174.103,0,0
561,16,0,0,4173.077,4191.41,4171.41,4196.282,4180.255999999999,4171.41,4182.821,4187.0509999999995,4189.103,4195.255999999999,4186.282,4158.718,4183.718,4167.564,0,0
562,17,0,0,4176.026,4195.385,4178.462,4203.077,4180.128,4170.128,4181.667,4193.077,4187.179,4181.667,4184.231,4165.769,4184.359,4168.462,0,0
563,18,0,0,4185.897,4197.9490000000005,4185.385,4202.692,4186.026,4172.692,4182.179,4201.282,4187.564,4199.615,4202.821,4170.513,4185.769,4172.564,0,0
564,19,0,0,4190.0,4201.667,4185.897,4206.282,4188.974,4175.385,4184.744000000001,4203.205,4192.821,4212.179,4195.128,4169.359,4187.821,4176.667,0,0
565,20,0,0,4177.9490000000005,4196.41,4180.0,4203.974,4182.9490000000005,4173.077,4184.744000000001,4198.205,4184.359,4190.255999999999,4168.333,4165.641,4181.667,4169.103,0,0
566,21,0,0,4174.359,4190.385,4180.385,4198.974,4181.667,4175.641,4182.692,4197.436,4174.615,4178.59,4178.846,4167.564,4175.769,4170.897,0,0
567,22,0,0,4188.205,4196.026,4188.077,4207.821,4192.9490000000005,4185.0,4186.41,4204.359,4183.333,4195.255999999999,4202.308,4175.769,4183.333,4187.692,0,0
568,23,0,0,4188.205,4201.923,4189.103,4210.255999999999,4194.231,4186.667,4188.846,4200.0,4190.255999999999,4192.564,4197.564,4177.0509999999995,4187.308,4185.641,0,0
569,24,0,0,4172.436,4197.436,4182.0509999999995,4199.487,4183.974,4181.41,4184.615,4187.564,4185.385,4180.897,4194.359,4170.641,4180.897,4175.255999999999,0,0
570,25,0,0,4174.487,4198.462,4180.513,4198.333,4186.026,4181.795,4182.821,4193.718,4185.385,4194.487,4203.59,4169.231,4182.0509999999995,4180.0,0,0
571,26,0,0,4186.538,4206.923,4183.59,4205.769,4188.846,4184.487,4184.231,4200.513,4187.9490000000005,4200.128,4199.744000000001,4171.154,4190.385,4182.179,0,0
572,27,0,0,4179.487,4203.846,4183.462,4203.59,4179.487,4181.282,4181.923,4190.897,4183.59,4179.487,4193.59,4169.103,4182.0509999999995,4173.462,0,0
573,28,0,0,4170.385,4200.897,4179.744000000001,4198.205,4178.974,4178.333,4181.667,4190.0,4180.513,4171.154,4197.564,4166.538,4170.255999999999,4172.821,0,0
574,29,0,0,4173.205,4202.821,4173.205,4199.487,4181.923,4176.41,4186.795,4191.795,4181.026,4179.872,4204.487,4163.077,4176.026,4173.333,0,0
575,30,0,0,4173.974,4198.846,4172.0509999999995,4204.615,4173.974,4171.667,4185.385,4186.154,4183.077,4173.718,4205.641,4162.821,4181.923,4171.282,0,0
576,31,0,0,4170.0,4197.179,4178.077,4203.59,4171.154,4170.0,4177.692,4187.179,4181.282,4163.077,4199.359,4170.769,4184.615,4179.744000000001,0,0
577,32,0,0,4173.846,4205.385,4181.41,4198.974,4176.282,4178.205,4187.564,4193.974,4173.846,4177.436,4211.41,4173.205,4197.564,4188.333,0,0
578,33,0,0,4181.41,4213.205,4182.9490000000005,4199.103,4179.359,4185.769,4205.255999999999,4204.744000000001,4181.923,4197.436,4230.128,4170.0,4201.923,4185.769,0,0
579,34,0,0,4187.179,4214.231,4187.0509999999995,4204.872,4186.026,4185.897,4200.769,4215.0,4201.154,4197.436,4223.333,4179.744000000001,4185.0,4187.0509999999995,0,0
580,35,0,0,4186.282,4212.179,4187.179,4208.846,4186.923,4184.744000000001,4184.744000000001,4198.205,4197.308,4179.231,4211.538,4187.0509999999995,4179.231,4192.308,0,0
581,36,0,0,4174.744000000001,4210.641,4181.41,4206.41,4172.308,4183.846,4182.436,4170.128,4173.974,4168.59,4211.923,4171.538,4188.846,4182.308,0,0
582,37,0,0,4173.333,4213.59,4180.769,4207.564,4172.308,4183.462,4189.103,4176.538,4174.487,4178.59,4211.538,4162.179,4189.103,4173.462,0,0
583,38,0,0,4183.718,4217.308,4185.128,4211.026,4188.59,4184.487,4188.974,4191.41,4187.308,4181.282,4215.769,4173.59,4186.923,4181.923,0,0
584,39,0,0,4181.667,4215.641,4184.872,4212.564,4188.205,4184.487,4184.103,4183.462,4177.0509999999995,4162.564,4220.897,4172.9490000000005,4189.103,4182.564,0,0
585,40,0,0,4168.59,4211.538,4183.718,4211.41,4182.436,4185.385,4183.077,4178.846,4169.487,4166.538,4209.487,4162.0509999999995,4195.897,4168.718,0,0
586,41,0,0,4167.692,4212.436,4184.615,4206.923,4187.9490000000005,4186.026,4186.026,4186.41,4181.282,4197.0509999999995,4208.974,4165.128,4197.436,4167.9490000000005,0,0
587,42,0,0,4177.308,4214.103,4183.846,4202.179,4188.077,4185.641,4186.667,4190.128,4185.385,4196.923,4222.179,4171.154,4190.255999999999,4181.41,0,0
588,43,0,0,4184.487,4218.077,4184.231,4209.231,4189.872,4192.821,4185.769,4188.205,4182.436,4179.744000000001,4215.513,4172.9490000000005,4193.59,4187.0509999999995,0,0
589,44,0,0,4186.538,4226.282,4187.9490000000005,4222.0509999999995,4199.744000000001,4199.744000000001,4188.205,4188.974,4181.795,4188.718,4215.897,4173.077,4200.897,4185.255999999999,0,0
590,45,0,0,4183.718,4231.154,4188.59,4219.487,4202.692,4196.667,4187.821,4188.846,4177.308,4196.795,4226.41,4170.128,4191.923,4183.59,0,0
591,46,0,0,4183.333,4227.692,4183.718,4213.846,4197.692,4194.487,4184.103,4182.692,4173.718,4186.923,4224.231,4166.026,4180.128,4183.205,0,0
592,47,0,0,4187.821,4226.538,4188.205,4216.154,4191.41,4201.538,4183.974,4180.0,4173.077,4180.641,4222.0509999999995,4171.41,4181.795,4186.41,0,0
593,48,0,0,4188.462,4232.564,4195.513,4219.103,4187.0509999999995,4211.538,4186.282,4184.872,4172.436,4190.641,4230.128,4181.154,4183.077,4188.205,0,0
594,49,0,0,4184.872,4229.615,4189.487,4219.103,4184.744000000001,4214.744000000001,4184.872,4186.026,4178.846,4194.231,4226.538,4177.179,4178.718,4182.308,0,0
595,50,0,0,4191.923,4227.692,4190.385,4220.255999999999,4187.821,4215.641,4184.872,4190.513,4184.359,4192.179,4211.41,4179.872,4181.282,4186.923,0,0
596,51,0,0,4199.872,4235.255999999999,4198.846,4220.385,4195.128,4218.59,4188.077,4198.718,4182.436,4194.231,4220.513,4189.744000000001,4185.385,4198.718,0,0
597,52,0,0,4187.179,4232.308,4191.026,4215.769,4197.692,4220.897,4186.026,4191.41,4181.795,4193.077,4226.667,4177.564,4184.487,4190.385,0,0
598,53,0,0,4175.769,4223.333,4180.641,4213.718,4198.077,4226.026,4184.487,4187.436,4185.0,4189.231,4220.255999999999,4162.692,4183.462,4178.59,0,0
599,54,0,0,4183.077,4221.41,4189.231,4217.692,4202.179,4231.282,4189.103,4200.513,4187.308,4187.564,4222.308,4171.41,4185.513,4183.205,0,0
600,55,0,0,4186.795,4218.333,4194.615,4216.538,4197.564,4225.128,4182.821,4190.897,4183.077,4186.282,4213.974,4176.154,4185.897,4184.615,0,0
601,56,0,0,4181.154,4211.282,4187.0509999999995,4207.179,4190.897,4212.821,4166.795,4165.385,4171.923,4185.255999999999,4206.667,4167.308,4183.205,4178.462,0,0
602,57,0,0,4182.821,4212.9490000000005,4187.692,4204.359,4200.128,4212.821,4168.718,4173.718,4167.308,4188.205,4221.923,4174.744000000001,4181.667,4181.795,0,0
603,58,0,0,4189.487,4219.359,4192.692,4214.872,4207.9490000000005,4222.436,4182.436,4194.615,4174.359,4190.385,4235.513,4184.487,4178.974,4184.615,0,0
604,59,0,0,4192.9490000000005,4219.231,4196.795,4217.308,4202.308,4230.0,4187.308,4197.564,4183.077,4189.103,4223.205,4185.0,4176.154,4183.974,0,0
605,60,0,0,4187.436,4216.795,4193.974,4204.487,4202.308,4226.923,4186.026,4198.59,4181.282,4191.154,4211.41,4186.538,4176.154,4186.154,0,0
606,61,0,0,4183.974,4217.436,4189.231,4203.59,4210.769,4219.487,4184.872,4200.255999999999,4175.513,4188.974,4217.0509999999995,4186.667,4179.615,4188.718,0,0
607,62,0,0,4192.692,4218.59,4189.359,4214.231,4214.231,4224.744000000001,4183.333,4198.333,4180.897,4187.436,4231.41,4185.769,4184.615,4191.282,0,0
608,63,0,0,4198.974,4216.41,4193.718,4214.872,4213.205,4226.282,4182.9490000000005,4199.744000000001,4188.846,4194.103,4235.897,4186.026,4185.513,4194.103,0,0
609,64,0,2456,4197.9490000000005,4217.179,4197.692,4211.538,4212.821,4221.026,4182.436,4203.333,4183.333,4199.231,4225.128,4187.9490000000005,4184.487,4198.59,0,0
610,65,0,1933,4197.0509999999995,4219.487,4196.154,4210.255999999999,4215.641,4223.59,4181.538,4198.462,4176.41,4195.128,4230.641,4189.744000000001,4184.872,4202.564,0,0
611,66,0,3418,4195.513,4218.59,4193.462,4209.744000000001,4214.487,4223.718,4181.41,4189.744000000001,4177.179,4184.615,4232.308,4189.744000000001,4180.128,4199.103,0,0
612,67,0,3345,4189.872,4217.821,4189.744000000001,4213.59,4210.385,4217.436,4182.9490000000005,4188.59,4175.641,4181.026,4213.974,4183.846,4170.513,4189.744000000001,0,0
613,68,0,2944,4186.667,4218.718,4186.282,4214.359,4216.026,4217.308,4184.615,4190.255999999999,4172.0509999999995,4186.795,4220.769,4175.897,4171.026,4185.641,0,0
614,69,0,2527,4184.744000000001,4217.308,4183.974,4205.255999999999,4220.385,4218.077,4181.795,4186.538,4171.41,4188.59,4239.359,4171.667,4179.744000000001,4184.487,0,0
615,70,0,2421,4176.923,4210.769,4181.41,4198.333,4213.718,4211.154,4177.9490000000005,4183.077,4170.385,4178.974,4216.026,4168.846,4175.128,4175.897,0,0
616,71,0,2998,4176.41,4209.231,4181.538,4202.564,4212.692,4208.077,4179.487,4185.255999999999,4171.923,4167.436,4190.641,4168.974,4167.9490000000005,4170.513,0,0
617,72,0,2420,4184.872,4210.897,4185.897,4209.615,4215.641,4210.769,4178.333,4183.59,4171.795,4169.359,4209.872,4170.897,4176.667,4175.255999999999,0,0
618,73,0,3483,4186.154,4205.769,4187.692,4206.41,4205.641,4211.667,4172.821,4179.744000000001,4166.795,4172.692,4222.9490000000005,4172.436,4180.769,4179.744000000001,0,0
619,74,0,3004,4181.026,4200.255999999999,4184.872,4198.846,4193.59,4208.077,4175.769,4181.026,4166.923,4174.487,4213.077,4171.41,4171.41,4181.923,0,0
620,75,0,2909,4183.333,4202.308,4185.641,4201.026,4197.564,4208.077,4184.103,4182.308,4172.692,4183.974,4219.615,4171.154,4174.103,4185.641,0,0
621,76,0,2571,4187.179,4204.615,4187.436,4206.795,4206.282,4215.513,4190.769,4183.333,4172.0509999999995,4188.718,4227.564,4175.897,4184.872,4185.769,0,0
622,77,0,3281,4184.487,4202.821,4186.41,4203.974,4211.538,4221.282,4199.615,4187.436,4169.103,4184.231,4219.615,4181.538,4184.359,4184.231,0,0
623,78,0,3004,4185.513,4202.0509999999995,4185.641,4201.154,4215.641,4219.231,4201.41,4189.231,4173.718,4181.923,4217.564,4184.359,4182.564,4185.385,0,0
624,79,0,2909,4186.41,4202.308,4186.923,4204.103,4212.692,4211.282,4191.026,4180.897,4172.564,4182.821,4217.821,4185.385,4185.128,4186.026,0,0
625,80,0,2571,4182.179,4206.667,4187.436,4205.641,4209.103,4207.692,4182.308,4174.872,4165.513,4184.744000000001,4215.897,4183.077,4183.846,4183.462,0,0
626,81,0,3281,4182.564,4215.769,4188.462,4210.769,4214.615,4213.333,4184.103,4184.231,4173.974,4185.385,4219.359,4181.282,4183.205,4183.462,0,0
627,82,0,3004,4187.9490000000005,4217.179,4189.359,4216.667,4216.923,4213.077,4186.154,4196.026,4186.154,4176.795,4217.564,4185.897,4185.255999999999,4186.923,0,0
628,83,0,2909,4185.513,4206.154,4186.282,4207.9490000000005,4206.026,4203.59,4183.974,4191.41,4178.333,4165.641,4212.436,4180.897,4183.077,4184.744000000001,0,0
629,84,0,2571,4179.231,4202.179,4183.59,4196.667,4197.179,4207.436,4182.179,4181.795,4170.255999999999,4169.744000000001,4216.923,4167.821,4180.513,4179.487,0,0
630,85,0,3281,4184.231,4215.128,4187.179,4205.769,4205.128,4217.436,4189.359,4190.255999999999,4180.0,4176.538,4219.359,4169.231,4185.0,4182.308,0,0
631,86,0,3004,4189.872,4216.538,4189.487,4213.974,4217.9490000000005,4217.821,4197.308,4202.0509999999995,4187.821,4175.769,4216.795,4175.769,4188.59,4187.179,0,0
632,87,0,2909,4188.077,4205.128,4187.564,4206.154,4216.154,4218.974,4194.615,4196.282,4183.077,4181.154,4212.9490000000005,4174.231,4186.154,4186.667,0,0
633,88,0,2571,4187.179,4205.385,4187.179,4201.667,4203.59,4214.103,4186.667,4187.0509999999995,4175.128,4190.641,4204.744000000001,4172.692,4183.718,4185.0,0,0
634,89,0,3281,4185.897,4208.462,4187.308,4205.897,4206.154,4202.436,4181.795,4186.795,4171.41,4180.897,4200.0,4173.077,4184.487,4183.974,0,0
635,90,0,3004,4181.923,4202.308,4186.538,4204.359,4215.0,4205.897,4183.59,4185.385,4174.615,4164.744000000001,4204.744000000001,4170.641,4184.487,4181.923,0,0
636,91,0,2909,4181.667,4201.026,4186.282,4201.923,4206.538,4215.897,4190.255999999999,4182.0509999999995,4176.026,4175.641,4218.077,4167.436,4182.821,4182.692,0,0
637,92,0,2571,4185.0,4204.103,4187.0509999999995,4210.641,4201.026,4212.692,4191.795,4184.231,4173.718,4189.615,4215.641,4169.487,4181.795,4186.154,0,0
638,93,0,3281,4184.487,4200.641,4189.487,4215.641,4209.103,4210.513,4186.795,4187.436,4175.0,4178.718,4202.564,4179.487,4182.0509999999995,4187.179,0,0
639,94,0,3004,4184.744000000001,4198.846,4188.846,4207.308,4208.59,4213.205,4185.513,4188.974,4175.128,4168.333,4211.667,4182.9490000000005,4184.231,4187.0509999999995,0,0
640,95,0,2909,4182.436,4198.974,4184.744000000001,4199.487,4201.282,4207.436,4186.538,4190.0,4171.538,4169.231,4218.205,4174.103,4185.897,4184.487,0,0
641,96,0,2571,4172.308,4191.41,4179.615,4195.255999999999,4198.718,4201.795,4180.641,4186.923,4170.385,4168.974,4197.308,4163.974,4180.385,4177.0509999999995,0,0
642,97,0,3281,4167.308,4184.103,4173.59,4189.359,4197.179,4202.179,4173.718,4184.103,4170.641,4169.487,4191.923,4156.923,4172.821,4167.821,0,0
643,98,0,3004,4172.436,4188.462,4172.692,4192.692,4201.41,4204.359,4172.0509999999995,4185.769,4170.897,4172.821,4204.872,4158.205,4173.59,4168.077,0,0
644,99,0,2909,4174.359,4190.385,4181.41,4204.231,4204.103,4209.231,4172.179,4185.897,4171.667,4163.846,4193.205,4168.59,4175.0,4177.179,0,0
645,100,0,2571,4174.744000000001,4184.872,4185.128,4202.564,4199.231,4212.692,4170.128,4181.795,4168.077,4155.128,4192.692,4170.641,4171.026,4181.795,0,0
646,101,0,3281,4182.308,4192.692,4183.077,4198.974,4202.436,4212.436,4171.41,4181.154,4166.667,4168.205,4217.564,4167.564,4173.974,4181.538,0,0
647,102,0,3004,4188.333,4206.282,4188.846,4203.077,4214.487,4213.974,4175.385,4186.795,4177.9490000000005,4187.821,4211.282,4177.179,4181.41,4186.795,0,0
648,103,0,2909,4189.487,4205.255999999999,4195.513,4205.385,4219.103,4216.026,4173.974,4191.154,4182.692,4186.026,4198.077,4187.564,4183.59,4192.308,0,0
649,104,0,2571,4190.641,4201.282,4194.872,4210.0,4213.59,4216.923,4171.154,4185.0,4172.179,4171.667,4210.255999999999,4185.641,4185.385,4189.359,0,0
650,105,0,3281,4190.128,4204.103,4191.923,4211.667,4205.897,4217.0509999999995,4171.795,4174.872,4167.821,4173.462,4214.231,4178.974,4182.821,4188.077,0,0
651,106,0,3004,4186.667,4202.179,4188.205,4204.103,4201.795,4215.897,4173.333,4170.641,4166.538,4172.179,4197.9490000000005,4167.692,4174.359,4184.487,0,0
652,107,0,2909,4181.41,4196.923,4184.231,4199.744000000001,4201.923,4214.487,4172.821,4171.026,4160.128,4156.795,4191.538,4157.821,4173.59,4173.846,0,0
653,108,0,2571,4177.308,4198.462,4182.821,4202.308,4204.231,4212.0509999999995,4169.872,4170.641,4157.9490000000005,4158.462,4190.0,4162.0509999999995,4174.615,4175.769,0,0
654,109,0,3281,4175.769,4196.538,4182.436,4200.128,4202.0509999999995,4207.0509999999995,4167.0509999999995,4171.026,4160.128,4167.692,4183.59,4169.103,4171.41,4181.667,0,0
655,110,0,3004,4177.179,4190.255999999999,4182.308,4195.385,4198.462,4208.59,4167.9490000000005,4172.692,4162.0509999999995,4172.692,4192.179,4165.897,4175.0,4177.692,0,0
656,111,0,2909,4181.154,4193.59,4185.385,4198.59,4198.974,4214.615,4170.769,4171.154,4167.564,4181.026,4204.615,4166.923,4178.205,4179.487,0,0
657,112,0,2571,4185.255999999999,4204.487,4186.667,4203.205,4203.077,4216.41,4172.821,4169.103,4170.255999999999,4180.0,4201.154,4176.282,4172.308,4187.821,0,0
658,113,0,3281,4183.077,4202.0509999999995,4185.641,4201.41,4202.692,4216.923,4173.974,4170.128,4169.231,4177.692,4198.846,4176.41,4170.128,4187.308,0,0
659,114,0,3004,4175.513,4186.795,4180.897,4196.538,4193.462,4211.41,4169.487,4170.513,4170.255999999999,4187.436,4206.154,4167.821,4172.436,4181.282,0,0
660,115,0,2909,4171.538,4181.41,4175.513,4196.667,4185.513,4205.513,4165.769,4169.487,4169.103,4182.9490000000005,4200.513,4167.692,4170.255999999999,4176.538,0,0
661,116,0,2571,4171.154,4181.154,4176.667,4195.385,4185.128,4210.385,4170.769,4171.026,4167.308,4168.077,4189.872,4171.795,4168.59,4177.436,0,0
662,117,0,3281,4169.872,4173.718,4178.846,4191.667,4187.564,4213.333,4174.487,4171.923,4167.308,4171.41,4195.255999999999,4167.821,4173.077,4180.641,0,0
663,118,0,3004,4169.872,4168.59,4179.231,4189.744000000001,4187.821,4204.231,4169.487,4167.564,4166.154,4174.103,4199.744000000001,4162.436,4175.897,4178.974,0,0
664,119,0,2909,4173.462,4171.923,4182.564,4187.692,4187.179,4200.128,4165.385,4164.872,4166.538,4177.564,4200.128,4166.795,4171.923,4180.0,0,0
665,120,0,2571,4175.0,4174.615,4185.897,4189.872,4190.385,4208.846,4167.9490000000005,4167.564,4167.436,4185.769,4199.103,4171.923,4166.538,4183.846,0,0
666,121,0,3281,4171.667,4174.744000000001,4182.9490000000005,4197.308,4193.974,4212.179,4170.897,4169.744000000001,4168.462,4170.128,4190.641,4168.974,4167.436,4179.615,0,0
667,122,0,3004,4172.179,4175.769,4182.692,4202.564,4190.769,4205.769,4170.128,4169.487,4170.385,4164.231,4189.744000000001,4168.333,4168.077,4173.846,0,0
668,123,0,2909,4174.359,4173.846,4185.897,4198.205,4183.846,4198.59,4167.564,4172.308,4170.0,4186.667,4197.436,4169.103,4160.897,4173.077,0,0
669,124,0,2571,4170.641,4168.205,4178.333,4189.103,4183.077,4197.821,4167.436,4173.333,4169.744000000001,4187.564,4192.821,4161.538,4155.385,4170.128,0,0
670,125,0,3281,4167.308,4160.769,4173.59,4185.769,4185.641,4203.077,4172.436,4169.231,4170.897,4169.744000000001,4182.308,4155.255999999999,4155.385,4168.846,0,0
671,126,0,3004,4168.333,4155.513,4175.897,4188.462,4184.487,4203.462,4173.205,4165.641,4168.718,4168.205,4178.974,4154.359,4153.718,4167.821,0,0
672,127,0,52,4168.59,4156.923,4175.513,4189.487,4184.359,4202.564,4170.128,4165.385,4165.255999999999,4158.333,4183.333,4155.513,4153.846,4168.59,0,0
673,0,0,2457,4169.103,4159.872,4177.564,4187.821,4186.923,4205.769,4177.308,4166.026,4166.154,4145.0,4188.462,4156.923,4156.667,4172.179,0,0
674,1,0,1930,4171.026,4158.974,4183.59,4187.9490000000005,4188.077,4207.179,4184.744000000001,4167.436,4167.692,4163.718,4185.769,4154.487,4155.0,4170.128,0,0
675,2,0,3422,4169.103,4155.769,4185.513,4193.205,4188.718,4204.231,4178.846,4171.923,4167.436,4173.59,4182.692,4158.077,4152.564,4169.103,0,0
676,3,0,3345,4165.897,4153.974,4183.974,4198.077,4186.795,4202.179,4175.769,4173.462,4166.923,4152.436,4179.231,4166.026,4153.462,4171.667,0,0
677,4,0,2946,4168.077,4154.872,4187.436,4198.205,4185.641,4203.59,4182.179,4172.692,4167.821,4154.615,4174.615,4162.564,4152.308,4171.41,0,0
678,5,0,2534,4167.179,4157.179,4188.59,4200.128,4195.0,4208.462,4184.615,4175.513,4170.641,4173.718,4180.513,4154.359,4152.179,4166.795,0,0
679,6,0,2425,4158.59,4155.769,4182.9490000000005,4199.487,4199.615,4210.385,4181.667,4174.359,4172.0509999999995,4165.128,4185.0,4155.513,4153.205,4163.59,0,0
680,7,0,3005,4151.923,4154.231,4176.282,4188.333,4190.641,4208.333,4186.795,4175.641,4172.564,4156.41,4167.821,4157.692,4151.154,4164.744000000001,0,0
681,8,0,2422,4152.179,4151.026,4172.0509999999995,4181.795,4187.0509999999995,4206.795,4192.821,4181.282,4175.641,4163.718,4163.846,4153.846,4150.255999999999,4163.333,0,0
682,9,0,3485,4153.462,4147.179,4173.462,4187.564,4189.744000000001,4207.0509999999995,4190.385,4178.333,4174.872,4168.462,4184.359,4153.718,4155.255999999999,4163.462,0,0
683,10,0,3004,4152.9490000000005,4149.872,4171.795,4188.205,4182.9490000000005,4202.564,4185.128,4165.769,4166.154,4165.0,4182.564,4153.333,4154.103,4163.462,0,0
684,11,0,2911,4153.077,4153.077,4168.333,4184.872,4179.231,4196.282,4180.769,4160.255999999999,4160.128,4154.231,4171.026,4151.026,4148.462,4158.077,0,0
685,12,0,2604,4149.359,4146.026,4168.59,4184.359,4184.872,4194.487,4173.59,4158.205,4157.9490000000005,4145.0,4172.308,4147.821,4148.205,4151.282,0,0
686,13,0,3275,4142.308,4136.667,4167.692,4181.538,4181.538,4193.974,4168.718,4150.769,4152.308,4151.282,4160.513,4142.436,4149.103,4149.615,0,0
687,14,0,3004,4145.128,4137.9490000000005,4168.462,4180.385,4176.795,4197.821,4172.9490000000005,4156.282,4156.41,4159.744000000001,4152.179,4142.564,4148.974,4152.564,0,0
688,15,0,2911,4151.538,4141.282,4170.0,4183.846,4182.179,4196.795,4175.385,4165.513,4166.026,4151.795,4168.59,4150.897,4149.744000000001,4153.205,0,0
689,16,0,0,4153.205,4143.59,4170.513,4186.41,4185.641,4190.255999999999,4173.59,4166.41,4166.41,4147.308,4178.333,4155.897,4153.077,4153.846,0,0
690,17,0,0,4152.179,4143.974,4169.872,4179.231,4179.231,4189.103,4175.513,4171.538,4168.462,4162.9490000000005,4165.255999999999,4148.333,4155.897,4153.846,0,0
691,18,0,0,4147.564,4139.231,4166.154,4175.897,4170.513,4188.333,4173.718,4171.026,4169.487,4173.462,4165.255999999999,4137.821,4154.231,4152.308,0,0
692,19,0,0,4143.59,4141.923,4158.462,4182.821,4170.513,4182.436,4168.846,4157.308,4157.564,4157.436,4172.0509999999995,4136.923,4152.0509999999995,4149.103,0,0
693,20,0,0,4150.897,4152.821,4156.026,4186.795,4174.872,4182.179,4168.974,4156.667,4154.487,4145.897,4158.333,4146.41,4155.255999999999,4150.513,0,0
694,21,0,0,4160.255999999999,4160.128,4161.667,4185.641,4174.872,4189.359,4171.795,4172.692,4169.359,4166.154,4157.308,4157.692,4158.846,4159.359,0,0
695,22,0,0,4157.179,4155.385,4161.026,4180.385,4176.795,4183.333,4170.641,4166.667,4169.615,4181.41,4178.205,4157.436,4154.615,4161.026,0,0
696,23,0,0,4150.0,4143.718,4154.872,4172.436,4183.974,4176.026,4166.795,4148.974,4155.0,4160.255999999999,4178.077,4147.564,4151.923,4153.59,0,0
697,24,0,0,4150.769,4143.205,4156.795,4174.744000000001,4180.128,4182.821,4166.795,4158.718,4154.487,4145.255999999999,4160.255999999999,4144.487,4152.436,4152.564,0,0
698,25,0,0,4155.255999999999,4153.333,4163.205,4184.231,4172.821,4188.718,4170.128,4171.282,4160.513,4165.513,4165.769,4150.897,4153.205,4158.333,0,0
699,26,0,0,4157.179,4157.821,4168.333,4183.077,4178.205,4187.692,4173.205,4163.333,4159.744000000001,4179.487,4177.308,4153.974,4156.282,4161.667,0,0
700,27,0,0,4155.128,4152.9490000000005,4171.026,4182.436,4185.128,4187.692,4177.692,4159.615,4160.897,4167.0509999999995,4167.821,4151.923,4156.026,4163.974,0,0
701,28,0,0,4153.59,4147.308,4171.667,4186.538,4181.795,4187.821,4182.308,4168.846,4161.923,4165.128,4163.59,4152.179,4149.872,4166.538,0,0
702,29,0,0,4160.385,4150.641,4176.282,4184.615,4180.897,4187.179,4185.769,4169.359,4158.205,4174.103,4172.436,4156.795,4156.538,4169.231,0,0
703,30,0,0,4169.744000000001,4163.205,4184.487,4184.231,4187.9490000000005,4187.9490000000005,4186.923,4165.255999999999,4156.41,4168.846,4177.9490000000005,4156.282,4167.564,4170.0,0,0
704,31,0,0,4172.436,4169.231,4186.41,4186.41,4190.769,4181.282,4181.538,4168.846,4158.59,4165.255999999999,4179.231,4158.077,4160.641,4173.333,0,0
705,32,0,0,4175.769,4167.0509999999995,4185.513,4186.154,4189.103,4176.795,4177.179,4168.974,4162.308,4179.615,4179.744000000001,4167.436,4156.282,4181.41,0,0
706,33,0,0,4183.462,4171.282,4186.795,4187.821,4187.692,4181.667,4180.513,4167.564,4166.41,4187.821,4187.436,4171.667,4167.179,4184.615,0,0
707,34,0,0,4186.026,4175.897,4187.308,4187.821,4188.077,4181.667,4183.846,4169.872,4167.564,4173.205,4189.615,4175.385,4168.974,4184.359,0,0
708,35,0,0,4180.769,4170.769,4186.026,4185.769,4188.333,4176.667,4181.667,4168.974,4166.795,4170.0,4174.744000000001,4184.744000000001,4164.359,4186.282,0,0
709,36,0,0,4174.487,4166.923,4178.846,4186.026,4188.59,4177.821,4181.026,4167.436,4169.744000000001,4184.744000000001,4172.179,4175.385,4170.255999999999,4182.179,0,0
710,37,0,0,4167.692,4167.0509999999995,4170.0,4178.974,4188.974,4181.41,4183.59,4170.385,4171.026,4181.026,4182.0509999999995,4153.846,4170.641,4169.872,0,0
711,38,0,0,4170.0,4167.9490000000005,4174.359,4177.692,4187.9490000000005,4183.205,4187.308,4173.205,4169.872,4175.769,4181.923,4158.077,4167.436,4168.333,0,0
712,39,0,0,4175.255999999999,4170.255999999999,4177.564,4187.308,4186.154,4184.744000000001,4188.974,4174.231,4170.641,4193.205,4178.077,4171.154,4172.308,4175.255999999999,0,0
713,40,0,0,4164.744000000001,4166.667,4167.179,4181.41,4185.0,4183.59,4188.462,4179.744000000001,4171.923,4189.615,4181.41,4166.667,4167.9490000000005,4172.821,0,0
714,41,0,0,4155.641,4162.0509999999995,4167.0509999999995,4170.641,4187.0509999999995,4180.0,4191.795,4183.205,4170.769,4163.718,4184.744000000001,4164.872,4164.872,4171.538,0,0
715,42,0,0,4157.564,4158.974,4170.385,4171.795,4182.692,4175.255999999999,4185.641,4168.333,4161.538,4166.282,4178.718,4164.487,4173.718,4174.487,0,0
716,43,0,0,4149.744000000001,4146.667,4155.897,4170.641,4167.0509999999995,4166.154,4169.872,4144.231,4147.564,4171.923,4165.897,4149.872,4166.026,4163.462,0,0
717,44,0,0,4149.359,4144.744000000001,4154.872,4172.821,4167.564,4165.385,4172.564,4145.641,4151.026,4172.564,4166.538,4150.769,4159.231,4160.513,0,0
718,45,0,0,4172.564,4167.0509999999995,4175.897,4185.641,4187.564,4178.846,4187.821,4173.846,4168.846,4188.462,4182.9490000000005,4173.077,4182.179,4179.359,0,0
719,46,0,0,4181.538,4175.0,4178.718,4188.846,4193.59,4182.9490000000005,4190.769,4190.513,4175.897,4192.308,4183.077,4172.692,4195.255999999999,4182.564,0,0
720,47,0,0,4162.692,4159.103,4164.872,4179.103,4183.077,4172.564,4185.128,4180.769,4170.513,4184.231,4162.821,4152.821,4183.205,4164.359,0,0
721,48,0,0,4154.744000000001,4156.282,4163.462,4173.462,4182.308,4173.846,4183.718,4170.255999999999,4162.0509999999995,4180.769,4158.333,4147.9490000000005,4176.282,4156.795,0,0
722,49,0,0,4158.59,4162.564,4168.59,4173.333,4189.487,4185.513,4186.026,4169.103,4155.255999999999,4173.333,4167.179,4152.0509999999995,4174.359,4158.333,0,0
723,50,0,0,4157.436,4156.282,4167.821,4180.255999999999,4186.538,4182.179,4187.308,4168.333,4153.846,4172.9490000000005,4167.436,4150.128,4170.897,4155.513,0,0
724,51,0,0,4156.667,4153.974,4166.795,4181.282,4180.385,4174.744000000001,4186.538,4168.205,4155.385,4188.333,4156.923,4151.154,4167.821,4154.359,0,0
725,52,0,0,4156.667,4157.692,4165.769,4171.026,4182.179,4182.179,4190.0,4168.205,4159.231,4178.974,4146.538,4152.564,4166.154,4156.154,0,0
726,53,0,0,4160.128,4158.974,4167.9490000000005,4174.615,4185.641,4190.255999999999,4198.462,4175.513,4167.179,4162.564,4155.128,4150.897,4176.282,4162.564,0,0
727,54,0,0,4168.205,4164.231,4172.179,4187.308,4185.255999999999,4189.872,4202.308,4192.0509999999995,4174.231,4180.513,4172.564,4162.179,4189.359,4170.128,0,0
728,55,0,0,4169.872,4171.026,4172.179,4187.179,4185.513,4189.231,4201.795,4195.128,4173.333,4190.255999999999,4171.795,4170.513,4188.718,4167.564,0,0
729,56,0,0,4166.795,4170.897,4170.641,4180.255999999999,4187.308,4189.744000000001,4197.436,4179.359,4167.0509999999995,4183.205,4164.487,4159.487,4187.692,4165.255999999999,0,0
730,57,0,0,4169.744000000001,4168.59,4172.308,4183.462,4185.0,4188.333,4194.103,4172.564,4160.769,4189.231,4171.795,4155.0,4189.744000000001,4169.615,0,0
731,58,0,0,4172.692,4169.872,4173.333,4188.846,4186.41,4187.436,4196.667,4174.487,4157.564,4185.897,4179.615,4166.154,4185.641,4171.923,0,0
732,59,0,0,4172.179,4170.255999999999,4174.872,4184.872,4190.897,4188.205,4197.564,4173.333,4156.026,4175.769,4170.0,4169.744000000001,4183.205,4175.0,0,0
733,60,0,0,4181.795,4170.641,4180.769,4186.154,4182.564,4187.692,4196.795,4178.718,4159.744000000001,4185.897,4171.41,4167.821,4184.103,4181.538,0,0
734,61,0,0,4189.487,4175.385,4185.513,4192.9490000000005,4177.0509999999995,4185.897,4198.205,4178.974,4165.513,4197.436,4183.974,4171.795,4185.128,4187.308,0,0
735,62,0,0,4179.103,4170.641,4178.333,4187.308,4180.641,4184.615,4195.0,4168.462,4160.255999999999,4182.436,4180.769,4170.641,4185.769,4182.436,0,0
736,63,0,0,4167.179,4159.744000000001,4168.59,4179.487,4174.487,4187.0509999999995,4192.436,4172.821,4157.179,4170.255999999999,4167.179,4167.692,4184.744000000001,4173.59,0,0
737,64,0,2448,4169.231,4161.795,4175.128,4186.795,4171.667,4189.231,4198.205,4187.564,4170.641,4184.231,4170.513,4169.872,4184.872,4175.255999999999,0,0
738,65,0,1930,4173.846,4166.923,4184.231,4186.282,4184.103,4185.897,4198.333,4187.821,4175.255999999999,4200.128,4184.231,4165.897,4185.641,4181.923,0,0
739,66,0,3416,4180.128,4174.231,4184.487,4186.667,4189.231,4189.359,4196.154,4191.026,4170.128,4200.385,4186.923,4171.538,4192.692,4185.769,0,0
740,67,0,3342,4186.282,4183.846,4184.744000000001,4196.41,4184.487,4201.026,4200.769,4204.872,4176.282,4197.9490000000005,4185.255999999999,4183.718,4203.974,4187.564,0,0
741,68,0,2945,4182.564,4181.538,4185.641,4192.821,4186.667,4199.359,4201.154,4198.974,4177.179,4200.769,4182.564,4178.205,4203.974,4187.0509999999995,0,0
742,69,0,2538,4181.795,4176.795,4184.231,4185.385,4187.308,4186.538,4198.974,4185.255999999999,4168.59,4196.923,4180.255999999999,4168.846,4198.462,4186.154,0,0
743,70,0,2425,4186.154,4178.718,4182.179,4187.436,4184.231,4182.564,4200.641,4186.154,4170.897,4199.487,4177.436,4171.154,4199.872,4184.615,0,0
744,71,0,3000,4183.59,4179.744000000001,4182.9490000000005,4188.205,4183.333,4185.255999999999,4199.872,4191.282,4174.487,4212.821,4181.538,4176.154,4198.205,4182.821,0,0
745,72,0,2418,4190.769,4182.0509999999995,4186.795,4191.795,4184.744000000001,4186.923,4197.564,4194.231,4171.41,4207.692,4198.333,4182.821,4193.974,4190.769,0,0
746,73,0,3479,4203.205,4188.333,4190.641,4198.59,4190.769,4187.308,4199.872,4195.641,4175.0,4197.564,4201.41,4193.077,4199.231,4200.385,0,0
747,74,0,2994,4193.846,4187.9490000000005,4185.0,4192.0509999999995,4193.333,4183.333,4198.333,4191.026,4177.179,4204.103,4184.744000000001,4184.231,4201.41,4191.41,0,0
748,75,0,2907,4181.026,4184.103,4181.154,4186.795,4184.359,4181.026,4190.255999999999,4186.154,4168.333,4200.769,4179.487,4168.718,4194.103,4181.154,0,0
749,76,0,2562,4183.974,4176.795,4183.59,4187.821,4172.821,4184.487,4187.179,4185.128,4166.154,4189.103,4183.846,4171.923,4189.872,4183.974,0,0
750,77,0,3271,4183.077,4169.359,4179.359,4183.205,4175.897,4183.462,4187.179,4187.179,4170.641,4193.205,4176.026,4173.205,4190.769,4184.103,0,0
751,78,0,2994,4177.308,4173.077,4177.436,4184.615,4186.026,4173.59,4183.462,4186.667,4168.718,4199.872,4177.308,4168.077,4189.744000000001,4180.641,0,0
752,79,0,2907,4180.0,4174.487,4179.231,4187.821,4182.179,4168.077,4181.154,4176.923,4164.103,4193.974,4187.692,4172.179,4188.718,4183.205,0,0
753,80,0,2562,4184.872,4171.41,4178.462,4186.667,4178.077,4178.59,4183.974,4172.692,4166.41,4186.282,4183.974,4183.846,4193.205,4185.769,0,0
754,81,0,3271,4185.385,4174.615,4180.769,4186.667,4183.718,4186.026,4186.538,4183.205,4170.641,4194.744000000001,4184.231,4185.385,4201.154,4185.513,0,0
755,82,0,2994,4184.872,4176.795,4185.0,4185.769,4179.103,4176.795,4185.897,4186.41,4169.231,4198.59,4186.667,4177.308,4201.282,4185.385,0,0
756,83,0,2907,4184.359,4170.897,4180.641,4181.154,4168.974,4166.282,4185.897,4180.0,4166.154,4181.282,4172.564,4171.667,4192.564,4182.308,0,0
757,84,0,2562,4184.487,4169.872,4176.923,4180.897,4174.615,4169.359,4186.795,4181.41,4167.179,4180.513,4168.974,4175.513,4187.821,4182.436,0,0
758,85,0,3271,4188.205,4177.436,4182.179,4184.744000000001,4178.462,4178.59,4185.897,4186.282,4168.205,4210.385,4184.359,4186.282,4187.821,4190.897,0,0
759,86,0,2994,4193.59,4181.41,4185.0,4186.026,4172.692,4181.282,4183.718,4188.462,4168.974,4226.154,4189.744000000001,4191.667,4187.179,4199.359,0,0
760,87,0,2907,4193.59,4178.974,4185.0,4187.308,4172.564,4180.897,4183.718,4181.923,4168.846,4204.615,4188.077,4190.769,4188.59,4201.538,0,0
761,88,0,2562,4188.59,4175.128,4183.59,4186.795,4173.974,4179.872,4184.872,4173.462,4167.0509999999995,4189.872,4181.923,4190.0,4188.205,4197.179,0,0
762,89,0,3271,4185.385,4171.667,4182.0509999999995,4183.974,4170.769,4177.179,4181.026,4177.0509999999995,4167.9490000000005,4198.974,4173.718,4183.846,4184.615,4189.487,0,0
763,90,0,2994,4182.9490000000005,4167.179,4179.359,4182.308,4170.0,4172.821,4172.436,4176.795,4169.359,4202.308,4180.513,4177.692,4183.205,4183.59,0,0
764,91,0,2907,4183.205,4169.359,4176.154,4182.0509999999995,4172.308,4171.41,4169.615,4169.231,4165.897,4195.385,4183.462,4178.846,4185.128,4185.513,0,0
765,92,0,2562,4182.179,4173.333,4174.231,4182.308,4172.0509999999995,4173.718,4175.128,4170.641,4166.923,4202.9490000000005,4172.308,4177.9490000000005,4185.513,4186.538,0,0
766,93,0,3271,4172.692,4165.513,4171.154,4180.513,4169.103,4171.795,4176.282,4174.359,4172.692,4206.41,4176.282,4169.359,4183.59,4174.744000000001,0,0
767,94,0,2994,4166.667,4159.615,4167.564,4174.359,4169.615,4170.128,4170.769,4168.718,4165.641,4183.205,4185.641,4165.0,4182.9490000000005,4168.59,0,0
768,95,0,2907,4172.179,4166.538,4167.308,4174.359,4172.308,4172.9490000000005,4169.615,4169.615,4155.769,4177.179,4177.436,4172.179,4181.795,4179.872,0,0
769,96,0,2562,4171.538,4169.744000000001,4169.103,4179.103,4172.564,4175.769,4171.538,4176.795,4158.205,4193.462,4168.333,4172.692,4175.0,4183.462,0,0
770,97,0,3271,4169.744000000001,4165.385,4172.0509999999995,4182.179,4172.179,4173.718,4168.333,4174.487,4156.667,4188.846,4168.462,4163.077,4166.154,4173.077,0,0
