,COUNTER, INTERPOLATED, RAW_CQ, AF3, F7, F3, FC5, T7, P7, O1, O2, P8, T8, FC6, F4, F8, AF4, MARKER_HARDWARE, MARKER
0,87,0,2882,4174.487,4161.154,4175.255999999999,4186.41,4207.0509999999995,4181.667,4155.769,4141.154,4182.9490000000005,4233.462,4181.923,4158.718,4195.128,4150.769,0,0
1,88,0,2392,4173.718,4144.872,4181.923,4180.255999999999,4192.564,4186.41,4152.692,4134.615,4188.077,4220.769,4187.308,4167.692,4191.667,4152.9490000000005,0,0
2,89,0,3267,4184.615,4159.487,4189.103,4186.282,4200.128,4187.692,4156.026,4135.897,4190.769,4215.769,4176.41,4173.333,4189.103,4155.385,0,0
3,90,0,2987,4176.41,4170.255999999999,4187.9490000000005,4186.667,4221.154,4177.179,4155.0,4120.255999999999,4180.513,4200.897,4163.462,4164.615,4174.615,4147.821,0,0
4,91,0,2882,4173.846,4168.205,4193.846,4187.692,4206.538,4166.282,4150.897,4119.103,4175.897,4180.385,4174.231,4168.077,4165.513,4151.41,0,0
5,92,0,2392,4186.026,4170.769,4202.308,4193.333,4196.154,4172.692,4151.154,4135.255999999999,4174.872,4187.9490000000005,4181.923,4176.795,4170.128,4159.359,0,0
6,93,0,3267,4187.436,4177.821,4201.282,4192.436,4216.667,4183.846,4153.974,4137.9490000000005,4163.974,4197.0509999999995,4175.128,4172.564,4167.692,4155.128,0,0
7,94,0,2987,4182.436,4176.795,4194.103,4187.821,4208.718,4178.333,4154.615,4133.077,4166.41,4180.255999999999,4172.436,4170.128,4166.282,4154.103,0,0
8,95,0,2882,4183.205,4169.231,4187.9490000000005,4186.282,4187.821,4179.487,4154.103,4135.128,4189.615,4191.667,4172.308,4172.436,4178.718,4157.564,0,0
9,96,0,2392,4182.9490000000005,4168.974,4185.513,4186.667,4202.821,4190.641,4153.59,4141.795,4194.231,4221.667,4173.077,4171.923,4183.974,4156.667,0,0
10,97,0,3267,4185.769,4171.667,4186.667,4185.769,4218.462,4182.9490000000005,4153.718,4150.0,4182.308,4221.795,4181.538,4178.462,4182.821,4158.974,0,0
11,98,0,2987,4187.308,4169.872,4185.641,4185.769,4211.026,4175.0,4153.077,4146.538,4184.615,4204.359,4181.538,4183.205,4183.846,4161.795,0,0
12,99,0,2882,4178.333,4172.0509999999995,4178.333,4185.769,4202.0509999999995,4185.385,4151.667,4135.513,4180.769,4190.513,4172.692,4172.0509999999995,4178.718,4151.795,0,0
13,100,0,2392,4168.718,4174.615,4173.205,4186.282,4199.744000000001,4186.538,4150.128,4140.641,4164.231,4192.692,4171.282,4159.872,4171.41,4140.897,0,0
14,101,0,3267,4159.744000000001,4165.0,4165.255999999999,4180.769,4207.9490000000005,4175.385,4143.846,4148.077,4168.077,4197.9490000000005,4166.923,4153.333,4172.0509999999995,4136.667,0,0
15,102,0,2987,4152.0509999999995,4156.41,4154.744000000001,4172.0509999999995,4212.0509999999995,4180.0,4139.872,4138.077,4191.667,4193.077,4158.077,4145.255999999999,4174.359,4131.026,0,0
16,103,0,2882,4152.0509999999995,4164.615,4152.436,4178.462,4198.077,4189.103,4140.513,4125.641,4188.59,4189.103,4153.462,4135.0,4169.231,4124.744000000001,0,0
17,104,0,2392,4157.692,4171.795,4156.026,4188.718,4197.564,4173.462,4139.872,4127.564,4157.564,4187.0509999999995,4162.0509999999995,4136.538,4167.821,4128.846,0,0
18,105,0,3267,4160.0,4169.615,4156.026,4185.641,4204.487,4150.0,4138.205,4128.718,4157.179,4170.641,4172.436,4142.436,4170.513,4136.41,0,0
19,106,0,2987,4160.641,4166.026,4151.667,4181.667,4197.821,4156.667,4137.9490000000005,4123.59,4169.615,4169.231,4167.9490000000005,4137.308,4170.513,4135.385,0,0
20,107,0,2882,4167.0509999999995,4159.872,4153.846,4184.231,4198.59,4183.205,4146.795,4133.59,4158.333,4203.846,4166.282,4141.795,4177.436,4136.923,0,0
21,108,0,2392,4171.795,4161.795,4160.641,4187.179,4197.821,4185.0,4156.538,4138.846,4161.923,4195.641,4170.769,4151.667,4182.9490000000005,4140.641,0,0
22,109,0,3267,4170.513,4172.436,4161.026,4189.231,4194.615,4163.333,4151.282,4125.897,4180.0,4169.103,4166.41,4146.538,4174.744000000001,4140.0,0,0
23,110,0,2987,4167.0509999999995,4170.641,4153.462,4187.436,4207.179,4154.359,4142.436,4123.205,4167.564,4193.205,4153.333,4137.308,4166.026,4135.897,0,0
24,111,0,2882,4165.0,4161.795,4152.692,4183.077,4210.641,4167.564,4143.59,4130.255999999999,4156.41,4200.897,4151.923,4139.487,4171.667,4130.897,0,0
25,112,0,2392,4167.692,4166.923,4160.255999999999,4186.667,4195.385,4179.744000000001,4141.795,4124.103,4181.538,4164.103,4162.692,4147.179,4173.077,4132.179,0,0
26,113,0,3267,4171.795,4173.846,4160.897,4189.615,4202.308,4177.564,4134.487,4120.769,4180.769,4160.897,4165.128,4153.333,4160.513,4137.9490000000005,0,0
27,114,0,2987,4168.974,4170.128,4159.615,4185.255999999999,4215.385,4169.231,4135.255999999999,4131.667,4151.282,4181.538,4164.231,4155.641,4156.795,4138.974,0,0
28,115,0,2882,4166.667,4167.821,4164.615,4184.615,4200.897,4166.538,4136.026,4131.923,4156.282,4169.615,4168.718,4154.359,4166.41,4139.872,0,0
29,116,0,2392,4177.692,4172.0509999999995,4170.0,4188.718,4188.333,4178.846,4138.718,4130.513,4185.128,4170.897,4173.333,4162.692,4174.103,4148.846,0,0
30,117,0,3267,4188.077,4176.923,4169.872,4191.026,4196.795,4187.179,4149.359,4138.718,4190.128,4198.59,4177.692,4171.41,4172.0509999999995,4155.769,0,0
31,118,0,2987,4180.769,4172.692,4165.0,4188.333,4197.692,4175.641,4156.41,4146.667,4175.255999999999,4198.333,4184.615,4168.718,4172.821,4154.103,0,0
32,119,0,2882,4176.923,4167.179,4165.641,4185.641,4191.667,4168.333,4156.41,4152.9490000000005,4183.59,4186.795,4183.333,4168.462,4185.897,4153.333,0,0
33,120,0,2392,4182.9490000000005,4167.179,4170.897,4188.59,4199.615,4172.308,4156.026,4155.641,4194.103,4189.359,4179.231,4173.205,4188.846,4156.538,0,0
34,121,0,3267,4177.821,4166.282,4165.385,4188.718,4199.872,4171.41,4155.769,4155.641,4178.59,4185.128,4181.538,4170.255999999999,4176.667,4153.462,0,0
35,122,0,2987,4165.385,4167.0509999999995,4155.513,4186.923,4195.897,4178.718,4152.436,4152.692,4174.231,4178.462,4171.026,4157.179,4167.564,4140.0,0,0
36,123,0,2882,4167.179,4172.308,4159.359,4193.974,4208.333,4188.59,4150.0,4149.231,4183.59,4189.103,4162.179,4152.179,4169.744000000001,4135.641,0,0
37,124,0,2392,4171.282,4174.231,4162.692,4198.59,4204.744000000001,4175.385,4146.667,4143.59,4175.0,4181.026,4171.667,4152.564,4172.436,4141.282,0,0
38,125,0,3267,4165.897,4169.359,4151.538,4188.205,4187.308,4167.821,4143.846,4140.385,4164.103,4159.615,4170.255999999999,4145.385,4168.974,4136.538,0,0
39,126,0,2987,4165.0,4170.641,4150.0,4182.0509999999995,4199.615,4180.0,4148.462,4146.154,4173.59,4171.41,4170.255999999999,4146.795,4169.872,4134.487,0,0
40,127,0,52,4172.564,4181.41,4163.974,4191.795,4210.385,4174.615,4155.769,4154.103,4185.897,4196.41,4184.359,4160.897,4179.231,4148.846,0,0
41,0,0,2155,4178.974,4185.769,4166.026,4195.641,4189.103,4162.564,4155.0,4156.667,4186.154,4200.0,4182.436,4164.487,4186.154,4151.154,0,0
42,1,0,2042,4184.103,4183.59,4161.667,4190.513,4183.333,4176.282,4153.077,4156.282,4188.462,4187.692,4176.538,4162.308,4186.538,4145.897,0,0
43,2,0,3394,4184.487,4179.103,4167.692,4188.718,4189.872,4183.718,4158.205,4157.308,4196.026,4194.615,4185.641,4166.41,4186.154,4152.179,0,0
44,3,0,3287,4178.846,4172.0509999999995,4170.0,4187.0509999999995,4184.487,4177.564,4159.359,4159.231,4192.0509999999995,4213.846,4189.487,4168.718,4186.282,4152.692,0,0
45,4,0,2731,4181.154,4171.538,4166.538,4191.667,4184.615,4182.692,4155.128,4157.0509999999995,4182.564,4206.538,4186.667,4168.205,4186.41,4148.462,0,0
46,5,0,2620,4184.103,4174.231,4168.333,4200.128,4194.103,4185.513,4155.128,4146.026,4188.718,4191.026,4181.41,4167.9490000000005,4187.821,4151.282,0,0
47,6,0,2362,4173.59,4171.795,4166.667,4198.974,4195.897,4188.333,4162.821,4136.667,4202.692,4196.41,4174.872,4166.667,4187.9490000000005,4152.308,0,0
48,7,0,2962,4169.359,4170.385,4158.462,4196.41,4194.231,4197.308,4169.744000000001,4140.897,4200.769,4195.769,4181.538,4167.564,4189.103,4152.308,0,0
49,8,0,2400,4175.897,4177.821,4156.154,4203.59,4202.0509999999995,4189.487,4167.0509999999995,4139.744000000001,4185.641,4185.128,4186.154,4160.513,4184.615,4152.179,0,0
50,9,0,3524,4165.255999999999,4172.564,4151.795,4200.641,4193.718,4179.231,4160.0,4128.974,4171.154,4188.718,4164.872,4139.744000000001,4169.872,4135.513,0,0
51,10,0,2971,4146.41,4155.0,4144.103,4186.923,4176.026,4190.0,4154.872,4128.846,4163.974,4182.436,4151.41,4129.487,4163.077,4118.077,0,0
52,11,0,2877,4156.282,4159.103,4147.564,4185.0,4178.462,4197.179,4156.282,4137.564,4168.333,4175.128,4163.205,4137.821,4172.436,4121.923,0,0
53,12,0,2383,4170.0,4168.974,4153.718,4187.821,4189.359,4186.923,4158.333,4140.513,4173.077,4185.128,4170.641,4142.0509999999995,4177.821,4128.333,0,0
54,13,0,3267,4159.872,4156.282,4149.744000000001,4184.872,4190.385,4175.897,4159.615,4139.359,4169.103,4185.641,4169.231,4139.615,4170.128,4124.487,0,0
55,14,0,2971,4157.564,4150.0,4147.692,4184.872,4178.462,4174.744000000001,4164.487,4134.359,4166.154,4181.667,4169.615,4146.026,4170.385,4128.333,0,0
56,15,0,2877,4166.795,4159.872,4152.564,4186.667,4167.564,4182.9490000000005,4168.974,4123.974,4172.436,4184.231,4169.103,4153.333,4181.282,4135.513,0,0
57,16,0,0,4162.821,4157.692,4154.487,4185.255999999999,4174.231,4189.359,4168.718,4117.436,4180.255999999999,4188.333,4170.0,4152.9490000000005,4186.795,4134.103,0,0
58,17,0,0,4160.513,4150.641,4153.59,4187.564,4190.255999999999,4190.513,4168.846,4120.769,4172.9490000000005,4185.769,4176.154,4153.846,4185.513,4132.9490000000005,0,0
59,18,0,0,4163.846,4154.872,4153.077,4187.821,4178.462,4190.385,4165.641,4122.179,4164.103,4180.769,4174.744000000001,4153.59,4178.59,4135.897,0,0
60,19,0,0,4156.41,4161.795,4153.333,4185.513,4164.103,4179.231,4155.769,4118.846,4173.333,4188.333,4165.513,4151.282,4171.795,4135.641,0,0
61,20,0,0,4157.821,4167.564,4154.487,4194.231,4176.282,4172.564,4152.821,4121.667,4187.0509999999995,4186.667,4177.692,4156.538,4178.205,4137.0509999999995,0,0
62,21,0,0,4165.128,4162.436,4155.255999999999,4199.359,4183.846,4184.487,4156.026,4125.385,4186.282,4181.41,4191.538,4161.538,4183.846,4142.0509999999995,0,0
63,22,0,0,4155.513,4148.205,4151.282,4187.308,4177.821,4191.154,4153.205,4121.538,4180.255999999999,4213.205,4176.282,4154.615,4174.615,4138.205,0,0
64,23,0,0,4158.333,4158.718,4152.308,4186.154,4175.255999999999,4186.282,4153.974,4120.769,4180.897,4230.769,4166.538,4151.667,4171.538,4133.974,0,0
65,24,0,0,4172.0509999999995,4176.41,4156.923,4203.333,4172.9490000000005,4176.154,4157.0509999999995,4123.205,4172.821,4187.436,4182.692,4157.0509999999995,4174.359,4137.564,0,0
66,25,0,0,4161.923,4162.436,4154.103,4203.077,4169.487,4168.846,4155.128,4115.255999999999,4163.333,4164.615,4184.487,4155.769,4168.333,4137.9490000000005,0,0
67,26,0,0,4151.41,4145.0,4152.436,4188.205,4167.821,4172.179,4156.026,4109.359,4173.846,4196.667,4170.385,4150.513,4168.462,4132.436,0,0
68,27,0,0,4156.795,4153.205,4155.769,4191.538,4167.436,4181.667,4157.9490000000005,4113.974,4181.154,4200.641,4169.744000000001,4148.846,4170.385,4126.282,0,0
69,28,0,0,4160.897,4159.231,4158.59,4202.179,4167.0509999999995,4189.872,4155.897,4120.513,4176.923,4174.615,4172.0509999999995,4150.769,4166.282,4128.846,0,0
70,29,0,0,4165.255999999999,4152.821,4161.795,4200.255999999999,4172.9490000000005,4175.897,4155.385,4127.692,4178.59,4176.026,4166.923,4153.333,4166.41,4136.282,0,0
71,30,0,0,4174.231,4161.667,4168.333,4197.692,4178.974,4158.462,4155.513,4135.769,4184.359,4188.205,4175.897,4155.769,4171.538,4138.59,0,0
72,31,0,0,4173.333,4169.615,4170.0,4201.795,4167.564,4172.0509999999995,4153.077,4138.846,4185.513,4200.255999999999,4188.846,4157.179,4172.9490000000005,4139.359,0,0
73,32,0,0,4166.795,4156.795,4162.821,4200.0,4168.462,4193.333,4152.692,4135.0,4186.41,4201.538,4180.641,4154.615,4171.667,4135.255999999999,0,0
74,33,0,0,4168.333,4152.179,4162.692,4197.692,4184.231,4190.641,4155.385,4133.846,4183.846,4187.0509999999995,4175.641,4153.077,4175.641,4131.026,0,0
75,34,0,0,4167.692,4157.9490000000005,4166.41,4201.026,4178.846,4181.667,4155.769,4137.564,4184.359,4188.718,4181.41,4154.872,4182.179,4134.744000000001,0,0
76,35,0,0,4159.487,4154.103,4163.59,4200.0,4165.769,4176.026,4152.179,4137.0509999999995,4193.077,4204.744000000001,4174.359,4154.231,4182.436,4136.282,0,0
77,36,0,0,4153.846,4147.9490000000005,4160.255999999999,4196.795,4166.538,4167.821,4150.513,4136.923,4193.077,4208.718,4173.333,4155.385,4183.205,4132.179,0,0
78,37,0,0,4156.026,4151.667,4158.462,4199.615,4172.9490000000005,4174.359,4154.487,4140.128,4187.692,4203.718,4189.359,4160.769,4190.0,4134.872,0,0
79,38,0,0,4155.641,4146.026,4155.769,4201.154,4167.436,4176.41,4156.154,4139.487,4184.615,4192.9490000000005,4189.231,4159.231,4191.026,4137.692,0,0
80,39,0,0,4155.513,4135.897,4159.615,4197.436,4159.872,4165.385,4154.359,4139.744000000001,4187.692,4176.026,4177.821,4160.0,4187.436,4134.231,0,0
81,40,0,0,4164.744000000001,4146.795,4169.487,4200.0,4164.615,4171.41,4153.974,4147.179,4186.667,4190.769,4185.128,4170.897,4189.103,4137.821,0,0
82,41,0,0,4168.974,4159.359,4168.333,4204.872,4174.359,4178.077,4151.41,4142.436,4174.872,4212.436,4188.205,4166.538,4185.385,4141.154,0,0
83,42,0,0,4165.513,4152.308,4165.128,4201.923,4169.359,4165.897,4151.538,4133.974,4181.538,4190.897,4181.026,4156.923,4181.41,4136.41,0,0
84,43,0,0,4168.974,4156.538,4169.744000000001,4204.359,4165.128,4164.615,4157.179,4148.462,4187.436,4184.103,4185.255999999999,4167.0509999999995,4186.282,4141.154,0,0
85,44,0,0,4174.744000000001,4172.436,4172.564,4214.359,4177.308,4188.974,4156.026,4158.205,4170.128,4214.103,4186.667,4172.308,4192.436,4150.255999999999,0,0
86,45,0,0,4172.308,4170.0,4171.41,4216.154,4190.0,4189.615,4149.359,4142.692,4170.128,4210.897,4173.718,4159.744000000001,4184.103,4145.769,0,0
87,46,0,0,4167.436,4164.872,4169.359,4213.333,4191.538,4170.385,4150.897,4131.41,4194.872,4173.077,4165.128,4152.821,4169.744000000001,4134.615,0,0
88,47,0,0,4166.667,4167.564,4169.359,4215.385,4175.128,4185.897,4155.769,4135.0,4192.821,4168.077,4173.846,4155.0,4173.974,4134.231,0,0
89,48,0,0,4168.333,4158.718,4170.641,4216.41,4166.282,4196.41,4154.872,4142.308,4161.667,4192.436,4187.436,4162.308,4187.436,4139.359,0,0
90,49,0,0,4170.0,4156.538,4171.923,4218.718,4186.667,4163.846,4155.0,4147.821,4150.897,4192.0509999999995,4187.436,4168.718,4186.154,4140.255999999999,0,0
91,50,0,0,4168.718,4170.769,4173.205,4223.077,4192.821,4165.128,4158.59,4143.974,4170.0,4185.255999999999,4172.179,4159.744000000001,4178.59,4137.436,0,0
92,51,0,0,4162.9490000000005,4166.923,4170.128,4215.513,4169.744000000001,4205.0,4157.564,4131.154,4185.513,4193.077,4167.9490000000005,4149.744000000001,4181.026,4135.769,0,0
93,52,0,0,4166.41,4162.179,4171.923,4213.846,4168.462,4181.41,4156.41,4130.769,4186.026,4190.641,4185.769,4160.897,4187.9490000000005,4145.128,0,0
94,53,0,0,4181.154,4182.692,4180.0,4227.692,4182.179,4135.513,4152.9490000000005,4134.615,4165.128,4186.795,4188.974,4168.974,4186.026,4157.564,0,0
95,54,0,0,4181.282,4184.231,4178.59,4226.667,4172.179,4156.923,4139.103,4125.897,4126.795,4186.538,4173.077,4157.308,4173.077,4152.564,0,0
96,55,0,0,4169.487,4162.821,4167.179,4211.026,4163.846,4183.077,4134.487,4118.205,4127.821,4177.0509999999995,4168.077,4146.41,4163.077,4138.974,0,0
97,56,0,0,4176.538,4173.59,4172.0509999999995,4215.897,4172.436,4155.897,4149.231,4127.436,4176.538,4176.41,4178.205,4150.641,4173.462,4144.359,0,0
98,57,0,0,4188.718,4196.026,4187.0509999999995,4229.872,4169.359,4149.744000000001,4157.0509999999995,4143.974,4198.462,4187.821,4186.282,4159.359,4186.795,4155.641,0,0
99,58,0,0,4176.923,4176.282,4183.333,4222.821,4152.9490000000005,4184.487,4151.923,4147.564,4178.846,4187.308,4184.359,4158.077,4181.538,4147.692,0,0
100,59,0,0,4167.564,4161.154,4176.795,4215.385,4157.436,4192.436,4152.564,4145.897,4168.846,4183.846,4181.282,4153.846,4172.436,4138.974,0,0
101,60,0,0,4177.436,4178.59,4179.103,4220.0,4172.564,4171.795,4155.769,4147.692,4177.821,4178.59,4185.128,4156.667,4173.462,4142.692,0,0
102,61,0,0,4171.667,4178.077,4174.487,4218.333,4171.667,4167.821,4153.205,4141.923,4185.769,4157.436,4183.333,4155.255999999999,4174.103,4139.872,0,0
103,62,0,0,4156.923,4163.462,4167.0509999999995,4213.846,4163.462,4182.564,4151.154,4131.667,4186.923,4149.872,4171.538,4148.59,4169.103,4127.564,0,0
104,63,0,0,4163.077,4169.872,4170.255999999999,4216.282,4165.897,4182.692,4154.615,4135.897,4180.255999999999,4162.9490000000005,4167.0509999999995,4150.128,4168.077,4125.897,0,0
105,64,0,2154,4168.205,4174.872,4174.615,4217.308,4176.154,4175.769,4155.641,4138.205,4175.769,4162.0509999999995,4172.436,4150.897,4166.282,4129.231,0,0
106,65,0,2047,4154.744000000001,4159.103,4167.821,4212.821,4175.897,4170.385,4147.692,4122.179,4167.9490000000005,4144.487,4171.795,4143.846,4160.641,4122.436,0,0
107,66,0,3394,4153.59,4154.359,4166.538,4211.667,4164.359,4170.128,4145.513,4120.641,4168.333,4145.255999999999,4169.615,4147.308,4163.846,4122.436,0,0
108,67,0,3299,4169.744000000001,4164.872,4177.692,4213.718,4162.179,4177.436,4155.769,4138.59,4182.9490000000005,4168.077,4169.359,4157.564,4171.923,4135.128,0,0
109,68,0,2733,4174.615,4171.282,4183.846,4218.333,4174.872,4179.615,4161.795,4143.846,4186.026,4172.308,4169.487,4158.718,4172.692,4138.077,0,0
110,69,0,2639,4168.718,4171.667,4176.538,4218.846,4176.154,4181.026,4160.128,4137.9490000000005,4175.255999999999,4158.205,4178.462,4160.128,4170.513,4130.641,0,0
111,70,0,2363,4164.231,4163.974,4169.744000000001,4216.026,4167.0509999999995,4181.538,4158.462,4138.59,4167.9490000000005,4153.205,4182.179,4165.128,4175.128,4130.385,0,0
112,71,0,2964,4168.077,4168.333,4178.718,4225.128,4171.154,4188.205,4160.769,4140.0,4184.615,4158.846,4177.9490000000005,4167.179,4183.462,4137.179,0,0
113,72,0,2383,4177.564,4179.487,4186.41,4237.0509999999995,4173.974,4198.462,4163.974,4138.974,4207.821,4170.641,4181.795,4170.255999999999,4187.308,4142.564,0,0
114,73,0,3531,4175.769,4167.9490000000005,4176.923,4233.205,4167.821,4188.333,4160.385,4140.769,4198.205,4182.0509999999995,4180.897,4171.538,4183.333,4140.897,0,0
115,74,0,2968,4166.667,4156.026,4168.846,4228.974,4171.154,4166.923,4152.821,4140.385,4179.744000000001,4181.154,4176.795,4165.385,4183.974,4134.103,0,0
116,75,0,2875,4165.385,4165.897,4170.769,4233.718,4172.0509999999995,4174.487,4150.255999999999,4136.923,4182.692,4163.846,4181.154,4161.667,4186.667,4132.9490000000005,0,0
117,76,0,2383,4167.692,4170.513,4172.0509999999995,4232.821,4158.077,4183.718,4150.385,4134.615,4185.897,4153.205,4177.821,4164.231,4177.9490000000005,4136.667,0,0
118,77,0,3266,4170.128,4164.872,4175.641,4229.103,4151.923,4163.333,4151.667,4140.255999999999,4191.282,4170.513,4170.897,4167.436,4173.59,4138.59,0,0
119,78,0,2968,4173.077,4170.385,4182.9490000000005,4232.564,4153.974,4161.282,4156.41,4146.538,4201.154,4187.308,4187.308,4173.333,4184.487,4141.667,0,0
120,79,0,2875,4165.128,4172.0509999999995,4177.436,4232.308,4157.308,4178.205,4156.538,4140.385,4192.308,4166.923,4191.026,4168.974,4188.974,4139.359,0,0
121,80,0,2383,4152.436,4167.436,4167.9490000000005,4228.077,4161.41,4173.846,4152.821,4140.385,4186.282,4155.641,4169.359,4155.255999999999,4183.462,4132.821,0,0
122,81,0,3266,4152.308,4167.9490000000005,4170.0,4228.462,4155.641,4180.128,4154.744000000001,4154.231,4201.154,4180.769,4171.41,4153.974,4184.744000000001,4133.077,0,0
123,82,0,2968,4155.641,4165.897,4170.128,4229.359,4156.026,4198.846,4158.205,4158.205,4201.795,4169.872,4188.077,4159.231,4184.359,4130.769,0,0
124,83,0,2875,4153.59,4169.231,4168.077,4228.846,4173.718,4181.282,4154.744000000001,4150.641,4178.846,4147.9490000000005,4181.154,4154.744000000001,4179.487,4122.9490000000005,0,0
125,84,0,2383,4152.179,4173.077,4170.769,4230.769,4173.846,4163.462,4152.692,4150.513,4173.974,4166.667,4169.615,4152.564,4183.333,4127.821,0,0
126,85,0,3266,4157.692,4171.026,4173.462,4233.974,4154.487,4185.128,4160.769,4152.436,4192.436,4179.487,4174.103,4158.59,4183.718,4135.385,0,0
127,86,0,2968,4167.821,4176.667,4178.205,4235.897,4155.641,4201.154,4168.462,4151.026,4205.897,4177.436,4185.513,4164.615,4182.564,4137.821,0,0
128,87,0,2875,4175.0,4187.564,4184.231,4236.923,4170.385,4187.564,4169.744000000001,4155.769,4197.821,4173.333,4193.462,4173.846,4190.769,4149.103,0,0
129,88,0,2383,4173.974,4188.846,4183.718,4235.769,4170.769,4179.615,4168.974,4158.59,4184.359,4155.128,4192.692,4175.128,4193.846,4154.872,0,0
130,89,0,3266,4167.821,4182.0509999999995,4174.359,4231.923,4165.385,4189.744000000001,4166.923,4152.308,4190.0,4147.564,4184.231,4159.103,4186.41,4140.897,0,0
131,90,0,2968,4165.255999999999,4180.385,4168.333,4230.641,4165.897,4189.359,4165.255999999999,4152.9490000000005,4201.41,4172.308,4178.077,4150.128,4184.872,4130.897,0,0
132,91,0,2875,4172.0509999999995,4185.255999999999,4177.179,4233.59,4169.744000000001,4182.179,4166.795,4165.255999999999,4203.333,4180.128,4186.538,4165.385,4190.0,4142.564,0,0
133,92,0,2383,4170.513,4185.128,4181.538,4233.846,4171.795,4188.077,4166.41,4166.026,4199.359,4157.436,4189.872,4172.179,4187.821,4144.103,0,0
134,93,0,3266,4154.744000000001,4174.103,4169.744000000001,4229.359,4166.282,4189.872,4163.718,4149.103,4194.231,4153.333,4173.846,4153.462,4181.923,4127.0509999999995,0,0
135,94,0,2968,4156.667,4172.436,4169.103,4229.487,4163.974,4169.872,4166.923,4149.103,4197.0509999999995,4164.103,4171.41,4151.538,4182.692,4126.41,0,0
136,95,0,2875,4172.9490000000005,4187.9490000000005,4181.154,4233.205,4170.769,4166.538,4172.436,4168.846,4208.462,4181.282,4186.538,4171.923,4187.308,4140.769,0,0
137,96,0,2383,4168.718,4185.513,4178.205,4231.795,4168.462,4198.718,4173.205,4173.077,4218.333,4189.872,4188.59,4172.9490000000005,4195.255999999999,4142.564,0,0
138,97,0,3266,4157.0509999999995,4170.513,4168.077,4229.231,4154.487,4204.231,4169.103,4165.0,4216.41,4172.179,4179.744000000001,4159.231,4200.641,4135.128,0,0
139,98,0,2968,4154.872,4174.487,4167.308,4230.255999999999,4149.872,4177.564,4165.255999999999,4165.128,4204.231,4157.821,4181.795,4155.385,4196.41,4135.769,0,0
140,99,0,2875,4153.333,4182.9490000000005,4169.744000000001,4230.255999999999,4166.282,4178.718,4166.026,4170.385,4201.667,4161.795,4182.821,4156.41,4191.026,4137.308,0,0
141,100,0,2383,4163.846,4183.333,4174.487,4230.513,4172.0509999999995,4191.026,4170.897,4173.077,4217.564,4170.0,4183.333,4160.513,4193.333,4139.487,0,0
142,101,0,3266,4171.282,4184.872,4174.615,4232.692,4152.0509999999995,4181.282,4172.179,4172.179,4218.333,4165.385,4186.795,4162.179,4192.821,4141.282,0,0
143,102,0,2968,4156.795,4184.744000000001,4167.0509999999995,4230.769,4144.487,4181.923,4169.359,4166.795,4195.641,4162.179,4177.821,4153.59,4185.0,4135.255999999999,0,0
144,103,0,2875,4154.487,4183.462,4167.9490000000005,4229.744000000001,4163.718,4182.9490000000005,4171.026,4165.385,4197.0509999999995,4171.923,4173.718,4151.026,4184.615,4136.538,0,0
145,104,0,2383,4169.615,4190.769,4174.744000000001,4233.974,4170.0,4164.872,4171.795,4169.872,4212.692,4171.667,4183.333,4158.077,4188.205,4143.718,0,0
146,105,0,3266,4171.795,4188.718,4172.564,4233.205,4153.846,4164.744000000001,4166.154,4164.744000000001,4203.205,4163.59,4186.282,4156.923,4187.564,4142.692,0,0
147,106,0,2968,4163.333,4181.154,4168.974,4228.333,4149.872,4189.615,4165.641,4158.718,4196.282,4166.538,4180.769,4152.308,4188.205,4141.026,0,0
148,107,0,2875,4159.359,4193.077,4169.744000000001,4228.462,4157.436,4192.564,4170.769,4159.103,4200.128,4166.795,4182.692,4150.769,4185.128,4142.308,0,0
149,108,0,2383,4160.385,4198.462,4168.205,4228.974,4163.077,4168.333,4167.692,4156.667,4195.255999999999,4160.769,4184.103,4148.333,4180.0,4143.333,0,0
150,109,0,3266,4168.077,4181.154,4168.077,4226.41,4158.462,4163.846,4165.513,4161.41,4204.615,4177.821,4181.795,4155.769,4190.128,4150.255999999999,0,0
151,110,0,2968,4173.846,4176.923,4178.333,4227.9490000000005,4142.821,4193.077,4176.667,4171.795,4217.436,4198.205,4188.205,4169.359,4199.487,4158.974,0,0
152,111,0,2875,4172.821,4191.282,4183.205,4230.897,4144.359,4208.205,4181.795,4171.154,4207.308,4187.179,4192.436,4175.128,4191.154,4158.974,0,0
153,112,0,2383,4168.205,4192.179,4173.718,4230.641,4160.385,4190.0,4174.487,4166.282,4202.179,4177.0509999999995,4186.282,4168.077,4183.846,4151.026,0,0
154,113,0,3266,4160.897,4182.564,4168.974,4230.897,4161.41,4181.538,4165.128,4167.308,4210.128,4186.795,4184.231,4158.846,4186.538,4150.0,0,0
155,114,0,2968,4159.487,4182.436,4173.974,4231.923,4152.9490000000005,4183.077,4156.923,4160.128,4204.231,4182.308,4186.795,4156.667,4183.462,4161.026,0,0
156,115,0,2875,4166.026,4187.564,4174.231,4230.897,4152.821,4171.667,4157.821,4155.0,4196.41,4159.744000000001,4183.974,4158.59,4178.974,4172.821,0,0
157,116,0,2383,4164.487,4187.564,4172.308,4229.615,4157.692,4179.872,4166.923,4164.487,4200.128,4157.564,4180.897,4156.282,4182.821,4171.282,0,0
158,117,0,3266,4157.821,4186.538,4173.462,4230.897,4159.359,4199.359,4169.359,4168.462,4208.718,4174.872,4179.872,4153.333,4183.333,4161.923,0,0
159,118,0,2968,4156.795,4189.359,4172.564,4233.333,4158.59,4187.564,4166.923,4167.179,4211.41,4170.641,4180.128,4154.872,4181.667,4157.692,0,0
160,119,0,2875,4159.487,4183.333,4176.41,4229.615,4155.769,4174.615,4173.846,4171.795,4203.974,4163.333,4180.255999999999,4155.385,4184.103,4156.282,0,0
161,120,0,2383,4162.692,4177.0509999999995,4184.231,4225.769,4149.231,4194.487,4179.615,4171.282,4205.385,4175.255999999999,4177.821,4157.692,4186.154,4156.154,0,0
162,121,0,3266,4169.359,4186.923,4185.385,4231.923,4146.667,4203.846,4176.41,4167.0509999999995,4217.9490000000005,4166.41,4183.974,4167.564,4187.564,4163.462,0,0
163,122,0,2968,4174.872,4187.436,4183.846,4236.795,4152.308,4186.154,4172.179,4173.077,4213.333,4150.0,4190.0,4173.077,4188.59,4167.692,0,0
164,123,0,2875,4166.667,4167.564,4184.487,4230.897,4156.667,4182.0509999999995,4171.41,4174.744000000001,4201.667,4158.205,4180.897,4168.846,4185.897,4161.026,0,0
165,124,0,2383,4157.9490000000005,4170.0,4181.026,4226.538,4154.872,4192.9490000000005,4171.026,4158.077,4201.667,4157.821,4172.0509999999995,4161.154,4176.154,4154.359,0,0
166,125,0,3266,4160.513,4186.538,4177.436,4232.0509999999995,4151.538,4194.744000000001,4168.462,4148.718,4200.0,4149.103,4169.615,4154.487,4169.359,4154.103,0,0
167,126,0,2968,4162.564,4176.026,4178.974,4230.641,4152.436,4195.0,4170.255999999999,4162.564,4201.667,4156.667,4167.692,4154.103,4173.333,4154.744000000001,0,0
168,127,0,52,4153.59,4163.718,4174.615,4220.513,4158.205,4196.154,4173.077,4164.615,4202.179,4151.795,4173.462,4152.308,4173.205,4150.513,0,0
169,0,0,2157,4142.692,4173.333,4165.897,4223.333,4160.385,4188.205,4170.385,4147.564,4191.282,4132.436,4171.41,4141.026,4170.385,4141.026,0,0
170,1,0,2047,4142.9490000000005,4176.923,4166.923,4231.41,4148.718,4184.103,4167.9490000000005,4146.282,4192.564,4139.744000000001,4160.513,4141.923,4176.282,4139.231,0,0
171,2,0,3399,4142.692,4167.179,4171.795,4220.769,4138.846,4190.255999999999,4168.718,4155.255999999999,4194.744000000001,4157.9490000000005,4167.436,4149.744000000001,4175.641,4144.359,0,0
172,3,0,3314,4143.205,4167.0509999999995,4168.846,4215.897,4137.308,4192.9490000000005,4167.564,4155.385,4186.026,4150.255999999999,4178.205,4148.462,4168.974,4146.923,0,0
173,4,0,2760,4147.692,4169.231,4168.59,4224.872,4134.744000000001,4186.41,4167.0509999999995,4161.282,4193.077,4143.462,4170.255999999999,4147.821,4180.255999999999,4150.128,0,0
174,5,0,2621,4145.128,4167.0509999999995,4171.026,4224.359,4137.564,4181.795,4170.255999999999,4169.615,4205.513,4155.897,4165.769,4145.385,4187.179,4147.9490000000005,0,0
175,6,0,2364,4142.179,4171.41,4170.128,4226.026,4141.795,4195.641,4170.128,4165.385,4198.974,4153.077,4171.923,4141.795,4175.255999999999,4140.769,0,0
176,7,0,2956,4147.179,4168.846,4171.667,4230.128,4141.282,4208.974,4170.513,4168.846,4201.282,4138.718,4173.59,4149.872,4179.744000000001,4145.255999999999,0,0
177,8,0,2393,4142.308,4153.462,4169.359,4219.487,4138.974,4193.462,4171.795,4173.462,4207.9490000000005,4138.333,4172.0509999999995,4147.9490000000005,4189.487,4145.0,0,0
178,9,0,3480,4125.128,4150.641,4157.821,4214.615,4138.333,4181.282,4164.615,4155.897,4189.744000000001,4137.179,4169.872,4125.897,4174.615,4126.667,0,0
179,10,0,2969,4121.026,4158.846,4151.795,4221.923,4139.103,4195.513,4156.41,4145.255999999999,4181.667,4134.615,4163.59,4117.436,4163.59,4118.333,0,0
180,11,0,2880,4122.692,4149.231,4154.615,4215.0,4132.692,4199.744000000001,4157.821,4156.41,4194.103,4136.667,4152.179,4122.436,4177.9490000000005,4122.9490000000005,0,0
181,12,0,2386,4119.231,4144.615,4153.462,4211.795,4126.026,4181.154,4155.255999999999,4151.41,4193.077,4128.59,4150.641,4121.538,4184.359,4122.0509999999995,0,0
182,13,0,3266,4122.179,4162.308,4152.692,4223.718,4132.692,4174.103,4146.026,4136.667,4183.59,4128.205,4166.154,4121.795,4173.718,4122.436,0,0
183,14,0,2969,4125.0,4163.974,4156.282,4220.255999999999,4140.897,4180.641,4147.692,4144.359,4184.103,4131.154,4175.513,4124.615,4175.0,4125.385,0,0
184,15,0,2880,4120.255999999999,4146.41,4153.846,4212.564,4128.462,4182.9490000000005,4157.9490000000005,4160.0,4191.795,4115.255999999999,4176.923,4126.795,4185.513,4125.641,0,0
185,16,0,0,4107.436,4136.154,4142.564,4211.026,4112.564,4182.821,4157.692,4157.821,4193.718,4111.538,4170.0,4119.231,4180.255999999999,4116.026,0,0
186,17,0,0,4095.385,4137.179,4136.282,4210.385,4118.718,4177.821,4150.769,4149.359,4195.128,4128.718,4153.077,4101.667,4166.026,4102.564,0,0
187,18,0,0,4101.282,4135.513,4143.59,4213.205,4125.513,4174.872,4156.282,4157.179,4202.436,4141.154,4155.128,4107.179,4170.513,4109.359,0,0
188,19,0,0,4108.077,4125.385,4147.692,4210.513,4111.667,4183.205,4164.231,4171.667,4201.154,4142.692,4174.872,4125.769,4183.974,4122.308,0,0
189,20,0,0,4102.308,4124.103,4145.385,4204.487,4110.128,4190.641,4159.487,4172.821,4194.872,4127.692,4179.872,4121.282,4188.974,4118.333,0,0
190,21,0,0,4109.744000000001,4143.59,4150.513,4209.615,4127.564,4187.436,4153.846,4166.282,4200.128,4123.59,4170.769,4112.9490000000005,4188.205,4116.154,0,0
191,22,0,0,4127.821,4164.359,4158.462,4225.0,4126.795,4184.103,4158.59,4168.462,4207.179,4145.385,4166.154,4129.359,4185.513,4129.103,0,0
192,23,0,0,4128.718,4159.872,4157.692,4227.821,4125.128,4186.667,4164.487,4173.59,4202.179,4150.255999999999,4172.179,4142.821,4186.667,4139.744000000001,0,0
193,24,0,0,4121.795,4146.538,4152.308,4216.923,4132.436,4185.641,4161.154,4169.103,4197.564,4129.744000000001,4183.462,4130.641,4188.462,4135.128,0,0
194,25,0,0,4123.333,4148.462,4150.641,4212.9490000000005,4124.615,4181.282,4153.974,4166.538,4200.769,4132.179,4187.692,4117.564,4185.769,4124.103,0,0
195,26,0,0,4123.333,4150.641,4153.462,4221.026,4116.154,4178.333,4152.0509999999995,4171.282,4201.923,4150.255999999999,4181.41,4122.179,4182.9490000000005,4123.205,0,0
196,27,0,0,4118.333,4143.333,4151.795,4220.385,4122.692,4182.308,4157.308,4173.846,4200.0,4137.564,4173.077,4128.974,4184.872,4127.436,0,0
197,28,0,0,4109.103,4135.0,4140.897,4202.179,4123.59,4184.359,4159.103,4168.077,4197.179,4121.667,4167.0509999999995,4122.692,4183.846,4117.308,0,0
198,29,0,0,4106.923,4134.615,4141.41,4201.795,4113.718,4178.974,4155.641,4163.974,4200.769,4136.154,4172.692,4115.513,4181.282,4108.846,0,0
199,30,0,0,4120.0,4142.308,4154.359,4220.0,4113.974,4176.282,4155.513,4167.692,4200.897,4145.897,4183.846,4126.154,4182.692,4121.667,0,0
200,31,0,0,4126.667,4150.513,4155.897,4218.59,4121.667,4175.255999999999,4159.103,4169.359,4188.59,4123.077,4182.436,4136.923,4182.564,4127.821,0,0
201,32,0,0,4127.9490000000005,4156.538,4153.846,4210.0,4125.769,4179.359,4166.41,4168.077,4188.077,4116.41,4183.077,4137.564,4181.795,4123.205,0,0
202,33,0,0,4134.487,4153.205,4159.103,4217.179,4120.897,4188.974,4171.41,4170.255999999999,4203.333,4142.436,4190.641,4138.59,4185.897,4127.821,0,0
203,34,0,0,4127.821,4143.846,4155.513,4216.795,4123.205,4183.462,4165.255999999999,4166.923,4205.255999999999,4140.385,4188.205,4131.282,4187.179,4127.436,0,0
204,35,0,0,4113.077,4138.462,4146.923,4201.538,4126.923,4171.667,4160.128,4163.718,4196.154,4121.41,4181.41,4117.564,4183.59,4115.255999999999,0,0
205,36,0,0,4117.564,4142.564,4151.154,4206.41,4112.9490000000005,4180.255999999999,4166.41,4176.026,4201.538,4129.615,4183.333,4124.744000000001,4185.128,4120.513,0,0
206,37,0,0,4127.0509999999995,4146.538,4156.538,4219.103,4113.846,4189.744000000001,4171.667,4180.128,4206.795,4148.974,4188.846,4140.255999999999,4186.667,4134.872,0,0
207,38,0,0,4119.744000000001,4137.0509999999995,4152.308,4207.436,4122.308,4183.974,4167.692,4166.923,4199.231,4132.564,4186.41,4136.282,4181.154,4126.795,0,0
208,39,0,0,4116.026,4134.615,4150.769,4196.282,4111.795,4184.359,4165.897,4171.154,4199.615,4116.795,4179.872,4133.077,4181.026,4120.0,0,0
209,40,0,0,4128.59,4146.923,4155.513,4207.9490000000005,4114.744000000001,4187.179,4168.205,4185.513,4206.026,4146.41,4182.179,4140.385,4187.308,4135.385,0,0
210,41,0,0,4137.9490000000005,4152.179,4155.641,4216.282,4130.255999999999,4180.897,4163.974,4179.231,4204.872,4155.255999999999,4194.231,4141.923,4187.0509999999995,4144.744000000001,0,0
211,42,0,0,4137.436,4148.974,4158.077,4212.821,4122.821,4180.0,4163.077,4175.513,4202.436,4135.0,4202.436,4146.154,4186.795,4140.385,0,0
212,43,0,0,4137.308,4151.154,4165.255999999999,4211.026,4111.923,4184.103,4165.128,4182.0509999999995,4201.923,4144.359,4198.846,4152.0509999999995,4189.744000000001,4140.128,0,0
213,44,0,0,4142.564,4157.308,4168.205,4213.205,4126.538,4186.026,4158.59,4181.538,4201.282,4163.077,4198.974,4152.821,4189.744000000001,4149.231,0,0
214,45,0,0,4146.282,4158.205,4167.308,4213.846,4132.692,4183.59,4150.513,4182.0509999999995,4203.59,4144.744000000001,4205.0,4152.308,4190.128,4153.077,0,0
215,46,0,0,4142.821,4155.513,4167.0509999999995,4218.59,4115.128,4175.769,4149.744000000001,4181.667,4203.205,4117.9490000000005,4196.154,4147.692,4189.231,4143.59,0,0
216,47,0,0,4138.846,4151.538,4168.077,4224.231,4108.718,4175.128,4152.564,4181.154,4201.667,4130.769,4182.9490000000005,4145.641,4186.282,4136.026,0,0
217,48,0,0,4139.744000000001,4153.974,4167.0509999999995,4219.231,4124.615,4186.154,4156.795,4181.795,4204.487,4161.41,4191.41,4151.282,4186.154,4145.128,0,0
218,49,0,0,4141.154,4162.821,4163.205,4213.205,4127.564,4187.0509999999995,4159.231,4172.0509999999995,4202.0509999999995,4155.769,4202.821,4149.615,4182.308,4150.897,0,0
219,50,0,0,4138.846,4158.846,4159.103,4215.641,4106.538,4172.821,4154.744000000001,4158.205,4196.154,4123.205,4197.179,4139.744000000001,4176.538,4142.308,0,0
220,51,0,0,4138.59,4151.667,4157.179,4217.179,4103.462,4166.41,4150.128,4161.026,4197.9490000000005,4119.359,4193.846,4139.487,4180.385,4138.846,0,0
221,52,0,0,4138.333,4153.205,4156.923,4211.667,4125.385,4169.744000000001,4148.846,4167.564,4200.769,4137.692,4199.231,4140.769,4185.385,4144.359,0,0
222,53,0,0,4137.0509999999995,4152.0509999999995,4162.9490000000005,4211.923,4127.0509999999995,4170.255999999999,4150.255999999999,4167.436,4200.769,4148.333,4194.872,4141.41,4184.231,4151.026,0,0
223,54,0,0,4142.179,4154.872,4167.9490000000005,4220.513,4112.308,4173.718,4153.333,4175.385,4202.692,4153.718,4179.744000000001,4153.462,4183.974,4155.513,0,0
224,55,0,0,4141.795,4161.667,4157.9490000000005,4217.436,4112.308,4178.462,4151.923,4180.128,4201.154,4145.641,4187.564,4153.846,4182.179,4147.692,0,0
225,56,0,0,4136.538,4161.41,4155.128,4212.308,4123.718,4177.179,4150.128,4179.487,4199.103,4131.667,4214.359,4143.205,4182.9490000000005,4134.744000000001,0,0
226,57,0,0,4143.974,4161.923,4168.718,4221.923,4128.205,4170.897,4153.846,4180.0,4200.641,4143.333,4214.744000000001,4147.692,4188.846,4134.615,0,0
227,58,0,0,4154.872,4171.538,4171.282,4228.077,4118.846,4169.359,4155.0,4175.513,4201.026,4160.0,4191.667,4156.026,4187.564,4141.41,0,0
228,59,0,0,4155.0,4171.154,4165.641,4219.872,4111.667,4176.41,4152.821,4169.872,4201.282,4151.154,4182.821,4154.487,4182.821,4143.205,0,0
229,60,0,0,4149.359,4163.205,4166.154,4215.128,4120.0,4182.0509999999995,4154.872,4171.795,4203.718,4145.897,4187.0509999999995,4149.487,4187.0509999999995,4140.128,0,0
230,61,0,0,4143.333,4169.103,4161.538,4217.564,4123.462,4174.487,4153.846,4171.923,4201.154,4151.154,4190.128,4141.538,4182.9490000000005,4137.0509999999995,0,0
231,62,0,0,4139.487,4169.231,4152.692,4216.026,4113.718,4170.513,4155.255999999999,4167.308,4196.026,4141.795,4198.59,4139.487,4176.154,4137.0509999999995,0,0
232,63,0,0,4139.359,4154.359,4157.436,4214.872,4108.462,4182.179,4168.205,4177.564,4198.462,4132.179,4204.487,4152.0509999999995,4182.9490000000005,4140.255999999999,0,0
233,64,0,2165,4141.923,4152.564,4160.641,4215.128,4107.308,4184.487,4171.154,4190.385,4202.308,4144.744000000001,4198.333,4156.154,4190.255999999999,4140.769,0,0
234,65,0,2060,4148.846,4162.692,4157.436,4215.255999999999,4110.513,4177.179,4162.179,4187.9490000000005,4200.255999999999,4162.821,4198.59,4149.872,4193.718,4141.026,0,0
235,66,0,3403,4154.487,4156.154,4159.103,4215.769,4118.333,4178.846,4162.821,4183.718,4200.0,4167.0509999999995,4202.436,4152.821,4196.282,4138.59,0,0
236,67,0,3311,4149.615,4155.0,4159.615,4214.231,4112.179,4178.846,4168.59,4185.128,4199.744000000001,4159.103,4198.462,4155.513,4188.718,4130.513,0,0
237,68,0,2749,4149.231,4171.923,4159.872,4218.205,4105.769,4176.154,4167.564,4187.0509999999995,4200.641,4157.821,4197.821,4152.9490000000005,4183.846,4130.769,0,0
238,69,0,2619,4157.692,4171.795,4168.462,4220.769,4119.744000000001,4182.564,4169.359,4189.103,4205.897,4171.923,4204.744000000001,4156.154,4192.308,4139.359,0,0
239,70,0,2366,4151.795,4153.333,4168.077,4214.744000000001,4127.179,4185.128,4172.436,4188.846,4207.564,4168.462,4205.385,4157.0509999999995,4192.564,4139.615,0,0
240,71,0,2965,4141.795,4151.154,4157.436,4213.718,4123.462,4178.718,4170.255999999999,4185.0,4201.795,4147.692,4199.103,4150.513,4183.077,4134.231,0,0
241,72,0,2408,4148.718,4165.385,4161.538,4219.231,4124.615,4183.59,4170.255999999999,4185.897,4202.308,4154.487,4199.872,4150.0,4186.923,4136.538,0,0
242,73,0,3493,4156.282,4163.462,4167.821,4216.923,4115.255999999999,4187.821,4171.41,4186.667,4210.128,4171.795,4201.41,4154.487,4196.667,4140.255999999999,0,0
243,74,0,2973,4151.154,4148.462,4161.026,4211.282,4101.923,4182.0509999999995,4170.128,4183.846,4211.026,4169.872,4196.795,4152.564,4199.231,4137.308,0,0
244,75,0,2890,4150.385,4147.821,4163.077,4214.231,4109.231,4184.487,4171.795,4190.769,4212.821,4171.41,4202.692,4151.538,4201.026,4138.59,0,0
245,76,0,2403,4156.538,4154.872,4170.385,4216.795,4114.872,4189.744000000001,4174.615,4201.923,4217.564,4171.923,4214.103,4157.692,4202.436,4143.846,0,0
246,77,0,3273,4155.769,4154.872,4168.718,4214.231,4106.154,4185.255999999999,4172.692,4198.974,4212.0509999999995,4168.462,4210.769,4157.692,4197.436,4142.308,0,0
247,78,0,2973,4154.615,4157.9490000000005,4167.0509999999995,4215.769,4108.077,4182.821,4169.872,4190.513,4209.872,4174.872,4198.59,4153.718,4197.564,4137.9490000000005,0,0
248,79,0,2890,4154.872,4168.333,4169.872,4220.769,4121.795,4186.667,4170.128,4189.487,4214.231,4182.308,4195.769,4153.974,4200.0,4138.974,0,0
249,80,0,2403,4153.718,4168.462,4167.821,4218.846,4129.103,4184.615,4168.846,4188.718,4208.718,4169.359,4200.128,4154.615,4191.795,4140.513,0,0
250,81,0,3273,4156.538,4167.564,4166.026,4214.359,4120.128,4181.026,4165.769,4183.974,4198.205,4155.641,4206.282,4154.359,4184.231,4139.359,0,0
251,82,0,2973,4158.462,4170.385,4167.9490000000005,4217.0509999999995,4106.154,4182.9490000000005,4165.0,4183.462,4197.564,4161.667,4201.795,4152.692,4184.359,4137.821,0,0
252,83,0,2890,4157.9490000000005,4166.41,4167.564,4218.718,4106.026,4187.564,4167.564,4183.718,4200.255999999999,4165.255999999999,4193.974,4156.923,4186.538,4141.154,0,0
253,84,0,2403,4165.0,4164.744000000001,4169.231,4217.692,4120.769,4191.026,4169.103,4185.128,4202.564,4176.026,4209.103,4166.795,4196.154,4152.0509999999995,0,0
254,85,0,3273,4179.231,4168.718,4177.821,4217.436,4126.667,4187.179,4169.359,4193.718,4204.487,4194.359,4221.795,4171.795,4204.231,4164.103,0,0
255,86,0,2973,4186.667,4170.897,4184.103,4216.923,4114.231,4187.9490000000005,4177.821,4201.026,4207.179,4192.308,4216.154,4178.205,4202.9490000000005,4169.359,0,0
256,87,0,2890,4188.333,4173.718,4184.231,4222.9490000000005,4110.255999999999,4196.154,4183.974,4200.255999999999,4215.255999999999,4184.103,4217.692,4185.641,4202.308,4172.821,0,0
257,88,0,2403,4188.846,4176.026,4186.154,4230.641,4120.769,4191.923,4175.769,4197.564,4216.795,4191.026,4214.744000000001,4180.769,4201.923,4173.846,0,0
258,89,0,3273,4180.128,4169.615,4183.333,4224.744000000001,4130.385,4181.795,4168.205,4191.538,4202.821,4190.641,4205.641,4169.744000000001,4200.128,4165.128,0,0
259,90,0,2973,4170.255999999999,4164.744000000001,4172.9490000000005,4216.154,4123.974,4184.359,4170.513,4177.821,4190.385,4172.308,4215.385,4165.128,4197.179,4155.255999999999,0,0
260,91,0,2890,4166.154,4170.897,4168.974,4221.538,4112.436,4189.487,4170.641,4169.615,4190.641,4172.564,4219.744000000001,4156.282,4189.103,4149.487,0,0
261,92,0,2403,4155.0,4168.846,4164.872,4221.667,4121.795,4183.718,4162.9490000000005,4170.128,4188.077,4175.0,4190.513,4140.897,4182.9490000000005,4141.538,0,0
262,93,0,3273,4145.128,4155.897,4156.154,4212.692,4128.462,4181.026,4160.385,4169.231,4184.487,4156.795,4173.462,4137.0509999999995,4183.974,4134.872,0,0
263,94,0,2973,4151.154,4153.077,4154.744000000001,4211.667,4113.59,4186.538,4167.308,4169.872,4190.385,4161.667,4190.897,4142.308,4186.026,4138.462,0,0
264,95,0,2890,4152.179,4160.769,4157.0509999999995,4214.487,4112.0509999999995,4187.821,4171.41,4169.487,4192.9490000000005,4185.128,4197.179,4140.0,4187.308,4140.128,0,0
265,96,0,2403,4143.59,4164.103,4155.128,4215.128,4124.359,4185.769,4167.692,4171.923,4191.667,4180.385,4192.821,4134.872,4186.282,4136.282,0,0
266,97,0,3273,4141.282,4158.333,4154.615,4215.0,4118.077,4183.205,4169.231,4180.641,4197.692,4170.255999999999,4193.205,4137.821,4186.026,4138.59,0,0
267,98,0,2973,4140.897,4154.744000000001,4155.0,4214.744000000001,4115.128,4177.821,4172.308,4178.846,4201.538,4173.077,4192.821,4137.308,4187.308,4137.436,0,0
268,99,0,2890,4141.923,4160.385,4153.205,4213.974,4127.179,4176.41,4168.333,4168.462,4197.821,4166.026,4192.436,4133.846,4187.179,4133.077,0,0
269,100,0,2403,4154.231,4170.897,4157.436,4217.308,4122.0509999999995,4185.128,4171.41,4175.641,4201.282,4169.615,4191.026,4147.9490000000005,4194.231,4147.0509999999995,0,0
270,101,0,3273,4160.769,4173.59,4161.538,4221.026,4116.154,4190.385,4176.795,4185.641,4205.255999999999,4189.872,4184.359,4163.333,4198.718,4157.9490000000005,0,0
271,102,0,2973,4150.641,4165.255999999999,4157.821,4215.769,4123.077,4180.769,4171.026,4178.205,4199.872,4183.59,4182.564,4154.359,4188.974,4143.846,0,0
272,103,0,2890,4139.615,4154.103,4151.667,4207.9490000000005,4120.128,4172.821,4167.436,4170.385,4197.436,4164.487,4199.103,4137.9490000000005,4184.487,4132.308,0,0
273,104,0,2403,4137.179,4148.205,4149.615,4203.077,4113.077,4176.41,4171.026,4170.513,4197.821,4166.795,4203.205,4132.692,4189.487,4135.513,0,0
274,105,0,3273,4146.026,4157.821,4152.821,4200.513,4114.615,4184.359,4172.0509999999995,4175.769,4197.179,4170.641,4187.692,4137.564,4187.564,4138.333,0,0
275,106,0,2973,4155.0,4173.462,4156.795,4208.205,4118.974,4181.41,4171.026,4181.026,4197.564,4166.154,4183.846,4143.333,4184.359,4142.564,0,0
276,107,0,2890,4149.744000000001,4166.667,4156.538,4210.641,4123.974,4171.795,4170.513,4176.026,4196.667,4165.769,4188.077,4141.154,4185.641,4140.641,0,0
277,108,0,2403,4144.359,4154.487,4154.615,4201.795,4124.615,4174.487,4168.974,4174.359,4196.154,4176.282,4185.769,4137.692,4186.282,4134.103,0,0
278,109,0,3273,4153.462,4164.103,4157.0509999999995,4208.077,4121.282,4184.744000000001,4169.744000000001,4185.128,4198.846,4181.538,4190.0,4140.769,4189.487,4139.487,0,0
279,110,0,2973,4157.436,4173.718,4158.718,4218.718,4120.128,4186.795,4171.282,4184.744000000001,4199.359,4165.513,4203.846,4141.923,4190.128,4144.359,0,0
280,111,0,2890,4143.718,4164.103,4154.487,4207.436,4122.0509999999995,4181.282,4172.308,4172.179,4193.462,4159.615,4193.462,4138.333,4183.974,4136.667,0,0
281,112,0,2403,4137.9490000000005,4156.41,4151.667,4198.333,4125.385,4183.462,4177.308,4170.513,4187.0509999999995,4167.692,4181.154,4136.282,4183.077,4135.128,0,0
282,113,0,3273,4146.538,4156.026,4155.641,4205.897,4121.923,4187.9490000000005,4184.615,4175.255999999999,4191.923,4170.255999999999,4196.41,4139.231,4186.795,4141.154,0,0
283,114,0,2973,4151.282,4156.923,4158.59,4205.513,4115.897,4184.487,4186.538,4174.359,4195.769,4177.436,4197.0509999999995,4143.718,4185.385,4140.513,0,0
284,115,0,2890,4150.385,4163.205,4155.385,4201.282,4118.462,4185.128,4183.846,4173.718,4187.821,4181.026,4180.513,4141.795,4182.308,4136.667,0,0
285,116,0,2403,4152.0509999999995,4171.282,4156.795,4205.0,4123.333,4188.59,4181.154,4180.897,4187.308,4169.487,4192.821,4142.179,4182.179,4138.59,0,0
286,117,0,3273,4153.718,4171.41,4163.205,4205.128,4124.744000000001,4186.667,4183.333,4194.103,4198.974,4170.641,4205.128,4150.513,4184.231,4143.077,0,0
287,118,0,2973,4149.103,4166.538,4161.538,4202.436,4122.179,4185.255999999999,4188.077,4198.846,4202.179,4187.308,4187.692,4147.9490000000005,4187.0509999999995,4141.41,0,0
288,119,0,2890,4145.769,4165.897,4153.718,4201.282,4112.692,4189.103,4184.359,4190.513,4195.769,4187.308,4184.615,4136.923,4186.667,4137.179,0,0
289,120,0,2403,4150.0,4168.974,4154.103,4205.385,4107.564,4188.718,4173.846,4179.359,4198.718,4178.846,4198.333,4137.179,4185.513,4140.641,0,0
290,121,0,3273,4153.205,4169.103,4157.436,4206.538,4119.744000000001,4179.231,4171.282,4173.462,4199.359,4183.462,4190.769,4141.923,4189.103,4142.0509999999995,0,0
291,122,0,2973,4152.9490000000005,4166.282,4157.692,4202.9490000000005,4120.0,4174.744000000001,4171.923,4168.974,4188.846,4188.59,4186.795,4144.872,4189.615,4139.359,0,0
292,123,0,2890,4160.641,4172.308,4163.205,4206.154,4108.462,4174.231,4167.436,4165.641,4184.744000000001,4182.436,4202.692,4153.462,4186.026,4146.795,0,0
293,124,0,2403,4171.026,4185.897,4167.436,4213.462,4117.179,4171.923,4166.538,4168.333,4189.231,4182.564,4198.333,4155.513,4186.154,4155.897,0,0
294,125,0,3273,4169.487,4184.615,4165.0,4217.308,4122.179,4174.615,4169.872,4169.487,4191.026,4185.128,4180.0,4152.179,4186.154,4154.615,0,0
295,126,0,2973,4166.667,4171.923,4166.026,4213.846,4116.538,4180.897,4171.026,4171.538,4190.385,4179.744000000001,4191.154,4156.795,4186.667,4152.9490000000005,0,0
296,127,0,52,4171.923,4172.436,4171.41,4207.564,4118.59,4177.308,4172.0509999999995,4178.59,4188.718,4181.538,4211.923,4157.692,4184.487,4156.795,0,0
297,0,0,2168,4169.103,4181.026,4166.538,4205.0,4112.9490000000005,4171.538,4170.769,4182.436,4185.385,4182.692,4202.9490000000005,4151.667,4177.179,4154.872,0,0
298,1,0,2043,4154.744000000001,4167.564,4158.077,4200.513,4108.462,4178.846,4169.872,4183.59,4191.154,4171.795,4186.026,4152.308,4175.255999999999,4145.128,0,0
299,2,0,3408,4150.513,4157.436,4161.282,4201.795,4119.103,4183.718,4178.205,4186.923,4197.179,4166.795,4187.821,4153.59,4177.436,4140.385,0,0
300,3,0,3305,4153.718,4174.231,4162.821,4212.9490000000005,4116.026,4180.641,4181.795,4187.692,4189.231,4173.077,4190.255999999999,4143.077,4174.231,4139.487,0,0
301,4,0,2755,4146.923,4180.385,4155.513,4209.231,4101.282,4177.308,4171.923,4182.308,4183.333,4174.103,4179.615,4132.564,4172.436,4135.128,0,0
302,5,0,2620,4137.564,4172.9490000000005,4152.0509999999995,4199.103,4105.255999999999,4170.641,4167.179,4176.923,4187.821,4171.282,4180.385,4128.59,4175.128,4132.821,0,0
303,6,0,2366,4137.692,4177.179,4155.128,4206.667,4113.462,4167.179,4164.744000000001,4172.308,4185.897,4167.0509999999995,4189.872,4123.974,4171.154,4132.436,0,0
304,7,0,2969,4140.0,4179.103,4156.41,4211.538,4111.538,4170.897,4159.359,4170.255999999999,4181.795,4166.538,4182.0509999999995,4123.59,4168.59,4129.103,0,0
305,8,0,2408,4139.103,4164.744000000001,4153.59,4196.282,4109.872,4171.923,4164.872,4171.538,4185.255999999999,4170.128,4180.513,4127.0509999999995,4174.744000000001,4130.385,0,0
306,9,0,3478,4138.462,4164.231,4150.641,4194.231,4106.538,4165.641,4168.718,4170.641,4183.59,4153.718,4189.744000000001,4126.41,4176.41,4136.026,0,0
307,10,0,2982,4139.231,4180.255999999999,4151.41,4209.872,4104.231,4165.255999999999,4159.359,4168.333,4179.487,4146.667,4176.667,4122.9490000000005,4167.821,4134.872,0,0
308,11,0,2894,4140.641,4177.692,4155.641,4208.333,4103.974,4171.795,4158.59,4172.308,4180.897,4170.769,4165.255999999999,4129.615,4163.59,4135.255999999999,0,0
309,12,0,2401,4142.0509999999995,4165.897,4157.0509999999995,4197.0509999999995,4111.41,4174.359,4167.9490000000005,4180.513,4183.205,4182.179,4184.359,4140.128,4175.769,4141.667,0,0
310,13,0,3283,4141.795,4165.0,4156.154,4196.795,4120.897,4171.282,4169.231,4183.077,4183.462,4169.615,4195.769,4136.41,4184.103,4140.897,0,0
311,14,0,2982,4140.385,4171.41,4156.026,4205.255999999999,4112.179,4169.615,4166.667,4181.538,4185.641,4165.255999999999,4182.821,4126.538,4172.564,4135.385,0,0
312,15,0,2894,4140.385,4176.41,4155.255999999999,4204.872,4102.692,4170.0,4166.154,4184.359,4187.179,4171.667,4181.667,4127.0509999999995,4168.846,4135.641,0,0
313,16,0,0,4140.513,4179.615,4154.487,4200.385,4105.255999999999,4169.487,4167.9490000000005,4185.641,4183.974,4169.231,4183.333,4130.128,4179.744000000001,4136.41,0,0
314,17,0,0,4139.231,4183.077,4155.897,4206.795,4099.103,4171.795,4176.41,4184.615,4182.308,4163.462,4173.974,4131.282,4177.821,4135.385,0,0
315,18,0,0,4138.718,4183.718,4157.0509999999995,4210.128,4090.897,4173.974,4185.128,4190.128,4184.359,4167.564,4181.154,4137.0509999999995,4175.0,4136.795,0,0
316,19,0,0,4138.974,4184.872,4154.872,4204.359,4094.8720000000003,4172.9490000000005,4185.0,4198.333,4183.59,4172.308,4192.564,4133.718,4180.641,4136.923,0,0
317,20,0,0,4136.538,4184.615,4152.564,4199.103,4093.974,4172.308,4183.718,4200.385,4181.41,4171.667,4181.41,4122.436,4179.615,4133.462,0,0
318,21,0,0,4136.282,4184.872,4154.872,4210.641,4090.897,4173.462,4186.154,4200.513,4183.846,4173.205,4172.179,4127.692,4180.128,4131.795,0,0
319,22,0,0,4144.744000000001,4187.821,4157.821,4217.0509999999995,4104.359,4171.795,4183.077,4203.077,4186.538,4174.744000000001,4190.897,4138.846,4183.846,4138.462,0,0
320,23,0,0,4153.718,4186.282,4161.154,4205.255999999999,4111.154,4170.255999999999,4175.255999999999,4199.231,4184.231,4169.872,4195.769,4140.513,4177.564,4149.103,0,0
321,24,0,0,4157.692,4186.026,4167.179,4208.974,4100.255999999999,4171.923,4172.821,4187.0509999999995,4182.564,4169.615,4173.59,4146.282,4172.179,4155.255999999999,0,0
322,25,0,0,4157.692,4188.846,4170.385,4218.59,4091.1540000000005,4166.667,4171.667,4181.026,4181.795,4174.744000000001,4175.385,4152.179,4173.333,4155.513,0,0
323,26,0,0,4155.255999999999,4185.0,4167.9490000000005,4204.487,4086.026,4160.769,4167.821,4181.923,4180.513,4171.41,4193.59,4146.154,4169.103,4152.821,0,0
324,27,0,0,4155.769,4182.564,4167.821,4197.436,4083.974,4167.692,4171.538,4184.231,4182.0509999999995,4169.103,4190.513,4145.641,4173.462,4153.718,0,0
325,28,0,0,4156.923,4183.462,4170.128,4209.231,4087.308,4175.0,4178.462,4189.103,4184.615,4173.846,4180.513,4152.692,4184.359,4155.641,0,0
326,29,0,0,4154.744000000001,4174.231,4168.333,4207.436,4091.923,4170.897,4175.0,4191.41,4184.744000000001,4172.821,4185.897,4153.846,4184.231,4155.255999999999,0,0
327,30,0,0,4154.231,4172.0509999999995,4165.769,4203.333,4091.795,4168.718,4169.359,4185.769,4184.615,4169.231,4191.667,4150.513,4182.179,4153.333,0,0
328,31,0,0,4156.923,4187.564,4165.0,4212.9490000000005,4088.462,4173.077,4169.359,4183.333,4184.487,4171.41,4181.795,4145.128,4185.513,4151.41,0,0
329,32,0,0,4156.282,4191.667,4166.667,4214.872,4097.436,4169.744000000001,4170.897,4189.103,4185.513,4173.077,4176.154,4141.282,4186.538,4153.205,0,0
330,33,0,0,4151.154,4182.436,4167.436,4210.769,4103.333,4161.282,4168.718,4188.974,4187.179,4172.0509999999995,4182.9490000000005,4142.821,4186.282,4154.487,0,0
331,34,0,0,4149.487,4183.462,4167.0509999999995,4214.231,4091.282,4160.897,4161.538,4183.718,4181.41,4169.744000000001,4186.923,4141.41,4184.615,4155.255999999999,0,0
332,35,0,0,4153.462,4188.718,4167.0509999999995,4216.282,4083.462,4170.128,4160.0,4183.846,4174.615,4164.359,4181.026,4136.538,4176.41,4156.667,0,0
333,36,0,0,4149.872,4185.769,4167.436,4213.59,4092.949,4173.077,4164.487,4181.667,4175.255999999999,4165.513,4184.872,4136.282,4169.872,4155.641,0,0
334,37,0,0,4138.59,4182.179,4167.436,4211.41,4095.0,4161.154,4165.385,4174.744000000001,4172.436,4170.769,4186.667,4134.359,4171.667,4150.897,0,0
335,38,0,0,4142.564,4182.692,4168.205,4213.718,4092.308,4157.821,4164.487,4178.077,4169.615,4169.359,4167.692,4135.641,4170.513,4151.154,0,0
336,39,0,0,4153.974,4190.641,4170.641,4219.487,4094.487,4164.744000000001,4168.077,4190.255999999999,4176.923,4175.0,4167.179,4143.974,4167.9490000000005,4155.513,0,0
337,40,0,0,4144.487,4189.487,4168.974,4211.41,4083.205,4165.769,4171.41,4192.308,4181.795,4183.205,4191.026,4141.667,4176.41,4155.769,0,0
338,41,0,0,4134.231,4179.487,4165.0,4200.385,4078.974,4166.026,4170.769,4185.641,4176.41,4173.846,4186.538,4135.128,4181.154,4153.59,0,0
339,42,0,0,4147.9490000000005,4190.0,4167.436,4211.026,4097.0509999999995,4171.026,4170.255999999999,4183.846,4171.923,4166.538,4164.744000000001,4140.513,4176.795,4153.462,0,0
340,43,0,0,4154.487,4199.744000000001,4170.255999999999,4218.462,4097.0509999999995,4169.103,4167.9490000000005,4185.128,4173.077,4172.308,4172.308,4144.103,4174.872,4158.718,0,0
341,44,0,0,4143.077,4189.231,4166.282,4206.154,4077.179,4163.59,4163.205,4185.641,4178.077,4176.026,4190.513,4140.255999999999,4171.923,4170.128,0,0
342,45,0,0,4142.9490000000005,4184.231,4163.205,4202.564,4085.513,4166.667,4162.436,4190.0,4182.9490000000005,4178.718,4187.821,4145.769,4173.846,4179.359,0,0
343,46,0,0,4152.821,4189.872,4167.692,4214.231,4109.744000000001,4167.564,4165.255999999999,4196.667,4182.564,4173.974,4184.103,4155.128,4181.154,4180.128,0,0
344,47,0,0,4153.462,4187.179,4170.0,4217.9490000000005,4101.026,4166.41,4169.103,4200.641,4183.462,4171.282,4188.718,4154.615,4177.9490000000005,4180.897,0,0
345,48,0,0,4152.692,4184.872,4170.0,4212.564,4081.282,4169.487,4176.026,4200.513,4186.795,4185.641,4188.59,4156.795,4169.487,4186.282,0,0
346,49,0,0,4163.974,4193.974,4177.692,4215.385,4088.974,4172.564,4183.974,4202.179,4185.513,4188.077,4184.231,4171.154,4177.692,4192.821,0,0
347,50,0,0,4169.359,4193.205,4180.385,4218.846,4098.974,4173.077,4184.359,4200.641,4182.9490000000005,4180.255999999999,4183.59,4171.667,4184.872,4191.026,0,0
348,51,0,0,4160.513,4192.179,4172.308,4210.897,4095.385,4170.128,4181.154,4189.615,4183.333,4177.9490000000005,4186.282,4149.487,4176.795,4182.692,0,0
349,52,0,0,4155.385,4201.282,4169.231,4205.255999999999,4103.333,4169.615,4183.333,4185.769,4183.846,4178.077,4187.179,4141.41,4170.0,4182.821,0,0
350,53,0,0,4155.0,4197.564,4172.0509999999995,4206.41,4107.0509999999995,4172.0509999999995,4182.436,4185.0,4180.385,4179.872,4180.128,4149.615,4169.103,4182.436,0,0
351,54,0,0,4154.872,4184.744000000001,4172.308,4212.308,4095.385,4172.308,4179.487,4176.41,4175.769,4174.231,4170.255999999999,4144.872,4171.026,4173.333,0,0
352,55,0,0,4156.41,4185.385,4170.641,4213.718,4099.615,4167.692,4182.308,4168.846,4172.436,4160.513,4167.436,4135.641,4171.667,4169.615,0,0
353,56,0,0,4154.103,4189.872,4169.103,4207.564,4107.436,4165.0,4184.744000000001,4169.231,4168.462,4156.41,4165.385,4136.154,4166.538,4170.0,0,0
354,57,0,0,4151.667,4185.255999999999,4168.59,4205.255999999999,4095.7690000000002,4168.59,4185.385,4177.692,4167.821,4165.385,4166.667,4140.641,4166.026,4169.231,0,0
355,58,0,0,4156.026,4184.872,4171.41,4209.103,4088.718,4169.487,4186.538,4185.0,4169.744000000001,4161.026,4177.0509999999995,4145.769,4174.872,4173.077,0,0
356,59,0,0,4153.718,4185.897,4167.9490000000005,4205.769,4096.923,4166.538,4183.333,4179.487,4168.462,4152.9490000000005,4179.872,4144.359,4175.0,4176.154,0,0
357,60,0,0,4151.538,4181.538,4163.205,4195.769,4089.615,4166.154,4178.974,4173.077,4167.821,4162.179,4168.333,4140.769,4166.026,4177.0509999999995,0,0
358,61,0,0,4164.359,4187.692,4172.692,4201.538,4080.513,4169.487,4181.923,4179.872,4171.154,4178.59,4169.359,4152.179,4166.41,4188.59,0,0
359,62,0,0,4177.692,4198.718,4184.744000000001,4213.205,4091.923,4172.564,4187.0509999999995,4187.179,4171.41,4185.897,4191.282,4172.0509999999995,4174.615,4202.308,0,0
360,63,0,0,4179.103,4198.974,4186.795,4215.513,4103.462,4171.923,4187.821,4184.103,4171.282,4182.436,4200.255999999999,4179.615,4177.179,4203.077,0,0
361,64,0,2164,4177.436,4196.923,4184.359,4212.564,4106.026,4168.462,4181.154,4176.026,4172.564,4185.769,4185.128,4175.255999999999,4176.026,4199.487,0,0
362,65,0,2046,4174.744000000001,4199.103,4182.821,4209.615,4101.41,4169.231,4170.897,4168.718,4164.872,4187.564,4179.359,4170.0,4175.513,4200.255999999999,0,0
363,66,0,3400,4172.9490000000005,4200.385,4182.692,4212.821,4093.8459999999995,4167.436,4167.436,4167.564,4157.821,4182.308,4189.231,4170.897,4174.103,4201.923,0,0
364,67,0,3301,4178.462,4199.487,4184.487,4215.897,4096.667,4161.41,4170.513,4172.692,4165.128,4184.615,4187.436,4179.872,4172.436,4201.923,0,0
365,68,0,2737,4184.744000000001,4200.0,4186.538,4215.128,4101.538,4163.462,4172.179,4177.821,4172.0509999999995,4188.846,4180.897,4186.41,4173.974,4202.821,0,0
366,69,0,2619,4186.41,4199.872,4187.179,4213.59,4098.974,4171.41,4172.179,4179.872,4167.9490000000005,4181.154,4191.923,4185.897,4176.282,4206.282,0,0
367,70,0,2366,4185.128,4200.0,4189.103,4215.641,4098.462,4170.128,4174.231,4178.974,4166.154,4171.923,4196.667,4186.026,4172.564,4206.282,0,0
368,71,0,2963,4185.769,4201.538,4189.359,4218.077,4107.179,4166.795,4179.359,4182.308,4171.667,4183.846,4185.128,4185.641,4168.462,4202.821,0,0
369,72,0,2403,4181.026,4196.41,4185.513,4212.692,4106.795,4168.846,4180.255999999999,4186.923,4172.821,4195.769,4183.333,4176.026,4171.667,4199.744000000001,0,0
370,73,0,3480,4171.923,4193.846,4182.0509999999995,4208.205,4099.487,4169.231,4171.667,4183.846,4170.255999999999,4185.641,4190.385,4168.333,4174.744000000001,4198.205,0,0
371,74,0,2975,4173.462,4200.0,4183.718,4216.923,4100.641,4167.9490000000005,4166.667,4182.564,4170.769,4179.231,4188.846,4173.59,4173.974,4199.487,0,0
372,75,0,2887,4176.795,4200.641,4186.282,4216.667,4100.255999999999,4166.154,4168.974,4185.513,4172.564,4191.923,4186.154,4175.128,4172.692,4200.897,0,0
373,76,0,2400,4172.692,4197.692,4183.718,4204.872,4096.41,4166.154,4172.436,4187.308,4171.795,4192.308,4186.923,4170.385,4171.026,4200.385,0,0
374,77,0,3280,4170.385,4200.128,4181.667,4208.846,4094.8720000000003,4169.231,4178.462,4190.128,4171.538,4171.154,4185.897,4170.641,4169.487,4200.385,0,0
375,78,0,2975,4173.333,4200.513,4184.615,4212.564,4096.923,4170.513,4184.359,4188.974,4173.333,4167.179,4184.744000000001,4171.41,4170.385,4196.667,0,0
376,79,0,2887,4172.9490000000005,4197.9490000000005,4182.436,4205.641,4095.7690000000002,4170.897,4185.641,4191.026,4172.9490000000005,4181.923,4181.026,4164.359,4171.923,4188.462,0,0
377,80,0,2400,4168.077,4195.769,4173.974,4207.436,4092.051,4171.795,4185.513,4194.615,4170.0,4176.923,4172.179,4154.744000000001,4168.974,4183.718,0,0
378,81,0,3280,4167.308,4188.59,4171.923,4208.846,4092.051,4172.436,4183.974,4190.513,4174.487,4164.872,4167.0509999999995,4151.026,4168.718,4185.255999999999,0,0
379,82,0,2975,4169.744000000001,4188.205,4178.077,4200.769,4095.6409999999996,4173.974,4184.487,4191.538,4183.205,4172.692,4173.333,4154.103,4171.795,4187.0509999999995,0,0
380,83,0,2887,4170.513,4199.615,4181.538,4205.769,4103.718,4175.0,4188.205,4199.615,4184.359,4180.255999999999,4182.308,4160.255999999999,4171.282,4187.564,0,0
381,84,0,2400,4175.385,4203.718,4183.205,4215.255999999999,4108.718,4172.308,4187.9490000000005,4200.385,4181.282,4181.282,4188.59,4168.718,4175.897,4195.128,0,0
382,85,0,3280,4185.255999999999,4199.615,4184.744000000001,4208.462,4109.231,4171.41,4185.128,4199.744000000001,4183.718,4187.692,4191.923,4177.0509999999995,4182.436,4203.974,0,0
383,86,0,2975,4174.359,4192.692,4177.179,4203.205,4100.641,4171.41,4181.538,4198.59,4185.641,4186.026,4181.154,4170.513,4174.231,4195.641,0,0
384,87,0,2887,4153.205,4184.103,4168.462,4204.487,4087.821,4169.359,4178.462,4187.0509999999995,4182.308,4180.641,4172.564,4157.179,4167.692,4180.641,0,0
385,88,0,2400,4159.103,4190.0,4170.128,4200.641,4096.154,4170.385,4183.846,4185.641,4182.564,4185.128,4182.692,4156.667,4178.718,4183.077,0,0
386,89,0,3280,4175.128,4200.255999999999,4172.692,4199.615,4117.308,4172.564,4187.692,4196.41,4185.769,4186.41,4184.872,4161.154,4185.641,4191.154,0,0
387,90,0,2975,4167.308,4191.026,4168.718,4196.154,4109.615,4171.538,4182.308,4191.154,4183.077,4183.333,4171.026,4157.564,4184.359,4184.744000000001,0,0
388,91,0,2887,4156.795,4182.564,4167.821,4188.462,4089.103,4170.255999999999,4179.487,4182.0509999999995,4173.462,4181.154,4168.718,4154.103,4182.0509999999995,4180.641,0,0
389,92,0,2400,4159.744000000001,4186.538,4167.564,4187.0509999999995,4093.462,4168.846,4180.641,4184.231,4172.436,4176.41,4173.205,4156.41,4174.359,4184.103,0,0
390,93,0,3280,4159.103,4183.59,4163.333,4188.974,4095.385,4165.513,4180.255999999999,4186.667,4178.462,4171.41,4166.154,4153.077,4169.103,4177.436,0,0
391,94,0,2975,4154.487,4180.641,4164.487,4186.923,4084.615,4166.026,4181.282,4188.077,4174.615,4169.103,4165.513,4150.641,4168.077,4167.9490000000005,0,0
392,95,0,2887,4156.154,4187.0509999999995,4169.359,4185.513,4088.205,4168.462,4182.564,4189.231,4172.436,4173.462,4172.436,4156.41,4170.769,4171.282,0,0
393,96,0,2400,4162.308,4183.205,4171.538,4189.872,4095.256,4167.0509999999995,4181.538,4189.103,4183.333,4187.308,4170.128,4160.255999999999,4177.0509999999995,4178.462,0,0
394,97,0,3280,4169.359,4178.846,4172.692,4192.0509999999995,4089.3590000000004,4167.308,4183.462,4192.9490000000005,4186.282,4189.487,4169.231,4159.744000000001,4177.179,4177.692,0,0
395,98,0,2975,4166.667,4188.59,4172.179,4186.923,4087.4359999999997,4169.103,4183.462,4193.462,4175.897,4173.333,4172.308,4157.564,4171.538,4172.179,0,0
396,99,0,2887,4155.641,4183.846,4168.205,4182.0509999999995,4090.897,4167.821,4180.897,4188.205,4175.513,4172.9490000000005,4168.462,4154.359,4172.692,4168.846,0,0
397,100,0,2400,4151.667,4169.103,4167.9490000000005,4183.205,4089.103,4168.59,4183.462,4194.103,4184.359,4188.718,4165.128,4154.615,4175.513,4170.641,0,0
398,101,0,3280,4157.436,4178.718,4171.667,4187.179,4090.385,4171.282,4185.513,4204.487,4185.128,4189.231,4169.615,4158.718,4176.667,4173.462,0,0
399,102,0,2975,4156.795,4188.205,4170.128,4184.359,4092.5640000000003,4170.513,4183.205,4196.282,4183.077,4184.359,4169.359,4156.026,4180.0,4170.897,0,0
400,103,0,2887,4153.333,4176.667,4167.821,4182.821,4091.923,4169.744000000001,4184.359,4185.641,4182.0509999999995,4184.103,4167.308,4154.103,4177.564,4170.128,0,0
401,104,0,2400,4153.846,4176.667,4168.077,4186.41,4091.41,4169.615,4185.513,4185.897,4175.897,4174.872,4172.9490000000005,4156.154,4169.744000000001,4170.897,0,0
402,105,0,3280,4153.974,4189.487,4167.821,4188.333,4091.41,4166.026,4178.718,4179.103,4166.923,4164.872,4167.9490000000005,4152.0509999999995,4166.538,4167.436,0,0
403,106,0,2975,4151.667,4184.615,4167.821,4185.385,4090.7690000000002,4164.103,4171.667,4171.667,4167.9490000000005,4166.41,4151.538,4150.0,4168.205,4165.513,0,0
404,107,0,2887,4149.744000000001,4175.641,4163.846,4179.615,4090.256,4166.282,4171.282,4174.103,4172.564,4166.538,4153.718,4156.026,4170.255999999999,4167.0509999999995,0,0
405,108,0,2400,4152.564,4182.9490000000005,4160.385,4181.026,4090.256,4167.692,4171.538,4175.385,4169.103,4167.692,4169.615,4155.128,4169.103,4167.436,0,0
406,109,0,3280,4155.385,4186.154,4163.974,4183.59,4089.8720000000003,4166.154,4172.0509999999995,4172.436,4166.795,4172.0509999999995,4170.641,4148.462,4166.538,4167.821,0,0
407,110,0,2975,4158.59,4183.974,4168.462,4185.513,4089.487,4165.0,4173.59,4173.59,4168.462,4169.359,4163.462,4157.308,4165.513,4170.385,0,0
408,111,0,2887,4165.897,4190.641,4169.487,4188.718,4091.1540000000005,4167.9490000000005,4171.154,4172.821,4165.255999999999,4166.154,4167.9490000000005,4167.9490000000005,4169.103,4172.0509999999995,0,0
409,112,0,2400,4166.795,4194.487,4168.333,4182.692,4093.462,4170.255999999999,4171.667,4170.513,4165.128,4169.615,4173.077,4160.641,4172.9490000000005,4171.923,0,0
410,113,0,3280,4157.436,4185.513,4165.513,4175.769,4089.744,4168.205,4180.385,4171.795,4165.897,4163.333,4164.872,4149.487,4165.128,4169.872,0,0
411,114,0,2975,4151.923,4182.564,4166.026,4180.769,4085.6409999999996,4168.077,4185.0,4167.821,4158.333,4149.872,4152.436,4151.026,4157.821,4165.641,0,0
412,115,0,2887,4159.487,4192.179,4167.9490000000005,4185.897,4095.897,4170.255999999999,4183.718,4164.231,4157.308,4152.564,4154.103,4158.333,4166.923,4168.077,0,0
413,116,0,2400,4173.846,4205.0,4170.0,4192.179,4106.282,4171.41,4185.897,4169.103,4168.462,4170.0,4174.359,4165.513,4173.718,4181.026,0,0
414,117,0,3280,4185.513,4210.641,4176.154,4204.231,4100.641,4170.255999999999,4185.0,4172.436,4172.564,4181.026,4184.872,4171.282,4169.231,4188.333,0,0
415,118,0,2975,4183.59,4203.462,4178.077,4196.923,4096.667,4167.564,4175.513,4170.641,4167.821,4173.077,4176.538,4166.026,4169.872,4184.359,0,0
416,119,0,2887,4182.692,4203.846,4178.462,4183.333,4103.718,4166.026,4171.154,4171.154,4167.564,4166.667,4170.385,4163.718,4173.846,4189.487,0,0
417,120,0,2400,4192.821,4214.744000000001,4185.769,4194.872,4108.59,4167.179,4170.641,4173.077,4167.9490000000005,4173.718,4170.769,4172.436,4169.615,4202.308,0,0
418,121,0,3280,4192.436,4217.0509999999995,4185.897,4204.487,4104.359,4165.897,4170.0,4174.744000000001,4165.897,4173.205,4166.795,4172.821,4165.385,4201.154,0,0
419,122,0,2975,4185.641,4212.692,4180.128,4198.462,4096.41,4165.513,4179.615,4180.255999999999,4167.9490000000005,4172.692,4171.026,4168.333,4167.0509999999995,4196.538,0,0
420,123,0,2887,4185.0,4206.923,4180.897,4196.795,4091.282,4170.385,4185.513,4187.0509999999995,4172.179,4182.692,4185.0,4172.436,4172.9490000000005,4203.462,0,0
421,124,0,2400,4176.154,4195.897,4175.255999999999,4192.9490000000005,4091.538,4164.872,4174.103,4182.436,4171.154,4173.718,4184.231,4165.897,4174.487,4198.974,0,0
422,125,0,3280,4162.9490000000005,4194.872,4165.513,4183.333,4092.4359999999997,4154.872,4166.667,4173.718,4166.795,4154.744000000001,4171.923,4151.923,4166.667,4185.385,0,0
423,126,0,2975,4165.641,4202.821,4167.436,4182.692,4092.692,4162.179,4172.564,4177.821,4167.821,4165.255999999999,4167.0509999999995,4160.641,4170.128,4185.897,0,0
424,127,0,52,4165.641,4192.564,4169.103,4186.026,4094.615,4170.641,4172.179,4180.385,4169.872,4176.923,4173.205,4167.564,4182.0509999999995,4190.0,0,0
425,0,0,2164,4158.333,4185.128,4167.179,4184.744000000001,4093.8459999999995,4166.923,4167.0509999999995,4176.026,4169.487,4166.795,4172.308,4159.103,4177.9490000000005,4188.333,0,0
426,1,0,2047,4158.077,4194.487,4166.282,4183.59,4090.385,4165.513,4172.179,4172.0509999999995,4168.333,4164.872,4162.564,4149.744000000001,4166.538,4182.821,0,0
427,2,0,3397,4155.385,4199.103,4165.513,4185.897,4088.8459999999995,4169.103,4180.385,4170.128,4165.897,4168.462,4161.41,4143.077,4167.436,4177.0509999999995,0,0
428,3,0,3303,4157.308,4198.077,4167.0509999999995,4188.59,4092.179,4168.718,4183.718,4176.154,4166.154,4159.359,4166.667,4144.359,4172.0509999999995,4180.128,0,0
429,4,0,2752,4168.462,4200.897,4169.231,4187.179,4095.6409999999996,4168.59,4184.487,4185.255999999999,4170.255999999999,4157.436,4170.128,4154.872,4170.513,4186.282,0,0
430,5,0,2614,4173.59,4202.9490000000005,4171.41,4183.462,4092.179,4169.231,4185.128,4184.744000000001,4171.026,4175.897,4171.41,4164.359,4167.692,4187.564,0,0
431,6,0,2366,4172.564,4201.154,4175.641,4189.103,4090.513,4165.0,4184.872,4181.282,4169.359,4182.308,4174.744000000001,4167.564,4167.821,4192.564,0,0
432,7,0,2961,4175.255999999999,4200.385,4175.0,4195.255999999999,4096.923,4162.9490000000005,4184.744000000001,4182.0509999999995,4174.744000000001,4175.255999999999,4174.872,4168.077,4175.128,4195.0,0,0
433,8,0,2403,4175.897,4196.026,4175.641,4189.872,4096.538,4167.179,4181.923,4174.231,4178.846,4177.692,4169.103,4167.0509999999995,4183.718,4189.487,0,0
434,9,0,3477,4175.0,4194.359,4184.487,4186.154,4092.179,4171.667,4175.255999999999,4165.641,4171.538,4177.692,4164.872,4167.436,4181.026,4191.154,0,0
435,10,0,2973,4173.59,4199.487,4181.538,4187.692,4091.41,4165.128,4170.0,4166.923,4165.128,4168.846,4167.308,4161.154,4172.821,4190.0,0,0
436,11,0,2876,4169.359,4199.744000000001,4170.769,4185.385,4089.3590000000004,4155.0,4171.41,4168.846,4169.231,4169.744000000001,4175.0,4149.103,4168.333,4182.564,0,0
437,12,0,2398,4172.179,4200.128,4175.385,4183.333,4095.6409999999996,4156.41,4173.974,4171.923,4172.0509999999995,4174.872,4174.231,4152.0509999999995,4168.718,4184.103,0,0
438,13,0,3271,4175.0,4203.718,4181.41,4187.9490000000005,4099.615,4160.0,4172.9490000000005,4177.9490000000005,4171.026,4169.872,4166.41,4164.231,4170.128,4188.59,0,0
439,14,0,2973,4173.077,4201.026,4179.615,4186.538,4095.6409999999996,4157.436,4172.9490000000005,4183.59,4176.282,4171.538,4168.59,4169.231,4169.487,4190.513,0,0
440,15,0,2876,4177.9490000000005,4197.308,4180.0,4187.564,4099.487,4157.821,4174.103,4188.59,4184.103,4182.0509999999995,4177.0509999999995,4174.487,4167.9490000000005,4200.513,0,0
441,16,0,0,4180.0,4200.641,4176.923,4195.385,4103.205,4160.641,4174.231,4191.282,4183.333,4188.462,4176.667,4179.103,4171.538,4204.359,0,0
442,17,0,0,4172.0509999999995,4201.795,4168.205,4192.692,4092.692,4154.872,4172.308,4186.026,4175.128,4182.9490000000005,4169.744000000001,4167.436,4173.846,4191.538,0,0
443,18,0,0,4169.231,4198.077,4167.0509999999995,4187.692,4090.7690000000002,4152.9490000000005,4169.615,4176.026,4168.077,4171.795,4168.462,4156.282,4169.231,4183.333,0,0
444,19,0,0,4172.564,4200.128,4170.0,4190.769,4103.333,4160.128,4171.795,4168.333,4166.026,4167.0509999999995,4173.846,4161.795,4167.0509999999995,4188.205,0,0
445,20,0,0,4171.026,4201.41,4167.692,4189.103,4101.795,4160.641,4175.769,4163.718,4166.026,4160.513,4168.59,4162.821,4168.718,4189.359,0,0
446,21,0,0,4169.487,4198.59,4164.615,4184.231,4091.282,4154.744000000001,4173.205,4165.255999999999,4166.154,4159.487,4162.179,4152.564,4165.897,4182.436,0,0
447,22,0,0,4171.795,4200.769,4165.769,4187.564,4089.615,4152.692,4168.846,4170.513,4168.333,4174.231,4168.205,4157.179,4165.897,4182.436,0,0
448,23,0,0,4173.077,4199.487,4165.769,4188.846,4098.462,4154.103,4169.359,4171.667,4168.974,4186.667,4169.487,4165.128,4171.154,4187.564,0,0
449,24,0,0,4171.026,4189.615,4159.872,4184.744000000001,4102.564,4154.872,4170.513,4176.41,4172.179,4188.462,4165.513,4157.9490000000005,4171.538,4185.641,0,0
450,25,0,0,4169.103,4187.179,4158.846,4186.026,4091.41,4155.769,4172.9490000000005,4188.718,4181.795,4180.513,4176.923,4158.333,4173.846,4185.769,0,0
451,26,0,0,4166.923,4191.282,4160.769,4180.897,4087.051,4159.615,4177.179,4189.872,4180.641,4173.077,4182.179,4166.41,4181.923,4186.41,0,0
452,27,0,0,4167.692,4189.359,4161.41,4180.255999999999,4102.179,4167.179,4179.615,4184.615,4170.897,4182.179,4168.718,4169.231,4183.974,4185.641,0,0
453,28,0,0,4174.359,4188.205,4167.692,4195.128,4114.615,4171.667,4182.308,4189.744000000001,4176.923,4193.462,4177.564,4172.0509999999995,4179.487,4194.487,0,0
454,29,0,0,4177.0509999999995,4190.128,4174.231,4197.821,4109.359,4168.462,4184.872,4191.026,4185.128,4186.282,4183.846,4176.282,4172.179,4200.128,0,0
455,30,0,0,4166.667,4186.667,4167.0509999999995,4183.718,4102.821,4167.9490000000005,4185.769,4186.667,4177.179,4185.255999999999,4167.436,4171.41,4170.255999999999,4189.231,0,0
456,31,0,0,4155.897,4184.231,4156.026,4179.359,4106.282,4165.897,4182.821,4185.385,4169.359,4187.436,4173.718,4165.128,4174.231,4182.692,0,0
457,32,0,0,4160.513,4186.282,4160.128,4185.641,4109.359,4158.846,4178.974,4177.179,4170.0,4174.872,4186.795,4170.255999999999,4174.872,4188.077,0,0
458,33,0,0,4169.615,4185.255999999999,4167.436,4186.282,4104.615,4156.795,4181.795,4167.179,4168.333,4167.0509999999995,4179.359,4174.103,4170.641,4188.59,0,0
459,34,0,0,4170.0,4185.641,4165.897,4183.846,4104.231,4158.846,4183.462,4173.205,4168.333,4171.923,4177.436,4171.538,4169.231,4190.513,0,0
460,35,0,0,4168.718,4190.255999999999,4165.641,4185.128,4111.026,4158.205,4176.026,4186.41,4171.538,4187.692,4184.103,4176.282,4176.154,4199.615,0,0
461,36,0,0,4172.179,4187.692,4170.0,4186.026,4112.821,4157.821,4168.718,4182.821,4171.41,4202.564,4180.897,4180.769,4180.897,4201.667,0,0
462,37,0,0,4178.077,4188.205,4170.128,4187.821,4112.179,4159.359,4171.282,4173.59,4170.641,4187.821,4184.744000000001,4174.231,4175.385,4197.692,0,0
463,38,0,0,4185.255999999999,4199.487,4170.769,4191.41,4114.744000000001,4159.615,4179.487,4178.077,4172.179,4173.462,4186.538,4174.872,4168.846,4198.205,0,0
464,39,0,0,4189.487,4198.718,4173.077,4191.282,4121.41,4164.359,4184.231,4184.231,4173.974,4191.282,4174.872,4186.538,4171.026,4200.641,0,0
465,40,0,0,4188.205,4185.0,4173.462,4185.769,4121.41,4168.974,4185.0,4182.9490000000005,4173.333,4199.103,4176.923,4188.974,4173.59,4200.769,0,0
466,41,0,0,4187.0509999999995,4187.692,4176.154,4185.128,4109.872,4164.615,4182.692,4183.59,4171.923,4183.974,4189.359,4185.513,4170.897,4202.564,0,0
467,42,0,0,4187.308,4202.308,4175.385,4188.59,4106.538,4159.359,4177.179,4180.255999999999,4170.769,4183.846,4182.564,4182.179,4171.795,4199.615,0,0
468,43,0,0,4184.487,4198.333,4169.103,4186.667,4119.872,4157.0509999999995,4169.872,4168.846,4167.308,4186.026,4165.897,4172.564,4172.821,4188.974,0,0
469,44,0,0,4180.641,4184.872,4170.128,4185.255999999999,4127.179,4159.359,4170.128,4167.564,4166.795,4176.538,4172.179,4168.077,4170.641,4184.872,0,0
470,45,0,0,4176.667,4185.897,4174.487,4186.538,4114.359,4164.487,4179.103,4172.692,4165.128,4172.308,4184.359,4171.667,4168.718,4188.077,0,0
471,46,0,0,4171.923,4188.718,4170.641,4184.744000000001,4105.897,4163.718,4183.205,4168.077,4158.077,4175.0,4169.615,4169.359,4168.462,4186.026,0,0
472,47,0,0,4176.41,4185.385,4168.846,4185.128,4111.154,4162.179,4183.974,4168.59,4159.359,4183.077,4160.255999999999,4166.026,4170.769,4184.359,0,0
473,48,0,0,4185.0,4190.641,4172.436,4187.179,4114.359,4168.59,4185.897,4179.615,4167.821,4183.077,4178.59,4168.205,4171.795,4187.9490000000005,0,0
474,49,0,0,4180.0,4197.0509999999995,4170.385,4186.026,4111.026,4169.872,4181.795,4183.462,4168.333,4170.897,4188.462,4168.59,4170.128,4187.564,0,0
475,50,0,0,4169.103,4187.821,4166.795,4183.974,4107.564,4162.564,4173.333,4182.308,4168.462,4170.769,4182.308,4169.359,4174.744000000001,4187.564,0,0
476,51,0,0,4170.385,4179.487,4169.615,4184.744000000001,4109.359,4163.974,4172.9490000000005,4185.641,4173.59,4186.026,4180.769,4172.564,4182.179,4191.538,0,0
477,52,0,0,4174.744000000001,4185.897,4171.667,4187.692,4115.897,4168.077,4175.128,4182.564,4172.0509999999995,4193.205,4177.179,4169.744000000001,4179.231,4189.615,0,0
478,53,0,0,4169.744000000001,4187.564,4167.179,4186.538,4116.667,4166.923,4171.41,4175.897,4167.821,4180.255999999999,4172.692,4166.154,4170.385,4185.513,0,0
479,54,0,0,4168.333,4182.436,4167.0509999999995,4183.205,4107.564,4168.59,4176.026,4177.436,4169.487,4169.615,4175.385,4168.462,4170.385,4186.538,0,0
480,55,0,0,4168.974,4182.308,4168.205,4182.564,4110.0,4169.487,4186.026,4178.974,4170.897,4174.615,4172.0509999999995,4163.59,4172.564,4185.641,0,0
481,56,0,0,4163.846,4184.744000000001,4163.59,4180.0,4122.0509999999995,4169.359,4183.462,4171.538,4169.359,4176.41,4161.538,4152.564,4169.615,4182.179,0,0
482,57,0,0,4164.359,4180.385,4159.872,4174.231,4113.974,4171.923,4173.718,4162.436,4167.821,4167.308,4161.923,4152.308,4168.462,4181.795,0,0
483,58,0,0,4164.615,4170.128,4157.308,4170.0,4104.487,4165.385,4169.487,4162.564,4166.538,4161.41,4168.333,4155.128,4167.821,4182.179,0,0
484,59,0,0,4160.769,4169.487,4155.769,4169.744000000001,4109.744000000001,4155.641,4174.103,4166.41,4166.154,4170.769,4167.308,4151.667,4165.897,4182.821,0,0
485,60,0,0,4163.974,4176.795,4158.718,4176.667,4108.974,4161.667,4181.41,4168.974,4167.564,4176.667,4166.538,4157.0509999999995,4166.795,4185.385,0,0
486,61,0,0,4170.897,4177.179,4163.718,4181.154,4112.692,4170.641,4185.897,4175.769,4170.255999999999,4172.179,4177.9490000000005,4167.692,4171.282,4187.0509999999995,0,0
487,62,0,0,4169.103,4170.513,4160.897,4172.692,4120.128,4168.718,4186.282,4182.9490000000005,4171.795,4175.769,4181.667,4167.9490000000005,4173.718,4186.154,0,0
488,63,0,0,4166.538,4169.872,4158.59,4169.103,4113.333,4167.821,4186.282,4180.385,4171.282,4186.667,4169.744000000001,4164.615,4171.923,4184.872,0,0
489,64,0,2164,4171.923,4174.744000000001,4164.744000000001,4179.359,4112.821,4170.897,4188.205,4178.462,4171.538,4188.974,4173.462,4168.333,4171.923,4188.333,0,0
490,65,0,2056,4174.359,4173.974,4169.615,4183.718,4117.0509999999995,4172.436,4187.564,4185.513,4171.667,4184.615,4187.0509999999995,4175.128,4172.9490000000005,4191.538,0,0
491,66,0,3397,4172.0509999999995,4168.077,4169.615,4181.538,4113.333,4172.692,4187.564,4181.667,4169.872,4185.0,4186.282,4177.436,4171.41,4189.872,0,0
492,67,0,3304,4174.231,4169.744000000001,4169.359,4182.308,4118.205,4169.744000000001,4182.0509999999995,4172.308,4169.231,4183.974,4183.462,4175.255999999999,4170.0,4191.667,0,0
493,68,0,2744,4181.795,4180.641,4171.154,4182.436,4122.564,4167.692,4172.692,4173.333,4169.872,4182.436,4182.0509999999995,4174.231,4171.923,4198.077,0,0
494,69,0,2616,4184.103,4181.795,4171.667,4182.179,4112.0509999999995,4170.385,4174.615,4174.359,4167.9490000000005,4185.0,4175.769,4175.128,4172.436,4197.564,0,0
495,70,0,2366,4181.667,4177.692,4172.308,4183.59,4116.026,4170.641,4183.846,4174.744000000001,4166.538,4181.026,4180.128,4173.59,4169.359,4195.128,0,0
496,71,0,2962,4186.026,4184.615,4172.0509999999995,4186.282,4129.359,4173.718,4187.308,4180.513,4168.462,4180.385,4184.487,4172.692,4168.205,4199.487,0,0
497,72,0,2403,4183.974,4184.103,4170.0,4180.897,4119.103,4180.128,4187.564,4183.846,4169.872,4186.154,4172.821,4173.846,4169.872,4197.436,0,0
498,73,0,3468,4175.0,4169.615,4169.487,4170.769,4106.667,4178.59,4186.795,4181.282,4169.872,4183.974,4166.026,4170.769,4170.128,4188.718,0,0
499,74,0,2976,4176.923,4169.615,4168.846,4173.718,4114.103,4171.026,4182.692,4181.282,4169.231,4171.154,4171.41,4167.308,4167.9490000000005,4185.513,0,0
500,75,0,2878,4183.205,4183.333,4168.974,4182.564,4123.846,4170.0,4181.795,4183.718,4167.564,4163.077,4169.487,4166.538,4166.795,4186.41,0,0
501,76,0,2403,4185.128,4184.231,4171.923,4183.077,4123.846,4175.513,4182.692,4183.205,4167.0509999999995,4174.615,4170.255999999999,4168.077,4169.231,4192.564,0,0
502,77,0,3271,4187.0509999999995,4179.872,4172.436,4183.846,4118.205,4176.41,4180.128,4183.718,4168.333,4183.077,4178.462,4169.359,4171.795,4199.744000000001,0,0
503,78,0,2976,4185.641,4183.333,4171.667,4187.564,4123.462,4173.205,4181.667,4185.255999999999,4169.359,4174.359,4175.513,4169.744000000001,4171.41,4200.128,0,0
504,79,0,2878,4184.103,4185.385,4175.769,4184.872,4130.255999999999,4175.769,4185.513,4183.59,4171.026,4176.282,4171.026,4173.846,4170.128,4197.564,0,0
505,80,0,2403,4193.718,4185.128,4179.359,4184.231,4128.974,4184.359,4188.59,4186.41,4173.462,4188.718,4180.385,4184.744000000001,4170.769,4203.59,0,0
506,81,0,3271,4200.513,4182.692,4175.641,4188.718,4131.667,4186.667,4191.026,4191.282,4173.077,4186.538,4185.128,4185.513,4172.821,4208.077,0,0
507,82,0,2976,4186.667,4174.744000000001,4169.359,4183.462,4132.692,4176.923,4187.9490000000005,4182.0509999999995,4169.359,4172.9490000000005,4173.974,4170.513,4172.821,4195.769,0,0
508,83,0,2878,4173.846,4169.487,4167.436,4174.744000000001,4121.41,4169.744000000001,4182.436,4172.9490000000005,4167.821,4169.231,4166.795,4163.205,4168.077,4186.667,0,0
509,84,0,2403,4177.9490000000005,4170.255999999999,4168.59,4176.154,4118.205,4172.436,4181.538,4181.923,4169.615,4174.359,4170.513,4167.821,4165.513,4192.821,0,0
510,85,0,3271,4184.103,4172.692,4169.615,4182.436,4124.744000000001,4175.385,4183.077,4189.231,4171.667,4176.923,4171.795,4166.795,4171.154,4198.333,0,0
511,86,0,2976,4185.513,4181.795,4171.282,4184.744000000001,4121.795,4174.744000000001,4183.846,4187.179,4177.308,4180.255999999999,4174.359,4166.026,4176.41,4198.205,0,0
512,87,0,2878,4186.923,4189.231,4173.205,4180.641,4126.667,4173.077,4182.564,4187.821,4184.231,4185.255999999999,4176.026,4171.538,4175.128,4202.0509999999995,0,0
513,88,0,2403,4186.154,4176.282,4172.436,4174.615,4135.769,4174.744000000001,4182.0509999999995,4187.821,4181.538,4186.282,4171.154,4172.436,4172.436,4203.205,0,0
514,89,0,3271,4184.103,4164.103,4171.795,4177.179,4125.128,4179.103,4191.154,4192.308,4177.9490000000005,4184.487,4171.923,4173.718,4173.462,4197.564,0,0
515,90,0,2976,4184.744000000001,4175.769,4173.077,4182.436,4120.128,4179.872,4201.026,4202.0509999999995,4182.9490000000005,4184.103,4183.077,4183.59,4172.179,4198.846,0,0
516,91,0,2878,4185.128,4183.974,4171.667,4177.436,4130.385,4178.333,4200.128,4199.359,4186.154,4183.974,4186.154,4188.462,4169.231,4201.667,0,0
517,92,0,2403,4184.487,4174.359,4174.744000000001,4171.41,4130.255999999999,4182.0509999999995,4197.821,4194.231,4183.59,4188.974,4181.282,4184.744000000001,4177.564,4199.744000000001,0,0
518,93,0,3271,4187.821,4173.846,4183.077,4174.359,4123.205,4185.513,4199.103,4200.0,4185.769,4195.897,4184.359,4186.923,4187.692,4200.513,0,0
519,94,0,2976,4189.872,4184.487,4183.077,4176.667,4130.769,4185.897,4201.41,4202.9490000000005,4189.487,4198.59,4188.333,4191.154,4183.846,4203.205,0,0
520,95,0,2878,4192.692,4185.641,4180.385,4177.692,4136.282,4184.872,4199.487,4197.821,4188.077,4198.462,4185.641,4189.231,4180.0,4203.59,0,0
521,96,0,2403,4201.41,4186.282,4187.0509999999995,4184.872,4133.59,4178.462,4190.385,4198.974,4185.769,4197.0509999999995,4186.923,4186.538,4184.872,4203.846,0,0
522,97,0,3271,4200.769,4189.615,4184.103,4182.436,4132.821,4169.872,4183.59,4199.487,4184.103,4198.974,4185.255999999999,4182.179,4180.897,4203.59,0,0
523,98,0,2976,4189.872,4185.769,4171.026,4170.255999999999,4128.205,4170.255999999999,4186.026,4189.615,4181.41,4197.9490000000005,4169.744000000001,4177.564,4169.487,4200.255999999999,0,0
524,99,0,2878,4186.282,4183.077,4173.59,4170.513,4126.923,4174.359,4188.077,4183.846,4180.641,4187.692,4165.513,4180.255999999999,4167.0509999999995,4199.487,0,0
525,100,0,2403,4189.744000000001,4186.026,4183.974,4184.359,4137.0509999999995,4175.897,4185.641,4190.128,4183.59,4182.436,4178.718,4186.282,4168.205,4201.41,0,0
526,101,0,3271,4187.821,4186.538,4183.59,4184.103,4145.128,4175.769,4184.744000000001,4191.795,4186.923,4181.667,4177.9490000000005,4186.026,4166.923,4200.513,0,0
527,102,0,2976,4184.615,4185.385,4181.026,4171.538,4140.769,4172.692,4185.128,4184.615,4184.615,4177.564,4168.077,4183.974,4167.9490000000005,4201.154,0,0
528,103,0,2878,4185.255999999999,4182.564,4182.179,4169.487,4130.128,4169.744000000001,4180.769,4180.128,4176.282,4181.282,4171.795,4183.846,4168.718,4203.077,0,0
529,104,0,2403,4185.513,4178.59,4180.769,4171.538,4124.103,4170.641,4175.513,4180.128,4169.872,4188.59,4171.538,4184.615,4165.641,4200.128,0,0
530,105,0,3271,4187.9490000000005,4181.538,4182.564,4170.641,4125.641,4172.436,4178.462,4181.667,4171.282,4185.385,4167.179,4185.513,4172.308,4198.718,0,0
531,106,0,2976,4191.538,4187.564,4184.103,4171.41,4127.179,4172.179,4185.0,4184.872,4178.718,4183.205,4174.872,4178.205,4182.9490000000005,4202.179,0,0
532,107,0,2878,4189.615,4188.077,4179.872,4171.667,4127.9490000000005,4171.282,4179.872,4184.231,4181.538,4185.128,4178.077,4171.026,4177.564,4202.564,0,0
533,108,0,2403,4187.0509999999995,4185.641,4180.769,4170.255999999999,4136.026,4172.308,4174.744000000001,4184.359,4175.897,4186.41,4169.231,4176.026,4168.59,4201.538,0,0
534,109,0,3271,4186.795,4183.077,4181.282,4170.255999999999,4137.9490000000005,4171.795,4176.795,4187.821,4171.795,4190.255999999999,4166.282,4179.231,4173.59,4201.795,0,0
535,110,0,2976,4182.179,4182.308,4172.179,4169.359,4131.282,4169.615,4173.846,4181.282,4172.179,4181.923,4167.0509999999995,4171.923,4176.795,4199.615,0,0
536,111,0,2878,4177.564,4185.0,4167.564,4168.333,4133.462,4169.872,4172.436,4170.385,4170.128,4169.359,4167.179,4167.692,4170.128,4198.846,0,0
537,112,0,2403,4180.769,4187.692,4173.333,4171.667,4137.821,4170.897,4175.0,4169.103,4168.974,4176.41,4170.128,4172.692,4171.667,4200.255999999999,0,0
538,113,0,3271,4184.615,4185.641,4172.308,4171.538,4137.179,4169.359,4171.795,4172.179,4170.897,4183.846,4171.282,4174.103,4177.692,4198.59,0,0
539,114,0,2976,4183.462,4183.59,4168.59,4165.513,4137.179,4168.846,4173.205,4174.103,4172.692,4174.744000000001,4171.538,4170.513,4177.179,4197.9490000000005,0,0
540,115,0,2878,4186.026,4187.692,4180.0,4167.821,4135.641,4169.744000000001,4184.615,4181.538,4177.9490000000005,4177.821,4176.41,4177.9490000000005,4179.103,4202.0509999999995,0,0
541,116,0,2403,4188.974,4190.641,4187.564,4173.333,4135.385,4172.308,4188.077,4187.179,4185.128,4201.923,4174.103,4185.769,4186.026,4202.692,0,0
542,117,0,3271,4185.385,4185.641,4177.308,4168.205,4138.205,4179.615,4184.103,4183.974,4184.744000000001,4201.923,4168.846,4176.154,4187.0509999999995,4200.128,0,0
543,118,0,2976,4181.282,4184.615,4170.513,4167.308,4139.359,4181.154,4188.462,4183.846,4177.9490000000005,4182.821,4170.897,4166.282,4180.128,4196.41,0,0
544,119,0,2878,4176.795,4191.154,4173.077,4171.538,4139.103,4173.974,4190.0,4181.026,4172.179,4183.974,4168.846,4166.282,4178.077,4191.795,0,0
545,120,0,2403,4169.744000000001,4182.0509999999995,4169.744000000001,4159.744000000001,4136.667,4169.487,4182.436,4170.385,4169.872,4187.308,4158.205,4160.128,4177.179,4187.9490000000005,0,0
546,121,0,3271,4164.359,4171.154,4166.026,4148.974,4134.487,4169.359,4179.231,4169.615,4169.231,4171.923,4151.41,4152.821,4172.308,4184.231,0,0
547,122,0,2976,4170.897,4185.769,4168.59,4161.923,4134.872,4168.846,4182.179,4180.128,4171.41,4167.821,4160.641,4159.744000000001,4175.385,4186.154,0,0
548,123,0,2878,4184.231,4200.641,4171.538,4173.59,4136.154,4169.872,4181.667,4185.255999999999,4179.231,4182.821,4176.923,4175.255999999999,4184.487,4199.872,0,0
549,124,0,2403,4189.615,4192.179,4176.154,4170.769,4138.333,4172.821,4181.282,4186.41,4186.41,4191.026,4180.385,4187.179,4188.718,4208.205,0,0
550,125,0,3271,4183.462,4182.0509999999995,4177.9490000000005,4170.0,4135.385,4173.59,4185.641,4187.9490000000005,4183.333,4190.641,4170.0,4183.333,4183.333,4201.923,0,0
551,126,0,2976,4175.769,4184.487,4173.59,4167.0509999999995,4130.255999999999,4173.718,4188.718,4186.795,4178.077,4185.128,4170.641,4173.59,4173.462,4198.846,0,0
552,127,0,52,4171.026,4181.026,4169.487,4156.282,4135.0,4172.436,4187.692,4185.385,4174.872,4175.769,4171.923,4168.974,4167.308,4197.0509999999995,0,0
553,0,0,2165,4168.077,4171.538,4168.205,4152.564,4140.255999999999,4171.282,4185.255999999999,4180.897,4171.667,4171.538,4159.615,4159.487,4168.205,4186.026,0,0
554,1,0,2062,4165.641,4171.282,4166.026,4157.179,4130.255999999999,4171.667,4186.41,4178.718,4171.282,4170.255999999999,4161.667,4151.026,4170.769,4181.923,0,0
555,2,0,3401,4158.59,4174.487,4161.026,4154.872,4119.615,4168.718,4181.923,4180.513,4172.308,4166.667,4168.846,4152.9490000000005,4169.487,4180.0,0,0
556,3,0,3306,4153.718,4171.667,4159.872,4150.255999999999,4124.744000000001,4163.974,4170.641,4176.667,4170.255999999999,4166.795,4157.308,4153.59,4168.718,4172.821,0,0
557,4,0,2743,4155.255999999999,4167.436,4166.154,4153.718,4126.282,4165.255999999999,4172.821,4173.462,4172.436,4171.282,4154.872,4156.154,4172.9490000000005,4175.128,0,0
558,5,0,2616,4159.744000000001,4171.667,4171.795,4157.564,4124.103,4170.641,4186.026,4181.41,4178.718,4179.359,4168.333,4169.744000000001,4178.846,4187.308,0,0
559,6,0,2366,4162.692,4174.359,4171.026,4156.667,4131.282,4172.692,4188.205,4186.026,4180.0,4181.538,4169.744000000001,4172.0509999999995,4177.692,4187.308,0,0
560,7,0,2965,4158.718,4172.436,4168.462,4154.615,4141.282,4174.359,4185.0,4183.846,4180.641,4173.718,4165.255999999999,4160.0,4172.436,4177.308,0,0
561,8,0,2403,4156.923,4171.026,4168.974,4154.487,4141.282,4175.897,4187.692,4189.231,4182.9490000000005,4177.9490000000005,4166.667,4157.564,4172.692,4174.103,0,0
562,9,0,3475,4161.538,4169.103,4168.974,4154.744000000001,4129.487,4172.9490000000005,4186.538,4191.282,4178.205,4185.0,4159.359,4158.333,4171.667,4174.103,0,0
563,10,0,2975,4161.026,4169.744000000001,4163.462,4155.0,4121.923,4170.0,4182.564,4183.59,4172.564,4168.077,4150.128,4152.179,4165.641,4170.0,0,0
564,11,0,2882,4152.179,4169.103,4155.897,4153.205,4125.128,4169.487,4182.692,4181.154,4172.308,4152.564,4154.103,4150.385,4166.282,4166.795,0,0
565,12,0,2409,4153.077,4162.308,4154.487,4150.769,4128.205,4170.128,4184.231,4184.872,4172.179,4158.077,4160.385,4152.821,4167.821,4171.026,0,0
566,13,0,3273,4154.744000000001,4155.641,4155.255999999999,4151.282,4127.564,4166.923,4181.154,4180.0,4169.487,4158.462,4148.59,4143.974,4159.359,4169.231,0,0
567,14,0,2975,4143.333,4158.974,4153.846,4152.308,4127.821,4159.744000000001,4170.769,4175.641,4165.897,4148.718,4138.205,4132.0509999999995,4149.231,4158.718,0,0
568,15,0,2882,4139.103,4165.513,4153.59,4152.436,4130.769,4159.359,4167.564,4182.564,4165.0,4148.846,4149.103,4137.179,4150.897,4159.487,0,0
569,16,0,0,4152.308,4168.077,4158.333,4154.231,4136.282,4167.9490000000005,4177.564,4187.0509999999995,4169.615,4162.179,4160.769,4151.282,4162.821,4169.359,0,0
570,17,0,0,4159.359,4170.641,4161.538,4156.667,4139.872,4173.077,4183.205,4191.795,4171.538,4172.308,4156.026,4155.513,4168.333,4171.795,0,0
571,18,0,0,4154.615,4168.718,4158.077,4154.359,4137.179,4170.641,4180.128,4197.0509999999995,4168.59,4166.282,4151.026,4150.0,4166.667,4165.769,0,0
572,19,0,0,4158.462,4171.538,4160.0,4156.795,4142.308,4170.641,4182.821,4190.897,4169.359,4158.59,4158.718,4151.41,4168.333,4166.41,0,0
573,20,0,0,4170.0,4182.0509999999995,4169.487,4164.872,4155.255999999999,4173.974,4187.9490000000005,4184.744000000001,4172.692,4161.795,4167.436,4159.872,4172.821,4173.59,0,0
574,21,0,0,4169.615,4179.487,4171.154,4161.026,4156.923,4173.462,4185.513,4189.615,4171.795,4167.179,4163.077,4158.846,4171.41,4177.692,0,0
575,22,0,0,4163.974,4167.564,4166.795,4153.718,4147.436,4169.615,4181.667,4187.9490000000005,4168.718,4168.718,4153.205,4154.744000000001,4167.436,4178.718,0,0
576,23,0,0,4166.667,4167.179,4168.462,4154.744000000001,4140.128,4167.9490000000005,4183.718,4182.564,4168.974,4170.641,4160.128,4162.0509999999995,4168.59,4180.255999999999,0,0
577,24,0,0,4173.718,4171.923,4170.769,4156.282,4137.692,4169.615,4184.359,4189.744000000001,4173.077,4171.026,4173.333,4170.641,4168.205,4185.641,0,0
578,25,0,0,4179.872,4173.077,4170.641,4160.897,4138.974,4171.154,4186.154,4199.487,4179.231,4176.923,4172.564,4173.333,4169.615,4194.359,0,0
579,26,0,0,4186.154,4173.974,4173.846,4164.744000000001,4139.872,4173.59,4195.897,4201.538,4184.744000000001,4185.255999999999,4168.59,4181.41,4178.077,4201.026,0,0
580,27,0,0,4182.692,4171.026,4173.462,4159.231,4138.718,4174.487,4196.795,4198.333,4185.255999999999,4182.564,4171.282,4184.359,4180.641,4197.821,0,0
581,28,0,0,4176.282,4171.41,4171.282,4160.897,4145.641,4174.359,4187.9490000000005,4200.255999999999,4186.667,4183.59,4177.436,4177.821,4174.744000000001,4194.103,0,0
582,29,0,0,4175.513,4175.255999999999,4171.154,4168.59,4153.462,4173.59,4187.0509999999995,4200.897,4186.538,4192.0509999999995,4179.487,4176.795,4173.205,4196.41,0,0
583,30,0,0,4172.0509999999995,4169.744000000001,4169.487,4160.255999999999,4142.564,4170.0,4187.0509999999995,4188.462,4175.641,4180.385,4170.641,4174.744000000001,4173.077,4189.615,0,0
584,31,0,0,4172.179,4173.974,4167.821,4156.282,4131.923,4169.359,4186.41,4185.513,4171.795,4171.41,4166.795,4172.0509999999995,4168.974,4184.231,0,0
585,32,0,0,4184.231,4184.103,4171.538,4167.821,4146.795,4172.9490000000005,4194.103,4197.564,4184.231,4183.077,4177.692,4177.692,4170.513,4192.308,0,0
586,33,0,0,4184.487,4177.692,4173.077,4167.436,4155.385,4173.462,4195.128,4193.718,4186.154,4175.769,4173.59,4175.513,4172.308,4193.077,0,0
587,34,0,0,4169.872,4173.974,4167.9490000000005,4160.385,4139.615,4170.641,4185.513,4181.41,4171.41,4165.0,4158.718,4164.103,4165.385,4183.205,0,0
588,35,0,0,4172.9490000000005,4184.231,4168.846,4165.128,4138.462,4169.359,4185.128,4183.462,4167.436,4181.154,4163.205,4167.179,4164.359,4184.744000000001,0,0
589,36,0,0,4185.641,4186.795,4175.255999999999,4170.0,4154.231,4170.255999999999,4187.9490000000005,4187.692,4177.9490000000005,4188.205,4178.077,4173.846,4171.538,4189.359,0,0
590,37,0,0,4185.128,4179.872,4175.255999999999,4166.923,4157.436,4171.923,4184.615,4190.513,4184.231,4179.359,4179.744000000001,4171.154,4173.846,4186.538,0,0
591,38,0,0,4184.487,4182.821,4172.179,4168.718,4153.718,4172.564,4183.846,4201.026,4185.255999999999,4186.667,4176.282,4176.538,4171.923,4192.308,0,0
592,39,0,0,4188.333,4188.462,4171.923,4172.0509999999995,4154.231,4171.41,4188.718,4208.205,4184.103,4191.795,4177.0509999999995,4186.795,4171.538,4201.026,0,0
593,40,0,0,4186.282,4186.026,4171.923,4168.59,4152.9490000000005,4170.641,4195.513,4207.308,4184.103,4182.821,4179.359,4188.333,4173.59,4198.333,0,0
594,41,0,0,4184.615,4181.923,4171.026,4166.795,4150.128,4171.923,4200.255999999999,4205.0,4185.128,4183.333,4180.385,4180.897,4174.103,4195.385,0,0
595,42,0,0,4184.744000000001,4182.692,4171.026,4168.205,4152.179,4172.821,4199.103,4203.205,4183.077,4185.769,4170.897,4171.282,4172.692,4197.179,0,0
596,43,0,0,4187.308,4187.692,4174.744000000001,4170.513,4155.769,4171.154,4197.821,4204.231,4181.154,4182.0509999999995,4168.59,4170.255999999999,4174.487,4200.128,0,0
597,44,0,0,4194.872,4188.205,4180.769,4171.026,4155.128,4169.359,4193.333,4204.231,4181.154,4181.41,4177.9490000000005,4176.026,4175.641,4201.923,0,0
598,45,0,0,4195.513,4186.795,4180.897,4167.308,4152.179,4170.128,4186.667,4201.923,4182.0509999999995,4185.513,4173.59,4174.103,4173.974,4200.128,0,0
599,46,0,0,4192.9490000000005,4189.231,4178.846,4165.513,4153.718,4172.308,4191.667,4203.333,4183.718,4189.103,4165.641,4168.718,4178.846,4198.846,0,0
600,47,0,0,4196.41,4190.513,4182.0509999999995,4169.487,4154.744000000001,4173.462,4201.026,4205.0,4185.769,4187.9490000000005,4178.077,4173.462,4188.974,4204.103,0,0
601,48,0,0,4194.872,4187.308,4185.255999999999,4171.795,4150.641,4173.462,4199.872,4204.231,4185.255999999999,4183.333,4185.255999999999,4176.282,4185.255999999999,4202.821,0,0
602,49,0,0,4185.769,4184.615,4181.795,4170.513,4151.667,4173.462,4197.564,4204.359,4181.923,4180.513,4171.154,4170.769,4172.821,4191.667,0,0
603,50,0,0,4182.436,4185.641,4174.744000000001,4171.282,4156.154,4172.564,4198.333,4204.487,4181.795,4182.436,4167.308,4167.692,4171.41,4188.077,0,0
604,51,0,0,4182.9490000000005,4185.255999999999,4169.872,4169.103,4154.103,4170.385,4192.564,4203.462,4184.615,4187.0509999999995,4171.41,4167.0509999999995,4176.923,4188.846,0,0
605,52,0,0,4184.231,4184.487,4169.103,4163.333,4152.308,4169.744000000001,4185.513,4200.897,4181.282,4182.692,4168.846,4165.641,4180.0,4187.179,0,0
606,53,0,0,4186.026,4184.359,4170.897,4161.282,4155.0,4169.103,4181.923,4193.59,4173.846,4172.692,4167.821,4166.154,4177.692,4187.9490000000005,0,0
607,54,0,0,4185.255999999999,4183.077,4170.385,4165.0,4153.718,4168.205,4182.9490000000005,4191.282,4171.538,4173.462,4172.308,4168.846,4178.974,4189.744000000001,0,0
608,55,0,0,4187.308,4185.897,4170.513,4171.154,4155.641,4171.795,4193.846,4194.487,4175.255999999999,4182.179,4175.769,4168.333,4182.821,4189.872,0,0
609,56,0,0,4183.077,4183.333,4172.179,4165.128,4161.795,4174.103,4200.0,4189.103,4175.513,4185.0,4172.436,4158.333,4177.179,4188.59,0,0
610,57,0,0,4171.154,4174.487,4170.769,4157.436,4161.282,4170.385,4194.615,4181.282,4173.718,4184.615,4164.744000000001,4148.077,4174.103,4182.0509999999995,0,0
611,58,0,0,4168.333,4176.538,4168.333,4163.333,4152.564,4167.692,4193.718,4184.231,4173.205,4185.385,4169.103,4155.641,4181.538,4178.462,0,0
612,59,0,0,4179.487,4186.026,4176.41,4170.128,4148.077,4170.385,4199.615,4188.846,4174.872,4182.308,4188.333,4172.308,4185.0,4191.026,0,0
613,60,0,0,4187.821,4188.974,4183.205,4171.41,4177.0509999999995,4171.282,4196.667,4188.846,4178.333,4180.641,4190.513,4174.744000000001,4181.923,4198.59,0,0
614,61,0,0,4181.538,4185.128,4175.513,4166.923,4223.718,4167.9490000000005,4187.692,4189.359,4175.641,4185.513,4171.282,4168.333,4181.538,4188.846,0,0
615,62,0,0,4175.641,4182.692,4167.821,4159.744000000001,4241.538,4165.0,4184.359,4186.538,4172.179,4185.641,4164.487,4168.59,4173.462,4182.9490000000005,0,0
616,63,0,0,4179.615,4183.462,4170.385,4159.872,4240.0,4164.872,4185.255999999999,4186.538,4176.41,4182.9490000000005,4174.872,4168.205,4166.795,4186.154,0,0
617,64,0,2167,4186.538,4187.9490000000005,4178.333,4169.359,4247.9490000000005,4168.846,4187.436,4189.615,4178.59,4186.026,4187.436,4168.077,4178.077,4195.255999999999,0,0
618,65,0,2071,4188.205,4191.538,4181.795,4171.282,4254.231,4170.0,4187.436,4180.897,4171.154,4184.487,4187.179,4175.513,4182.692,4201.282,0,0
619,66,0,3403,4185.769,4187.0509999999995,4175.769,4165.255999999999,4248.974,4166.667,4183.59,4165.897,4164.231,4170.0,4171.795,4172.564,4171.282,4194.615,0,0
620,67,0,3313,4186.026,4186.026,4172.436,4165.128,4247.9490000000005,4167.564,4184.103,4165.0,4167.9490000000005,4163.59,4168.974,4165.641,4168.205,4190.513,0,0
621,68,0,2739,4196.282,4195.385,4182.821,4169.231,4253.974,4173.462,4193.205,4175.769,4171.667,4179.744000000001,4185.641,4180.0,4180.897,4202.692,0,0
622,69,0,2616,4206.41,4197.179,4188.59,4172.436,4263.718,4176.154,4194.359,4183.077,4170.897,4185.128,4183.462,4186.923,4185.769,4207.0509999999995,0,0
623,70,0,2364,4202.0509999999995,4187.564,4182.436,4170.128,4270.0,4173.718,4187.0509999999995,4191.154,4176.026,4176.026,4171.667,4174.487,4180.385,4197.179,0,0
624,71,0,2966,4199.359,4189.103,4183.205,4168.333,4267.821,4172.179,4185.769,4200.385,4185.641,4182.692,4184.359,4180.0,4183.718,4198.59,0,0
625,72,0,2403,4201.538,4194.615,4186.026,4170.385,4266.026,4170.897,4187.179,4202.821,4184.359,4186.026,4191.923,4190.513,4182.179,4202.436,0,0
626,73,0,3474,4195.128,4185.385,4181.795,4169.231,4264.615,4170.128,4184.744000000001,4197.0509999999995,4175.513,4175.513,4172.821,4174.231,4174.231,4192.564,0,0
627,74,0,2975,4193.205,4181.538,4182.436,4167.821,4263.974,4170.641,4183.333,4190.385,4172.692,4172.821,4163.718,4169.231,4180.128,4193.333,0,0
628,75,0,2882,4196.026,4186.923,4182.821,4170.385,4264.872,4170.128,4184.103,4187.821,4172.692,4174.103,4177.436,4183.077,4184.359,4199.744000000001,0,0
629,76,0,2370,4187.564,4185.385,4173.333,4169.487,4262.9490000000005,4169.487,4184.487,4187.308,4169.872,4171.026,4185.513,4174.359,4175.255999999999,4190.255999999999,0,0
630,77,0,3267,4181.538,4185.513,4171.795,4166.41,4262.179,4169.359,4185.897,4191.667,4171.282,4172.692,4182.179,4161.667,4176.282,4185.769,0,0
631,78,0,2975,4189.359,4190.128,4182.179,4170.769,4263.846,4169.359,4186.667,4197.564,4176.026,4173.718,4184.872,4174.359,4185.385,4199.359,0,0
632,79,0,2882,4192.308,4187.179,4184.615,4173.718,4261.667,4168.974,4184.359,4198.333,4180.255999999999,4178.846,4191.154,4186.282,4184.487,4202.9490000000005,0,0
633,80,0,2370,4191.41,4182.0509999999995,4181.026,4170.769,4261.667,4169.487,4183.846,4198.077,4184.359,4195.0,4183.077,4183.333,4184.744000000001,4194.359,0,0
634,81,0,3267,4197.0509999999995,4185.641,4184.615,4170.385,4264.231,4169.103,4184.744000000001,4199.744000000001,4185.897,4193.462,4176.026,4186.282,4186.026,4199.231,0,0
635,82,0,2975,4194.615,4191.923,4184.487,4169.103,4255.897,4165.897,4179.231,4193.59,4183.59,4182.0509999999995,4181.538,4182.9490000000005,4181.41,4199.615,0,0
636,83,0,2882,4184.103,4182.9490000000005,4180.255999999999,4166.026,4243.974,4165.385,4174.872,4184.359,4183.205,4186.282,4185.0,4172.436,4182.9490000000005,4187.9490000000005,0,0
637,84,0,2370,4184.872,4174.487,4181.923,4169.359,4246.154,4169.487,4180.641,4190.513,4184.231,4187.692,4193.462,4178.974,4188.974,4190.641,0,0
638,85,0,3267,4186.923,4178.718,4178.59,4168.205,4252.0509999999995,4171.923,4184.359,4201.538,4183.846,4187.179,4201.667,4184.744000000001,4189.359,4197.308,0,0
639,86,0,2975,4175.897,4177.436,4170.641,4155.255999999999,4250.769,4170.128,4182.821,4199.103,4186.41,4201.282,4201.795,4173.974,4188.205,4190.0,0,0
640,87,0,2882,4170.897,4171.538,4168.846,4153.077,4246.026,4167.9490000000005,4184.359,4188.462,4183.846,4197.564,4199.231,4169.103,4188.077,4184.615,0,0
641,88,0,2370,4176.026,4171.667,4171.154,4165.255999999999,4237.308,4167.692,4181.538,4184.872,4173.974,4167.9490000000005,4185.255999999999,4174.872,4181.154,4187.564,0,0
642,89,0,3267,4176.026,4167.692,4169.872,4170.641,4233.205,4168.205,4175.128,4187.9490000000005,4171.282,4164.872,4177.0509999999995,4172.0509999999995,4170.641,4185.255999999999,0,0
643,90,0,2975,4172.564,4163.59,4166.923,4162.564,4238.205,4168.846,4174.231,4188.205,4175.255999999999,4187.0509999999995,4193.462,4169.231,4171.923,4182.692,0,0
644,91,0,2882,4172.436,4170.385,4166.282,4152.821,4237.308,4170.255999999999,4172.0509999999995,4186.795,4178.205,4192.0509999999995,4208.333,4169.615,4182.9490000000005,4184.615,0,0
645,92,0,2370,4176.923,4172.821,4167.821,4156.667,4232.179,4170.769,4170.255999999999,4186.923,4181.538,4183.333,4202.179,4168.59,4187.179,4184.359,0,0
646,93,0,3267,4182.308,4170.255999999999,4170.897,4165.255999999999,4238.205,4169.487,4171.795,4188.333,4184.872,4184.103,4190.513,4177.436,4184.615,4185.641,0,0
647,94,0,2975,4186.667,4177.821,4178.333,4172.436,4251.282,4169.487,4174.359,4189.487,4183.333,4183.974,4190.513,4185.513,4186.538,4189.872,0,0
648,95,0,2882,4188.59,4181.923,4185.385,4178.462,4254.103,4173.333,4178.846,4190.641,4181.795,4174.359,4204.487,4180.128,4188.205,4195.385,0,0
649,96,0,2370,4187.9490000000005,4181.795,4179.487,4176.41,4246.795,4176.154,4183.462,4190.0,4183.333,4173.846,4212.9490000000005,4172.179,4185.128,4196.154,0,0
650,97,0,3267,4185.641,4184.872,4171.154,4167.9490000000005,4244.872,4173.462,4183.718,4188.974,4181.154,4187.179,4202.0509999999995,4174.103,4185.513,4190.897,0,0
651,98,0,2975,4182.179,4181.795,4172.564,4167.0509999999995,4249.615,4171.026,4183.462,4186.667,4175.641,4190.385,4198.59,4172.692,4187.9490000000005,4185.255999999999,0,0
652,99,0,2882,4185.513,4178.205,4175.128,4172.692,4246.795,4173.077,4184.744000000001,4186.667,4173.205,4181.538,4206.282,4170.385,4185.641,4186.923,0,0
653,100,0,2370,4192.9490000000005,4183.974,4179.615,4173.333,4241.795,4176.41,4184.359,4192.179,4177.692,4183.205,4202.9490000000005,4180.769,4184.103,4196.538,0,0
654,101,0,3267,4195.641,4190.0,4185.0,4174.231,4247.692,4174.231,4183.077,4193.462,4182.9490000000005,4185.385,4202.436,4186.923,4186.282,4201.667,0,0
655,102,0,2975,4189.359,4182.179,4179.872,4173.846,4248.462,4169.615,4182.179,4187.179,4181.667,4178.718,4199.487,4179.103,4185.513,4192.0509999999995,0,0
656,103,0,2882,4179.487,4172.308,4170.128,4166.795,4235.769,4169.487,4182.9490000000005,4185.128,4174.615,4186.41,4191.667,4162.436,4181.667,4180.641,0,0
657,104,0,2370,4178.077,4178.718,4170.769,4165.641,4232.179,4168.974,4182.436,4186.026,4167.0509999999995,4189.615,4197.308,4151.154,4179.744000000001,4181.795,0,0
658,105,0,3267,4180.769,4184.487,4174.487,4169.487,4237.0509999999995,4167.692,4180.0,4184.615,4170.255999999999,4170.641,4203.205,4157.9490000000005,4180.769,4184.872,0,0
659,106,0,2975,4183.846,4182.692,4173.59,4169.487,4234.487,4170.385,4182.0509999999995,4190.641,4181.282,4172.179,4199.359,4171.667,4185.769,4183.59,0,0
660,107,0,2882,4186.026,4190.897,4172.564,4167.564,4231.667,4173.077,4186.923,4202.179,4186.154,4193.59,4200.0,4172.9490000000005,4189.103,4184.359,0,0
661,108,0,2370,4186.667,4198.205,4174.487,4171.026,4234.487,4171.154,4185.513,4198.846,4183.333,4185.641,4203.974,4169.487,4186.923,4188.718,0,0
662,109,0,3267,4186.923,4190.769,4173.333,4174.872,4233.974,4170.255999999999,4178.205,4186.795,4182.821,4170.641,4198.077,4176.538,4184.103,4191.667,0,0
663,110,0,2975,4185.769,4189.744000000001,4168.846,4172.821,4230.513,4170.641,4177.179,4185.897,4183.974,4182.9490000000005,4195.641,4179.231,4182.308,4189.487,0,0
664,111,0,2882,4188.077,4199.744000000001,4175.128,4167.0509999999995,4231.923,4169.872,4182.179,4188.205,4181.667,4190.897,4202.692,4171.026,4182.821,4189.615,0,0
665,112,0,2370,4195.128,4204.487,4184.103,4168.462,4234.615,4170.641,4184.231,4186.538,4180.641,4174.487,4205.128,4168.59,4184.487,4198.59,0,0
666,113,0,3267,4209.744000000001,4213.846,4184.615,4180.897,4234.615,4170.641,4183.974,4192.0509999999995,4180.641,4156.795,4201.154,4180.385,4179.487,4210.769,0,0
667,114,0,2975,4222.564,4224.487,4189.231,4185.255999999999,4234.487,4169.103,4185.513,4202.308,4181.41,4170.513,4204.615,4189.359,4179.103,4216.795,0,0
668,115,0,2882,4228.846,4233.205,4198.205,4184.487,4234.231,4169.872,4186.154,4200.255999999999,4182.692,4196.154,4221.026,4184.872,4188.718,4222.0509999999995,0,0
669,116,0,2370,4244.872,4254.744000000001,4201.923,4198.077,4230.255999999999,4171.923,4186.026,4195.897,4183.846,4192.564,4232.179,4190.385,4194.744000000001,4236.667,0,0
670,117,0,3267,4265.255999999999,4269.359,4207.821,4208.846,4231.923,4173.333,4188.333,4209.744000000001,4190.897,4195.897,4234.359,4211.923,4198.205,4255.0,0,0
671,118,0,2975,4268.462,4264.359,4211.795,4198.077,4242.0509999999995,4173.846,4188.333,4216.923,4193.974,4217.308,4234.744000000001,4217.179,4201.538,4258.333,0,0
672,119,0,2882,4263.59,4266.282,4205.641,4190.769,4241.282,4174.359,4186.282,4205.385,4186.538,4199.615,4225.128,4207.0509999999995,4192.564,4252.564,0,0
673,120,0,2370,4264.872,4273.718,4203.205,4200.0,4233.077,4174.231,4187.0509999999995,4201.41,4183.077,4168.205,4212.179,4207.9490000000005,4181.41,4255.385,0,0
674,121,0,3267,4257.564,4259.231,4205.385,4199.103,4230.513,4172.692,4189.231,4205.897,4186.41,4183.718,4220.0,4206.026,4185.128,4249.231,0,0
675,122,0,2975,4243.974,4243.974,4198.846,4190.128,4228.333,4172.179,4187.9490000000005,4200.897,4183.077,4200.128,4232.436,4191.282,4189.231,4233.59,0,0
676,123,0,2882,4248.846,4256.154,4199.744000000001,4199.359,4224.103,4177.0509999999995,4187.0509999999995,4199.487,4182.436,4188.333,4223.205,4196.795,4186.538,4240.255999999999,0,0
677,124,0,2370,4247.692,4252.692,4206.538,4202.821,4225.897,4176.667,4187.821,4199.615,4184.231,4183.205,4205.897,4204.487,4186.795,4244.744000000001,0,0
678,125,0,3267,4221.154,4218.205,4195.641,4180.513,4231.154,4169.359,4185.128,4188.333,4176.282,4178.59,4198.846,4181.154,4187.821,4216.538,0,0
679,126,0,2975,4208.846,4209.103,4185.897,4172.9490000000005,4228.205,4174.103,4183.718,4188.718,4175.255999999999,4170.513,4203.077,4169.872,4187.564,4200.255999999999,0,0
680,127,0,52,4215.513,4219.872,4190.769,4188.333,4220.385,4181.026,4185.769,4198.974,4182.9490000000005,4172.564,4214.487,4183.077,4187.692,4207.179,0,0
681,0,0,2163,4208.333,4201.282,4189.359,4184.359,4218.333,4174.487,4186.026,4199.744000000001,4183.974,4182.0509999999995,4215.0,4186.282,4187.564,4203.077,0,0
682,1,0,2063,4195.128,4181.41,4181.41,4167.436,4222.564,4169.359,4185.513,4201.538,4185.255999999999,4192.179,4202.564,4182.0509999999995,4187.564,4198.59,0,0
683,2,0,3394,4191.538,4181.282,4180.385,4168.846,4216.154,4171.795,4185.769,4204.487,4186.795,4191.538,4195.897,4177.564,4188.077,4198.333,0,0
684,3,0,3298,4187.692,4176.923,4182.179,4176.923,4207.0509999999995,4170.255999999999,4184.103,4204.615,4182.179,4178.077,4204.744000000001,4168.846,4187.9490000000005,4186.795,0,0
685,4,0,2753,4181.154,4184.231,4180.255999999999,4172.179,4213.974,4169.872,4183.205,4210.128,4182.692,4168.205,4211.667,4167.9490000000005,4187.179,4181.026,0,0
686,5,0,2616,4171.923,4204.103,4173.974,4165.769,4218.718,4172.436,4183.974,4207.0509999999995,4182.308,4174.615,4188.462,4172.179,4185.513,4180.769,0,0
687,6,0,2364,4169.615,4206.026,4171.41,4170.513,4214.359,4169.231,4182.564,4195.641,4172.692,4185.641,4169.744000000001,4168.205,4184.231,4176.154,0,0
688,7,0,2966,4184.231,4202.436,4178.59,4175.641,4214.744000000001,4170.128,4182.308,4197.564,4171.795,4192.692,4199.103,4170.769,4187.436,4179.872,0,0
689,8,0,2404,4184.615,4214.487,4178.462,4168.718,4216.923,4173.077,4183.462,4194.744000000001,4174.103,4180.385,4227.564,4176.41,4183.846,4188.077,0,0
690,9,0,3473,4168.718,4228.077,4169.359,4167.308,4213.846,4169.872,4182.821,4181.282,4166.795,4159.744000000001,4213.59,4175.255999999999,4172.564,4185.0,0,0
691,10,0,2976,4166.538,4224.872,4167.692,4171.154,4217.564,4166.923,4181.667,4182.0509999999995,4166.41,4164.872,4211.41,4166.154,4173.077,4175.897,0,0
692,11,0,2884,4168.333,4218.846,4167.692,4161.923,4217.0509999999995,4168.59,4183.846,4188.846,4173.077,4172.436,4220.128,4156.026,4180.641,4171.282,0,0
693,12,0,2404,4159.359,4225.897,4165.128,4158.846,4201.923,4168.846,4182.692,4184.744000000001,4171.026,4164.487,4205.0,4156.795,4181.41,4172.308,0,0
694,13,0,3275,4153.205,4236.282,4166.538,4166.026,4202.564,4161.41,4173.077,4177.179,4167.821,4170.0,4198.205,4155.769,4182.308,4172.564,0,0
695,14,0,2976,4159.359,4241.026,4167.179,4162.821,4216.538,4158.846,4173.205,4179.359,4168.077,4178.718,4205.769,4148.974,4185.255999999999,4168.59,0,0
696,15,0,2884,4165.897,4244.487,4166.41,4158.205,4211.41,4165.641,4181.538,4182.9490000000005,4167.436,4158.59,4210.897,4150.513,4182.179,4167.0509999999995,0,0
697,16,0,0,4170.128,4252.821,4171.41,4168.462,4208.333,4168.846,4177.436,4177.0509999999995,4169.872,4149.103,4217.308,4159.744000000001,4181.923,4173.462,0,0
698,17,0,0,4169.872,4253.59,4174.359,4171.923,4216.795,4167.179,4168.718,4169.103,4171.923,4168.846,4223.205,4159.744000000001,4183.846,4175.385,0,0
699,18,0,0,4157.308,4238.718,4164.359,4158.077,4207.179,4168.462,4168.59,4171.923,4169.487,4171.154,4218.462,4152.821,4175.128,4162.564,0,0
700,19,0,0,4146.538,4231.282,4156.923,4149.103,4203.205,4168.974,4167.821,4178.333,4168.846,4155.385,4204.744000000001,4146.795,4167.564,4152.9490000000005,0,0
701,20,0,0,4158.077,4247.308,4165.255999999999,4156.667,4220.385,4168.462,4166.538,4182.692,4171.154,4150.128,4200.897,4153.205,4174.231,4164.487,0,0
702,21,0,0,4169.744000000001,4253.974,4172.821,4164.615,4214.872,4172.436,4170.128,4188.077,4171.667,4156.538,4223.718,4166.795,4184.359,4176.923,0,0
703,22,0,0,4159.103,4236.667,4168.718,4158.205,4200.385,4171.667,4172.308,4187.821,4170.513,4158.59,4242.179,4160.641,4185.0,4170.255999999999,0,0
704,23,0,0,4149.231,4229.487,4164.231,4150.769,4205.641,4166.282,4171.667,4185.255999999999,4168.846,4151.282,4218.462,4148.59,4183.718,4161.538,0,0
705,24,0,0,4158.462,4239.487,4167.0509999999995,4155.0,4208.333,4166.923,4171.667,4186.026,4169.615,4153.077,4210.897,4162.179,4186.026,4173.718,0,0
706,25,0,0,4168.59,4241.026,4171.282,4158.077,4201.795,4170.255999999999,4171.154,4184.615,4172.692,4157.179,4232.436,4178.077,4184.103,4187.564,0,0
707,26,0,0,4168.718,4233.974,4171.154,4153.846,4196.795,4171.923,4171.026,4183.846,4171.667,4147.9490000000005,4226.538,4163.846,4181.41,4176.538,0,0
708,27,0,0,4168.205,4242.308,4169.359,4157.308,4195.513,4173.077,4173.077,4185.769,4168.846,4140.385,4209.487,4155.513,4183.333,4162.9490000000005,0,0
709,28,0,0,4172.0509999999995,4253.974,4170.641,4166.923,4202.564,4173.718,4176.923,4186.923,4170.897,4138.462,4215.769,4172.179,4181.667,4172.179,0,0
710,29,0,0,4171.154,4239.487,4172.0509999999995,4163.077,4207.692,4172.308,4179.872,4185.385,4172.179,4136.282,4218.333,4170.897,4178.59,4174.615,0,0
711,30,0,0,4167.821,4233.718,4171.923,4153.077,4200.769,4172.436,4180.0,4187.692,4169.359,4141.795,4216.795,4163.077,4182.179,4168.974,0,0
712,31,0,0,4172.308,4250.255999999999,4172.9490000000005,4156.282,4198.718,4174.103,4180.641,4192.564,4170.641,4151.41,4228.974,4177.179,4187.179,4179.103,0,0
713,32,0,0,4168.59,4244.872,4171.795,4161.923,4205.641,4171.282,4175.641,4191.026,4172.436,4149.359,4233.333,4174.744000000001,4183.974,4180.897,0,0
714,33,0,0,4158.59,4236.667,4171.154,4158.974,4205.769,4168.077,4173.077,4186.282,4172.436,4137.308,4222.692,4157.436,4183.59,4169.359,0,0
715,34,0,0,4157.179,4251.538,4171.538,4160.255999999999,4199.744000000001,4170.513,4182.564,4189.103,4178.462,4140.641,4216.41,4164.872,4192.436,4168.333,0,0
716,35,0,0,4155.128,4244.359,4168.974,4159.103,4197.821,4172.179,4183.205,4190.513,4185.128,4152.9490000000005,4227.564,4173.59,4199.744000000001,4172.9490000000005,0,0
717,36,0,0,4157.821,4227.692,4167.564,4157.564,4210.897,4173.59,4173.205,4185.897,4184.487,4151.795,4248.718,4168.846,4199.615,4171.667,0,0
718,37,0,0,4166.282,4237.436,4170.128,4163.59,4218.846,4177.436,4175.513,4188.846,4181.795,4145.641,4254.872,4168.462,4194.487,4170.255999999999,0,0
719,38,0,0,4171.538,4242.308,4178.205,4171.282,4206.795,4182.564,4187.308,4201.154,4184.231,4151.923,4239.103,4174.872,4190.769,4177.821,0,0
720,39,0,0,4169.487,4230.0,4182.308,4168.462,4197.692,4182.179,4186.795,4202.179,4185.897,4158.462,4223.077,4179.231,4189.744000000001,4181.538,0,0
721,40,0,0,4168.718,4228.205,4174.615,4158.462,4201.667,4176.154,4184.872,4189.615,4181.41,4157.179,4228.333,4180.0,4189.487,4174.487,0,0
722,41,0,0,4162.692,4235.897,4167.821,4156.026,4205.513,4170.128,4181.923,4183.077,4174.615,4152.564,4238.974,4173.462,4186.795,4167.692,0,0
723,42,0,0,4155.769,4232.0509999999995,4171.154,4156.795,4195.385,4169.359,4172.308,4185.0,4173.077,4139.872,4246.795,4168.974,4186.923,4171.154,0,0
724,43,0,0,4163.333,4219.487,4174.103,4155.255999999999,4188.205,4170.641,4174.359,4191.026,4178.333,4140.128,4243.974,4171.667,4191.026,4172.692,0,0
725,44,0,0,4165.385,4216.667,4169.615,4152.692,4194.615,4168.077,4186.41,4200.255999999999,4185.385,4155.641,4238.59,4170.641,4189.615,4168.333,0,0
726,45,0,0,4157.179,4221.667,4167.564,4153.59,4191.923,4166.795,4186.795,4204.359,4185.255999999999,4157.0509999999995,4236.795,4169.487,4189.744000000001,4167.564,0,0
727,46,0,0,4156.667,4218.077,4168.59,4153.077,4179.231,4167.308,4172.436,4194.744000000001,4172.692,4146.923,4235.0,4172.0509999999995,4189.103,4167.0509999999995,0,0
728,47,0,0,4167.9490000000005,4214.872,4169.872,4154.231,4186.538,4169.615,4167.308,4190.513,4169.615,4153.846,4240.128,4176.026,4183.59,4174.487,0,0
729,48,0,0,4166.667,4219.872,4168.205,4157.179,4203.59,4171.923,4177.436,4199.103,4182.692,4165.769,4240.641,4173.205,4188.59,4178.205,0,0
730,49,0,0,4156.282,4219.103,4166.667,4153.333,4200.897,4170.769,4185.0,4200.641,4186.667,4160.0,4230.769,4167.308,4197.0509999999995,4172.692,0,0
731,50,0,0,4164.103,4216.667,4170.255999999999,4155.128,4200.385,4172.179,4186.282,4200.255999999999,4181.923,4155.769,4227.0509999999995,4173.205,4191.667,4175.255999999999,0,0
732,51,0,0,4168.974,4219.103,4172.179,4158.333,4208.846,4175.0,4187.436,4205.385,4182.308,4158.333,4234.872,4172.9490000000005,4183.59,4174.615,0,0
733,52,0,0,4156.026,4216.538,4168.846,4153.333,4205.128,4173.59,4188.333,4201.795,4175.897,4144.359,4228.462,4159.872,4180.128,4161.026,0,0
734,53,0,0,4148.333,4212.436,4165.641,4149.744000000001,4201.538,4170.255999999999,4183.974,4193.077,4163.846,4128.846,4213.077,4152.308,4175.897,4156.795,0,0
735,54,0,0,4160.255999999999,4215.897,4168.59,4157.0509999999995,4203.718,4172.179,4186.795,4200.255999999999,4174.359,4155.128,4223.718,4158.59,4181.41,4168.59,0,0
736,55,0,0,4164.231,4212.564,4170.641,4158.59,4196.282,4173.718,4190.641,4207.692,4185.128,4180.513,4230.897,4163.077,4190.0,4174.231,0,0
737,56,0,0,4154.103,4201.667,4168.077,4151.282,4189.487,4169.487,4181.41,4197.0509999999995,4174.359,4163.077,4219.744000000001,4155.385,4185.0,4166.282,0,0
738,57,0,0,4156.538,4197.564,4167.308,4151.923,4198.077,4164.231,4176.923,4192.436,4173.333,4155.255999999999,4212.308,4155.513,4183.59,4162.9490000000005,0,0
739,58,0,0,4167.692,4202.821,4169.615,4156.282,4207.9490000000005,4166.154,4182.0509999999995,4200.255999999999,4183.846,4170.769,4216.923,4170.897,4192.308,4173.974,0,0
740,59,0,0,4174.231,4206.923,4172.9490000000005,4158.718,4204.872,4171.923,4178.59,4196.026,4178.846,4173.718,4228.077,4176.026,4194.231,4182.564,0,0
741,60,0,0,4168.462,4198.462,4172.821,4158.077,4193.462,4164.487,4168.077,4181.667,4167.179,4165.641,4232.821,4161.154,4188.333,4173.205,0,0
742,61,0,0,4156.795,4185.0,4167.436,4148.333,4192.821,4157.9490000000005,4166.795,4180.513,4169.231,4167.179,4206.923,4150.0,4185.513,4165.0,0,0
743,62,0,0,4156.795,4175.769,4166.026,4141.795,4202.821,4168.462,4174.744000000001,4191.154,4176.795,4172.692,4187.564,4158.205,4192.0509999999995,4170.385,0,0
744,63,0,0,4165.897,4170.513,4171.026,4147.564,4196.538,4175.897,4183.077,4197.308,4182.692,4182.692,4215.385,4165.897,4200.769,4171.41,0,0
745,64,0,2164,4169.359,4169.103,4171.923,4154.359,4186.282,4170.897,4189.103,4200.769,4186.538,4193.462,4238.846,4166.026,4202.821,4172.9490000000005,0,0
746,65,0,2063,4168.205,4171.282,4169.615,4153.718,4189.744000000001,4170.255999999999,4188.718,4205.0,4185.128,4186.923,4227.179,4174.872,4200.769,4184.615,0,0
747,66,0,3394,4171.923,4168.462,4174.615,4146.538,4192.179,4173.846,4185.128,4205.0,4183.718,4181.282,4222.564,4185.255999999999,4200.128,4189.359,0,0
748,67,0,3293,4179.615,4167.436,4184.103,4143.718,4193.974,4172.436,4183.59,4203.718,4185.513,4190.0,4225.0,4184.872,4197.308,4186.538,0,0
749,68,0,2744,4182.692,4168.846,4185.0,4151.667,4197.9490000000005,4171.923,4184.231,4199.615,4183.846,4185.513,4206.795,4185.897,4190.255999999999,4187.692,0,0
750,69,0,2617,4176.282,4158.846,4175.513,4156.026,4192.308,4171.41,4183.333,4187.564,4174.615,4170.897,4202.308,4184.231,4184.487,4188.462,0,0
751,70,0,2364,4168.462,4155.513,4168.077,4153.462,4194.744000000001,4170.641,4177.564,4175.385,4168.205,4175.385,4214.103,4168.718,4182.821,4181.282,0,0
752,71,0,2968,4169.359,4159.744000000001,4169.359,4153.205,4207.564,4171.538,4172.179,4173.077,4172.179,4181.667,4204.359,4156.538,4183.846,4171.923,0,0
753,72,0,2407,4165.769,4148.846,4167.821,4148.59,4201.538,4166.026,4170.0,4175.385,4169.359,4173.333,4195.128,4154.744000000001,4185.641,4168.718,0,0
754,73,0,3482,4164.231,4144.872,4166.667,4147.692,4191.41,4160.897,4168.462,4180.897,4165.769,4177.821,4203.846,4158.718,4184.615,4175.513,0,0
755,74,0,2971,4181.538,4163.077,4178.974,4160.897,4198.974,4166.154,4170.769,4190.128,4180.897,4195.897,4209.231,4172.179,4184.487,4188.462,0,0
756,75,0,2874,4186.41,4160.897,4183.462,4159.103,4203.205,4173.462,4172.9490000000005,4190.0,4185.385,4191.667,4202.0509999999995,4169.615,4187.308,4185.255999999999,0,0
757,76,0,2398,4170.128,4140.769,4171.41,4145.641,4196.795,4170.128,4172.0509999999995,4184.359,4169.615,4175.897,4199.103,4151.026,4181.538,4171.667,0,0
758,77,0,3269,4170.128,4145.255999999999,4173.59,4150.0,4196.667,4170.128,4176.795,4186.154,4172.308,4177.692,4200.128,4157.0509999999995,4175.128,4177.0509999999995,0,0
759,78,0,2971,4186.667,4160.385,4187.821,4159.487,4207.0509999999995,4181.667,4183.59,4189.359,4186.667,4183.333,4203.718,4173.462,4181.41,4189.744000000001,0,0
760,79,0,2874,4188.462,4157.179,4186.538,4157.308,4210.385,4183.59,4180.128,4184.103,4184.103,4192.179,4205.128,4172.0509999999995,4189.103,4188.846,0,0
761,80,0,2398,4179.487,4149.872,4177.436,4151.538,4197.692,4171.538,4172.564,4180.641,4179.103,4200.128,4197.436,4171.923,4185.513,4187.564,0,0
762,81,0,3269,4188.205,4160.128,4183.077,4158.59,4191.667,4166.538,4173.59,4192.308,4184.744000000001,4201.282,4202.0509999999995,4183.59,4184.615,4199.359,0,0
763,82,0,2971,4207.821,4174.231,4194.359,4169.615,4202.179,4171.795,4173.974,4206.667,4191.026,4204.103,4218.718,4192.308,4195.385,4212.308,0,0
764,83,0,2874,4213.718,4173.462,4198.333,4170.128,4205.128,4170.128,4170.385,4207.821,4197.821,4216.667,4222.0509999999995,4195.0,4201.282,4213.974,0,0
765,84,0,2398,4211.667,4171.538,4198.59,4168.974,4205.513,4170.255999999999,4175.0,4208.205,4203.718,4232.564,4216.538,4201.026,4201.667,4215.128,0,0
766,85,0,3269,4212.9490000000005,4176.154,4200.769,4173.333,4212.564,4178.846,4185.128,4214.359,4200.255999999999,4232.308,4212.308,4205.255999999999,4197.692,4218.205,0,0
767,86,0,2971,4209.359,4167.9490000000005,4197.821,4172.436,4208.846,4186.538,4196.41,4216.282,4198.846,4220.641,4212.0509999999995,4202.179,4190.0,4214.103,0,0
768,87,0,2874,4196.923,4153.077,4188.333,4165.0,4206.282,4191.41,4202.564,4212.821,4199.615,4212.436,4211.026,4190.641,4191.923,4203.718,0,0
