,COUNTER, INTERPOLATED, RAW_CQ, AF3, F7, F3, FC5, T7, P7, O1, O2, P8, T8, FC6, F4, F8, AF4, MARKER_HARDWARE, MARKER
0,96,0,2281,4175.128,4143.462,4169.615,4129.231,4212.308,4177.821,4184.359,4190.897,4202.564,4190.0,4166.667,4137.0509999999995,4182.692,4134.231,0,0
1,97,0,3273,4176.154,4141.795,4168.462,4136.667,4207.179,4182.0509999999995,4189.103,4180.897,4199.744000000001,4185.641,4166.282,4140.897,4185.769,4130.128,0,0
2,98,0,2958,4170.769,4126.026,4158.077,4125.385,4199.487,4185.513,4188.59,4172.9490000000005,4189.487,4171.282,4158.205,4136.41,4184.359,4131.026,0,0
3,99,0,2843,4166.026,4125.128,4154.872,4117.821,4201.282,4181.923,4181.667,4163.718,4179.359,4156.282,4150.385,4131.538,4174.872,4130.769,0,0
4,100,0,2281,4169.615,4132.436,4166.538,4127.9490000000005,4205.0,4186.026,4189.872,4164.872,4181.154,4162.179,4160.513,4140.897,4174.103,4135.513,0,0
5,101,0,3273,4174.103,4138.333,4174.103,4140.128,4203.077,4182.308,4199.103,4175.513,4183.205,4171.154,4173.718,4153.462,4184.359,4142.9490000000005,0,0
6,102,0,2958,4173.718,4139.487,4174.103,4139.231,4203.333,4156.026,4191.795,4180.385,4186.282,4164.615,4171.154,4155.255999999999,4188.718,4146.026,0,0
7,103,0,2843,4176.923,4130.769,4174.615,4134.231,4202.179,4148.718,4184.231,4192.0509999999995,4198.718,4177.308,4170.255999999999,4155.769,4186.538,4150.897,0,0
8,104,0,2281,4185.641,4126.282,4179.744000000001,4135.385,4190.0,4163.205,4188.077,4203.205,4203.077,4197.692,4178.846,4163.59,4186.282,4156.282,0,0
9,105,0,3273,4183.462,4131.667,4181.154,4137.821,4182.564,4160.897,4189.103,4194.487,4197.9490000000005,4180.0,4177.692,4164.359,4186.41,4153.462,0,0
10,106,0,2958,4173.462,4133.462,4174.103,4135.128,4190.385,4150.385,4185.513,4183.59,4198.974,4171.026,4169.231,4157.308,4184.872,4151.41,0,0
11,107,0,2843,4170.385,4125.255999999999,4168.333,4133.462,4194.744000000001,4151.026,4186.282,4182.692,4196.154,4183.205,4170.641,4154.487,4177.9490000000005,4149.103,0,0
12,108,0,2281,4165.255999999999,4122.308,4169.487,4136.41,4183.205,4153.333,4185.513,4175.513,4185.769,4164.615,4171.282,4150.0,4169.872,4141.667,0,0
13,109,0,3273,4156.154,4130.769,4169.487,4138.205,4183.718,4158.846,4184.744000000001,4167.564,4183.205,4151.795,4157.9490000000005,4141.282,4176.923,4137.692,0,0
14,110,0,2958,4162.308,4138.462,4169.103,4140.641,4199.231,4170.641,4192.308,4172.0509999999995,4187.692,4168.846,4152.821,4138.077,4185.897,4138.462,0,0
15,111,0,2843,4168.205,4136.923,4170.385,4143.462,4193.077,4172.564,4200.769,4172.308,4189.615,4165.0,4168.333,4139.359,4177.436,4138.718,0,0
16,112,0,2281,4158.077,4124.487,4169.359,4141.538,4168.974,4166.026,4200.0,4171.667,4187.9490000000005,4148.974,4174.487,4140.0,4168.205,4137.436,0,0
17,113,0,3273,4149.615,4117.308,4166.154,4137.308,4162.564,4160.255999999999,4192.308,4177.564,4182.9490000000005,4151.667,4160.385,4138.974,4170.255999999999,4133.333,0,0
18,114,0,2958,4146.538,4123.333,4158.077,4137.0509999999995,4178.333,4154.103,4186.667,4174.872,4183.974,4151.41,4150.255999999999,4131.667,4171.282,4125.897,0,0
19,115,0,2843,4143.077,4126.026,4153.462,4137.692,4185.513,4158.205,4186.667,4171.923,4195.769,4152.308,4153.718,4124.359,4167.308,4122.821,0,0
20,116,0,2281,4147.308,4120.641,4160.385,4135.897,4171.795,4171.282,4189.103,4182.308,4204.359,4170.255999999999,4155.897,4131.154,4169.744000000001,4130.128,0,0
21,117,0,3273,4156.795,4120.641,4167.9490000000005,4139.103,4164.615,4171.795,4189.487,4190.769,4206.538,4181.538,4158.974,4146.154,4180.641,4143.333,0,0
22,118,0,2958,4159.744000000001,4131.026,4169.359,4142.692,4181.538,4157.179,4188.59,4189.615,4204.487,4182.821,4167.692,4150.641,4186.41,4153.846,0,0
23,119,0,2843,4162.0509999999995,4136.667,4169.103,4136.667,4191.282,4148.974,4185.897,4181.538,4192.179,4166.795,4173.718,4144.615,4182.9490000000005,4154.359,0,0
24,120,0,2281,4168.974,4136.795,4169.103,4141.41,4168.077,4161.538,4188.077,4173.59,4185.641,4137.9490000000005,4173.974,4141.923,4182.821,4153.462,0,0
25,121,0,3273,4170.385,4140.641,4170.385,4157.0509999999995,4150.513,4171.41,4196.41,4177.436,4189.359,4140.128,4168.077,4144.103,4183.974,4154.103,0,0
26,122,0,2958,4159.487,4136.538,4170.0,4148.974,4164.615,4160.255999999999,4194.231,4179.615,4183.333,4153.846,4156.538,4140.0,4175.385,4146.667,0,0
27,123,0,2843,4146.923,4123.077,4165.897,4131.026,4172.436,4154.103,4183.974,4168.077,4174.872,4140.897,4149.359,4132.821,4168.333,4135.769,0,0
28,124,0,2281,4150.897,4125.769,4167.179,4142.436,4162.308,4166.026,4187.692,4164.872,4177.9490000000005,4133.462,4149.359,4135.0,4165.513,4133.846,0,0
29,125,0,3273,4157.9490000000005,4140.0,4172.0509999999995,4157.564,4161.538,4176.282,4200.769,4176.923,4190.385,4138.974,4157.564,4142.821,4167.692,4141.538,0,0
30,126,0,2958,4153.974,4138.718,4170.385,4149.615,4166.923,4171.538,4197.564,4184.103,4198.462,4139.359,4169.615,4150.385,4179.359,4149.103,0,0
31,127,0,52,4159.231,4138.205,4170.641,4147.564,4170.513,4158.846,4188.974,4187.692,4199.487,4157.564,4175.385,4159.744000000001,4187.564,4157.0509999999995,0,0
32,0,0,2164,4173.846,4152.821,4176.41,4158.205,4172.0509999999995,4157.0509999999995,4193.846,4195.0,4207.0509999999995,4184.231,4179.359,4168.333,4190.255999999999,4166.795,0,0
33,1,0,1940,4174.744000000001,4159.487,4177.0509999999995,4160.897,4167.179,4170.897,4202.179,4202.179,4215.0,4172.0509999999995,4188.846,4170.641,4198.718,4172.179,0,0
34,2,0,3388,4165.385,4151.41,4169.744000000001,4153.718,4163.59,4171.154,4204.872,4199.231,4210.0,4151.795,4183.462,4164.231,4199.744000000001,4169.615,0,0
35,3,0,3290,4167.564,4153.59,4171.026,4158.205,4168.718,4159.231,4198.974,4190.641,4201.026,4158.333,4174.231,4164.359,4188.077,4169.615,0,0
36,4,0,2738,4174.487,4161.154,4181.538,4167.436,4172.179,4160.769,4189.872,4186.795,4196.154,4148.462,4182.821,4168.846,4183.974,4175.0,0,0
37,5,0,2364,4171.026,4155.897,4180.897,4161.154,4171.41,4170.128,4185.128,4172.0509999999995,4181.538,4116.026,4177.436,4159.487,4184.359,4171.795,0,0
38,6,0,2329,4169.359,4156.282,4175.769,4158.846,4173.205,4170.513,4185.897,4149.359,4162.564,4113.077,4155.255999999999,4149.103,4174.487,4164.615,0,0
39,7,0,2909,4175.641,4170.255999999999,4182.179,4171.923,4170.255999999999,4162.0509999999995,4185.897,4153.077,4163.077,4122.0509999999995,4158.333,4154.487,4166.41,4165.897,0,0
40,8,0,2366,4176.282,4174.615,4186.026,4174.103,4178.077,4158.077,4184.615,4167.436,4173.462,4105.0,4169.103,4157.436,4166.026,4168.205,0,0
41,9,0,3501,4171.026,4162.564,4181.154,4165.513,4190.769,4168.846,4186.667,4166.923,4184.487,4110.255999999999,4163.974,4156.795,4169.744000000001,4166.667,0,0
42,10,0,2962,4172.821,4158.59,4181.282,4167.0509999999995,4176.026,4177.564,4188.59,4176.538,4193.846,4146.795,4171.795,4168.59,4178.077,4171.026,0,0
43,11,0,2848,4174.487,4161.795,4179.231,4166.667,4158.718,4168.718,4192.0509999999995,4199.103,4200.385,4164.744000000001,4186.026,4175.128,4184.744000000001,4173.846,0,0
44,12,0,2280,4171.026,4159.231,4174.744000000001,4160.513,4169.615,4164.872,4197.564,4212.0509999999995,4210.641,4177.564,4183.333,4168.462,4187.0509999999995,4169.615,0,0
45,13,0,3273,4171.667,4160.513,4179.231,4163.846,4181.667,4173.974,4202.308,4220.769,4221.154,4189.744000000001,4184.231,4172.0509999999995,4191.667,4176.538,0,0
46,14,0,2962,4174.103,4173.077,4178.333,4170.385,4175.769,4169.103,4198.846,4218.59,4219.231,4170.513,4191.538,4175.641,4193.333,4184.872,0,0
47,15,0,2848,4171.795,4176.026,4170.0,4167.308,4168.846,4156.41,4189.231,4198.59,4206.923,4143.59,4183.462,4164.487,4182.9490000000005,4175.897,0,0
48,16,0,0,4165.385,4159.487,4169.744000000001,4156.667,4166.538,4155.385,4182.436,4180.897,4199.231,4137.821,4171.538,4157.564,4173.462,4168.205,0,0
49,17,0,0,4158.462,4151.795,4172.308,4151.538,4170.769,4154.103,4173.846,4177.179,4193.333,4146.41,4169.487,4158.333,4168.59,4171.41,0,0
50,18,0,0,4155.128,4157.692,4168.59,4153.205,4172.0509999999995,4138.718,4165.128,4170.128,4180.385,4158.462,4165.255999999999,4153.462,4166.538,4165.641,0,0
51,19,0,0,4155.385,4157.0509999999995,4167.0509999999995,4152.436,4157.564,4131.026,4166.282,4155.769,4172.179,4143.59,4159.103,4145.641,4169.359,4154.744000000001,0,0
52,20,0,0,4151.923,4151.538,4166.795,4149.487,4152.179,4137.0509999999995,4166.41,4147.692,4171.282,4116.538,4149.744000000001,4135.513,4166.026,4147.564,0,0
53,21,0,0,4149.744000000001,4156.667,4164.744000000001,4152.308,4162.179,4137.692,4164.487,4144.103,4170.513,4126.41,4140.769,4119.359,4162.308,4137.564,0,0
54,22,0,0,4159.231,4173.846,4168.718,4156.282,4168.077,4143.205,4174.103,4141.923,4168.59,4140.897,4142.308,4109.359,4166.923,4135.128,0,0
55,23,0,0,4171.538,4183.974,4179.487,4158.333,4175.0,4154.487,4186.667,4146.795,4169.103,4142.9490000000005,4150.385,4121.923,4170.513,4145.0,0,0
56,24,0,0,4172.308,4177.564,4183.205,4159.615,4185.897,4155.769,4192.821,4155.128,4170.255999999999,4163.974,4157.179,4144.487,4170.0,4153.462,0,0
57,25,0,0,4165.513,4167.564,4180.385,4157.179,4188.462,4160.513,4205.385,4160.0,4172.692,4163.59,4166.282,4155.769,4171.795,4161.026,0,0
58,26,0,0,4168.462,4170.0,4180.769,4153.718,4188.846,4172.436,4217.436,4169.103,4182.179,4133.462,4170.769,4154.231,4171.795,4169.615,0,0
59,27,0,0,4171.154,4173.59,4178.462,4156.026,4187.436,4168.333,4213.462,4187.308,4195.897,4150.513,4166.667,4153.846,4168.718,4173.077,0,0
60,28,0,0,4161.026,4166.282,4173.59,4152.0509999999995,4179.231,4154.744000000001,4203.846,4202.0509999999995,4203.974,4196.026,4168.718,4153.974,4170.0,4171.795,0,0
61,29,0,0,4147.821,4153.077,4170.641,4140.385,4180.0,4153.462,4200.513,4205.0,4204.103,4191.282,4172.179,4147.821,4171.154,4166.795,0,0
62,30,0,0,4149.487,4152.564,4170.385,4140.513,4183.59,4150.385,4199.103,4201.41,4202.564,4176.923,4174.615,4154.103,4172.9490000000005,4172.692,0,0
63,31,0,0,4164.744000000001,4173.59,4175.0,4156.154,4174.487,4140.385,4199.231,4201.538,4202.308,4195.128,4183.974,4177.564,4174.744000000001,4193.333,0,0
64,32,0,0,4174.615,4190.769,4183.974,4165.769,4174.103,4138.59,4201.667,4200.641,4202.821,4201.667,4190.0,4191.154,4174.872,4207.308,0,0
65,33,0,0,4175.513,4183.462,4186.026,4160.255999999999,4188.59,4139.487,4197.436,4192.308,4203.205,4182.436,4188.205,4185.641,4175.385,4206.667,0,0
66,34,0,0,4169.359,4164.359,4179.231,4152.179,4184.359,4135.385,4184.103,4179.359,4196.41,4167.308,4176.795,4170.255999999999,4168.59,4196.923,0,0
67,35,0,0,4168.077,4163.077,4177.436,4150.897,4171.154,4134.359,4178.846,4171.795,4189.487,4165.897,4160.641,4157.821,4157.821,4187.436,0,0
68,36,0,0,4179.103,4180.641,4185.0,4161.795,4181.795,4139.103,4184.103,4175.0,4187.9490000000005,4165.255999999999,4151.923,4157.436,4149.231,4186.923,0,0
69,37,0,0,4182.0509999999995,4183.974,4187.821,4165.0,4188.205,4141.667,4187.0509999999995,4175.769,4175.641,4149.487,4151.41,4146.795,4140.897,4177.564,0,0
70,38,0,0,4169.872,4171.282,4182.436,4161.41,4172.821,4140.385,4190.128,4164.103,4159.872,4129.103,4143.077,4117.564,4135.513,4154.615,0,0
71,39,0,0,4165.385,4167.308,4181.538,4167.179,4172.179,4143.205,4198.205,4156.282,4164.872,4127.0509999999995,4118.846,4110.128,4140.385,4144.103,0,0
72,40,0,0,4168.846,4173.59,4178.333,4162.9490000000005,4188.462,4156.538,4207.821,4157.692,4175.513,4143.59,4118.205,4120.255999999999,4144.872,4146.282,0,0
73,41,0,0,4163.974,4173.718,4171.41,4152.436,4192.436,4166.41,4214.103,4152.436,4171.795,4154.103,4147.692,4119.487,4140.513,4148.846,0,0
74,42,0,0,4162.0509999999995,4164.359,4175.0,4158.333,4179.487,4160.385,4212.0509999999995,4153.718,4169.103,4142.564,4153.205,4124.872,4138.718,4157.436,0,0
75,43,0,0,4159.615,4154.359,4176.026,4162.0509999999995,4173.718,4150.0,4203.205,4165.0,4172.821,4118.718,4142.564,4130.897,4139.487,4160.255999999999,0,0
76,44,0,0,4150.897,4151.923,4167.564,4148.718,4180.385,4149.487,4198.718,4169.872,4176.923,4121.154,4154.487,4127.692,4138.077,4159.615,0,0
77,45,0,0,4156.538,4157.9490000000005,4167.564,4153.846,4176.026,4153.718,4201.026,4178.205,4190.897,4155.513,4162.692,4141.923,4142.9490000000005,4172.179,0,0
78,46,0,0,4169.103,4159.359,4172.179,4170.641,4155.769,4150.255999999999,4197.0509999999995,4190.513,4199.744000000001,4175.128,4163.462,4166.026,4152.308,4185.255999999999,0,0
79,47,0,0,4169.487,4162.179,4172.436,4167.564,4149.487,4141.154,4191.667,4191.154,4191.41,4173.462,4188.462,4176.923,4154.872,4192.692,0,0
80,48,0,0,4167.9490000000005,4166.667,4175.641,4162.179,4164.231,4137.0509999999995,4194.615,4185.128,4183.718,4174.359,4205.255999999999,4187.0509999999995,4156.154,4202.564,0,0
81,49,0,0,4178.077,4169.615,4183.077,4173.718,4167.0509999999995,4143.718,4201.282,4185.897,4184.615,4163.59,4199.231,4197.821,4160.128,4209.487,0,0
82,50,0,0,4189.744000000001,4176.282,4187.564,4187.436,4155.641,4153.077,4203.718,4189.487,4186.154,4151.795,4197.179,4195.255999999999,4157.436,4208.462,0,0
83,51,0,0,4190.128,4175.769,4187.564,4185.769,4151.667,4155.128,4203.462,4186.154,4184.744000000001,4153.077,4185.641,4188.59,4151.538,4205.0,0,0
84,52,0,0,4184.615,4167.436,4185.769,4180.128,4155.513,4153.462,4208.462,4185.128,4185.513,4143.462,4177.821,4184.487,4149.615,4199.744000000001,0,0
85,53,0,0,4186.795,4170.385,4187.564,4193.974,4162.9490000000005,4155.513,4214.744000000001,4194.872,4191.667,4138.59,4182.9490000000005,4180.0,4152.179,4192.9490000000005,0,0
86,54,0,0,4186.026,4176.282,4185.897,4203.462,4166.795,4161.538,4216.41,4199.744000000001,4199.231,4160.513,4174.359,4164.231,4162.821,4180.641,0,0
87,55,0,0,4174.872,4170.641,4176.795,4190.641,4161.795,4166.795,4216.667,4195.255999999999,4201.538,4174.487,4170.255999999999,4147.179,4173.205,4168.205,0,0
88,56,0,0,4169.103,4173.205,4172.692,4187.9490000000005,4155.513,4172.308,4213.846,4193.718,4201.667,4165.769,4183.205,4143.462,4171.795,4166.41,0,0
89,57,0,0,4172.179,4185.513,4175.769,4201.282,4155.641,4169.359,4205.255999999999,4194.359,4205.385,4159.487,4188.205,4143.974,4170.255999999999,4169.231,0,0
90,58,0,0,4170.769,4183.333,4174.615,4203.077,4158.205,4158.59,4201.026,4189.615,4200.897,4155.255999999999,4182.436,4138.59,4175.385,4170.513,0,0
91,59,0,0,4158.974,4170.513,4168.718,4195.513,4157.0509999999995,4153.333,4198.846,4179.231,4187.436,4141.41,4181.667,4126.538,4172.821,4167.436,0,0
92,60,0,0,4152.179,4168.077,4161.41,4196.026,4147.308,4154.615,4188.077,4167.179,4181.795,4133.59,4185.128,4116.667,4165.128,4165.513,0,0
93,61,0,0,4161.923,4180.769,4161.538,4202.564,4141.795,4155.255999999999,4183.077,4160.0,4181.667,4137.0509999999995,4183.718,4120.897,4164.872,4166.538,0,0
94,62,0,0,4171.154,4185.769,4166.923,4204.103,4150.385,4156.282,4187.0509999999995,4158.974,4173.974,4126.538,4180.128,4131.538,4169.744000000001,4168.205,0,0
95,63,0,0,4172.436,4183.846,4172.308,4201.41,4156.538,4158.077,4187.692,4159.359,4165.897,4112.692,4188.718,4143.333,4169.103,4177.821,0,0
96,64,0,2161,4178.974,4189.487,4178.462,4205.255999999999,4153.333,4153.974,4191.154,4163.462,4170.128,4121.154,4201.538,4161.282,4163.846,4190.641,0,0
97,65,0,1928,4187.564,4192.821,4184.872,4216.667,4153.718,4156.923,4200.128,4170.513,4183.462,4143.205,4195.641,4174.487,4171.795,4197.692,0,0
98,66,0,3378,4188.974,4184.872,4186.667,4215.128,4152.9490000000005,4167.564,4203.205,4181.026,4196.282,4157.179,4196.667,4174.744000000001,4180.255999999999,4200.513,0,0
99,67,0,3284,4182.179,4180.128,4179.615,4202.179,4144.231,4166.41,4203.59,4197.821,4199.487,4162.564,4213.718,4173.59,4175.897,4198.846,0,0
100,68,0,2731,4170.897,4182.0509999999995,4173.205,4198.077,4144.231,4159.487,4203.974,4203.974,4203.974,4158.205,4213.59,4170.897,4177.692,4188.974,0,0
101,69,0,2367,4167.308,4175.769,4173.718,4200.513,4154.359,4158.974,4201.41,4198.59,4213.205,4158.333,4199.615,4165.255999999999,4185.128,4181.923,0,0
102,70,0,2328,4171.538,4170.897,4175.769,4197.692,4151.026,4161.154,4200.513,4199.615,4211.41,4175.513,4202.0509999999995,4165.513,4185.255999999999,4186.795,0,0
103,71,0,2909,4171.538,4177.9490000000005,4174.359,4198.59,4141.41,4160.0,4201.41,4199.615,4200.641,4170.513,4213.59,4168.077,4186.282,4187.179,0,0
104,72,0,2365,4167.9490000000005,4183.333,4171.41,4202.436,4147.436,4158.846,4200.641,4187.9490000000005,4191.923,4136.538,4208.077,4163.333,4182.308,4184.231,0,0
105,73,0,3503,4171.41,4184.103,4174.103,4202.179,4151.282,4158.077,4200.513,4179.231,4184.744000000001,4119.872,4199.487,4160.897,4174.231,4191.795,0,0
106,74,0,2948,4180.897,4189.487,4180.897,4205.513,4145.0,4157.308,4201.026,4181.795,4183.333,4132.0509999999995,4209.359,4166.026,4183.077,4199.744000000001,0,0
107,75,0,2841,4186.154,4199.487,4186.282,4214.615,4151.923,4160.128,4200.769,4179.103,4187.0509999999995,4146.795,4219.487,4169.872,4185.255999999999,4199.231,0,0
108,76,0,2289,4185.769,4198.462,4185.513,4219.744000000001,4159.872,4167.821,4200.385,4172.308,4184.487,4145.897,4214.103,4168.462,4171.667,4197.9490000000005,0,0
109,77,0,3274,4184.103,4189.615,4183.846,4219.103,4155.128,4175.128,4201.538,4178.077,4186.282,4135.897,4212.179,4170.0,4176.41,4198.333,0,0
110,78,0,2948,4176.282,4184.103,4183.333,4213.974,4156.667,4174.487,4202.821,4185.513,4198.846,4140.0,4218.59,4173.077,4187.692,4194.487,0,0
111,79,0,2841,4167.436,4184.872,4182.0509999999995,4208.462,4159.487,4175.897,4203.974,4186.154,4203.205,4168.974,4217.564,4171.923,4182.692,4192.9490000000005,0,0
112,80,0,2289,4176.282,4191.154,4184.231,4214.487,4156.026,4183.59,4204.744000000001,4193.59,4200.641,4176.026,4214.615,4177.436,4183.205,4199.359,0,0
113,81,0,3274,4185.0,4190.0,4185.641,4219.487,4155.513,4183.718,4205.513,4205.128,4203.333,4150.0,4220.128,4186.923,4192.436,4202.179,0,0
114,82,0,2948,4180.769,4187.308,4185.0,4211.538,4153.974,4180.255999999999,4209.744000000001,4201.795,4205.255999999999,4152.692,4226.923,4187.821,4191.41,4202.436,0,0
115,83,0,2841,4187.436,4198.59,4192.436,4215.385,4157.9490000000005,4182.308,4211.795,4190.641,4202.564,4171.154,4223.333,4188.462,4185.513,4210.0,0,0
116,84,0,2289,4200.385,4209.359,4200.897,4227.179,4165.255999999999,4181.41,4206.538,4186.667,4199.103,4162.0509999999995,4220.641,4195.769,4183.462,4216.41,0,0
117,85,0,3274,4208.718,4212.0509999999995,4203.205,4227.564,4160.0,4179.103,4201.667,4186.538,4191.154,4152.821,4230.897,4201.923,4185.513,4221.923,0,0
118,86,0,2948,4216.282,4215.255999999999,4203.974,4225.385,4152.564,4182.9490000000005,4201.923,4182.0509999999995,4186.667,4150.128,4231.41,4204.744000000001,4187.179,4226.026,0,0
119,87,0,2841,4217.436,4218.846,4205.385,4232.9490000000005,4158.333,4183.205,4202.0509999999995,4179.744000000001,4195.513,4141.026,4218.718,4200.769,4185.513,4222.308,0,0
120,88,0,2289,4209.872,4216.154,4204.487,4232.692,4158.846,4177.179,4200.255999999999,4183.59,4200.897,4160.0,4214.744000000001,4189.872,4183.974,4217.308,0,0
121,89,0,3274,4202.821,4209.872,4200.513,4222.564,4151.923,4178.718,4201.282,4185.385,4188.59,4178.846,4220.255999999999,4183.59,4184.487,4214.487,0,0
122,90,0,2948,4196.538,4202.436,4196.538,4221.282,4152.436,4184.872,4207.692,4182.564,4182.9490000000005,4152.821,4221.538,4181.026,4184.744000000001,4205.128,0,0
123,91,0,2841,4194.103,4198.846,4199.359,4227.9490000000005,4154.487,4184.103,4216.667,4185.769,4195.385,4144.744000000001,4197.692,4183.205,4184.359,4197.821,0,0
124,92,0,2289,4196.154,4200.769,4200.513,4227.308,4155.769,4184.103,4217.436,4196.923,4203.718,4168.974,4183.846,4185.769,4191.538,4203.846,0,0
125,93,0,3274,4189.487,4200.513,4189.359,4218.333,4152.308,4182.0509999999995,4208.718,4198.462,4202.821,4162.436,4204.744000000001,4176.282,4197.9490000000005,4202.692,0,0
126,94,0,2948,4186.795,4200.385,4186.538,4220.641,4142.564,4172.179,4202.0509999999995,4187.0509999999995,4197.0509999999995,4145.0,4211.667,4170.385,4192.692,4196.923,0,0
127,95,0,2841,4200.385,4206.538,4200.128,4233.718,4143.718,4171.795,4202.179,4182.308,4190.641,4153.974,4206.154,4184.103,4187.308,4206.41,0,0
128,96,0,2289,4207.179,4214.872,4203.333,4234.487,4158.077,4178.205,4204.103,4186.795,4186.923,4156.667,4210.255999999999,4196.154,4187.692,4216.026,0,0
129,97,0,3274,4203.718,4219.103,4197.308,4231.154,4159.487,4173.462,4198.462,4184.359,4185.513,4133.718,4213.205,4198.718,4186.795,4218.846,0,0
130,98,0,2948,4202.564,4211.795,4197.179,4230.128,4150.385,4165.769,4187.0509999999995,4172.436,4183.462,4125.769,4211.282,4196.538,4184.359,4218.846,0,0
131,99,0,2841,4202.9490000000005,4210.513,4197.308,4231.667,4151.538,4172.308,4184.615,4168.205,4183.846,4144.359,4217.564,4187.692,4186.41,4216.026,0,0
132,100,0,2289,4203.462,4222.564,4195.513,4242.179,4153.333,4178.205,4192.821,4175.769,4190.769,4157.0509999999995,4224.872,4182.436,4193.333,4216.282,0,0
133,101,0,3274,4206.923,4223.718,4200.128,4249.487,4159.872,4170.641,4199.615,4183.205,4197.0509999999995,4158.077,4223.205,4190.0,4201.41,4220.128,0,0
134,102,0,2948,4204.487,4212.0509999999995,4201.41,4235.769,4169.615,4170.897,4200.385,4184.359,4199.872,4165.641,4214.615,4194.744000000001,4201.923,4220.255999999999,0,0
135,103,0,2841,4196.538,4212.9490000000005,4194.231,4227.179,4161.026,4183.462,4198.846,4186.026,4199.487,4175.0,4211.282,4190.0,4198.205,4215.385,0,0
136,104,0,2289,4195.897,4219.103,4194.872,4241.667,4149.487,4183.462,4197.564,4193.077,4198.462,4161.41,4233.205,4183.59,4200.255999999999,4213.846,0,0
137,105,0,3274,4195.385,4207.692,4200.0,4246.923,4154.359,4173.077,4198.205,4201.923,4200.641,4138.846,4241.41,4186.538,4200.255999999999,4212.564,0,0
138,106,0,2948,4186.538,4198.718,4193.077,4237.564,4156.538,4171.154,4197.821,4204.103,4199.103,4144.872,4222.821,4187.0509999999995,4194.359,4206.41,0,0
139,107,0,2841,4180.513,4206.41,4184.615,4234.359,4149.487,4176.538,4198.462,4200.641,4197.821,4168.333,4214.231,4174.872,4189.231,4201.154,0,0
140,108,0,2289,4181.923,4207.564,4185.641,4234.615,4148.333,4180.769,4196.026,4198.462,4198.718,4160.128,4214.744000000001,4166.538,4189.872,4198.846,0,0
141,109,0,3274,4183.333,4200.641,4186.795,4239.615,4154.615,4181.282,4189.231,4194.744000000001,4192.0509999999995,4134.615,4224.487,4170.385,4195.641,4199.231,0,0
142,110,0,2948,4182.436,4202.179,4185.0,4243.846,4158.846,4177.308,4189.744000000001,4185.897,4183.205,4142.0509999999995,4221.795,4178.333,4196.538,4205.0,0,0
143,111,0,2841,4188.846,4215.897,4192.436,4246.923,4154.615,4182.179,4197.308,4184.231,4187.821,4160.769,4208.333,4187.0509999999995,4196.923,4215.385,0,0
144,112,0,2289,4193.205,4221.667,4199.615,4249.744000000001,4151.282,4192.692,4200.769,4190.513,4197.692,4166.154,4223.077,4189.231,4204.359,4218.462,0,0
145,113,0,3274,4186.026,4213.462,4193.205,4244.872,4158.462,4187.436,4199.615,4187.692,4199.487,4168.462,4242.9490000000005,4184.103,4205.0,4211.795,0,0
146,114,0,2948,4181.667,4208.846,4186.795,4237.564,4158.846,4183.205,4203.333,4182.564,4198.205,4163.333,4237.564,4180.897,4200.769,4211.538,0,0
147,115,0,2841,4189.615,4213.846,4193.077,4240.128,4151.667,4193.59,4210.255999999999,4190.255999999999,4201.026,4160.769,4228.846,4180.513,4205.641,4215.641,0,0
148,116,0,2289,4199.359,4218.59,4203.333,4249.615,4158.59,4195.255999999999,4212.692,4200.897,4208.077,4179.744000000001,4229.872,4187.308,4207.179,4217.692,0,0
149,117,0,3274,4201.026,4216.538,4203.846,4249.487,4169.103,4190.513,4211.154,4205.769,4207.308,4192.692,4239.487,4203.462,4206.282,4223.462,0,0
150,118,0,2948,4204.103,4220.513,4202.0509999999995,4245.385,4169.359,4194.103,4211.538,4211.923,4201.41,4172.436,4246.282,4213.974,4209.744000000001,4231.154,0,0
151,119,0,2841,4209.487,4230.385,4209.615,4250.513,4169.359,4201.026,4214.231,4219.615,4209.487,4160.0,4235.0,4215.897,4206.923,4233.846,0,0
152,120,0,2289,4208.077,4230.641,4211.923,4253.205,4171.923,4200.255999999999,4212.9490000000005,4215.385,4216.282,4183.077,4231.795,4215.641,4201.154,4232.0509999999995,0,0
153,121,0,3274,4205.385,4230.255999999999,4207.179,4251.923,4172.692,4190.255999999999,4215.255999999999,4205.513,4206.282,4193.333,4249.487,4215.769,4203.974,4232.308,0,0
154,122,0,2948,4206.538,4234.615,4206.923,4255.385,4171.282,4186.026,4214.231,4202.564,4196.795,4170.385,4247.436,4218.59,4202.821,4232.564,0,0
155,123,0,2841,4202.692,4226.41,4207.179,4251.538,4168.205,4193.846,4204.487,4201.538,4195.641,4176.795,4244.359,4215.769,4200.0,4230.897,0,0
156,124,0,2289,4201.923,4217.436,4207.564,4242.692,4168.333,4201.154,4205.0,4201.154,4204.103,4208.846,4249.744000000001,4212.564,4211.41,4233.077,0,0
157,125,0,3274,4212.0509999999995,4224.231,4212.308,4252.0509999999995,4167.0509999999995,4200.513,4212.436,4204.231,4218.59,4221.026,4230.769,4219.872,4221.026,4237.179,0,0
158,126,0,2948,4210.128,4225.128,4209.487,4255.513,4159.231,4194.872,4208.462,4200.255999999999,4209.744000000001,4215.513,4232.692,4214.231,4216.538,4235.128,0,0
159,127,0,52,4196.795,4219.359,4197.9490000000005,4236.41,4161.538,4185.641,4199.231,4185.641,4193.205,4194.103,4256.923,4194.359,4214.103,4229.359,0,0
160,0,0,2156,4197.0509999999995,4227.564,4198.718,4233.59,4168.846,4184.487,4198.718,4182.692,4203.974,4185.255999999999,4247.9490000000005,4192.692,4216.795,4230.0,0,0
161,1,0,1926,4202.179,4230.513,4203.462,4249.231,4158.077,4188.846,4200.385,4189.103,4210.128,4202.308,4227.564,4201.667,4209.359,4230.641,0,0
162,2,0,3370,4199.744000000001,4220.385,4199.615,4252.821,4149.872,4185.897,4198.205,4187.821,4198.59,4193.077,4215.897,4200.769,4198.205,4225.897,0,0
163,3,0,3286,4194.103,4218.077,4198.205,4242.821,4165.0,4188.974,4199.103,4189.231,4197.821,4169.103,4215.128,4198.846,4198.205,4220.641,0,0
164,4,0,2725,4189.487,4217.692,4200.385,4234.872,4168.974,4195.513,4202.179,4201.41,4202.692,4180.255999999999,4238.462,4202.9490000000005,4202.308,4220.513,0,0
165,5,0,2359,4186.667,4212.0509999999995,4199.744000000001,4236.923,4158.333,4185.513,4200.385,4201.795,4198.333,4193.077,4248.077,4199.103,4200.769,4215.897,0,0
166,6,0,2327,4184.744000000001,4211.923,4195.897,4236.41,4165.769,4180.255999999999,4196.026,4187.9490000000005,4196.154,4182.436,4220.641,4187.179,4197.9490000000005,4205.255999999999,0,0
167,7,0,2908,4188.59,4216.667,4197.179,4230.385,4172.9490000000005,4188.974,4197.821,4190.641,4200.0,4181.41,4212.0509999999995,4189.231,4201.795,4208.846,0,0
168,8,0,2375,4199.615,4218.59,4202.9490000000005,4232.821,4161.282,4189.359,4201.795,4198.333,4200.385,4186.026,4222.0509999999995,4200.513,4202.821,4219.359,0,0
169,9,0,3477,4203.462,4217.0509999999995,4202.821,4237.308,4152.179,4184.487,4201.41,4186.667,4196.026,4186.41,4215.513,4196.154,4201.154,4216.026,0,0
170,10,0,2949,4197.436,4215.385,4198.333,4239.359,4160.641,4185.897,4200.641,4177.436,4197.692,4186.154,4218.718,4185.128,4209.103,4210.897,0,0
171,11,0,2833,4198.59,4215.897,4200.513,4244.359,4171.41,4187.564,4201.795,4181.41,4202.179,4181.41,4229.487,4187.436,4215.897,4212.564,0,0
172,12,0,2278,4203.718,4218.59,4201.282,4243.462,4168.462,4185.513,4201.667,4175.769,4192.0509999999995,4179.872,4226.41,4186.41,4209.359,4209.487,0,0
173,13,0,3272,4194.231,4211.41,4190.897,4231.667,4156.41,4183.974,4196.667,4167.179,4180.897,4175.255999999999,4212.692,4173.462,4194.359,4198.333,0,0
174,14,0,2949,4178.462,4198.462,4181.667,4227.179,4150.385,4185.897,4193.462,4175.128,4186.538,4166.923,4196.795,4162.436,4181.41,4186.282,0,0
175,15,0,2833,4178.077,4206.538,4183.59,4238.077,4158.462,4188.462,4196.923,4182.564,4187.9490000000005,4166.923,4201.026,4164.744000000001,4181.154,4186.923,0,0
176,16,0,0,4187.9490000000005,4223.718,4191.41,4244.359,4168.077,4188.974,4201.154,4190.897,4183.333,4168.333,4215.641,4183.718,4188.846,4201.154,0,0
177,17,0,0,4186.154,4214.487,4189.103,4233.462,4169.231,4187.0509999999995,4200.128,4201.923,4195.769,4171.154,4207.564,4187.9490000000005,4184.615,4202.9490000000005,0,0
178,18,0,0,4179.231,4200.897,4182.821,4223.718,4167.692,4185.513,4197.692,4195.769,4201.923,4180.897,4196.41,4172.821,4177.308,4193.846,0,0
179,19,0,0,4186.026,4211.795,4191.41,4230.641,4170.128,4187.9490000000005,4198.59,4181.795,4186.538,4193.718,4208.718,4175.897,4185.128,4197.821,0,0
180,20,0,0,4189.487,4221.154,4199.103,4232.9490000000005,4171.538,4190.897,4200.0,4179.615,4187.821,4190.385,4210.897,4188.077,4192.179,4202.436,0,0
181,21,0,0,4186.41,4212.821,4194.487,4226.026,4166.41,4190.513,4200.0,4185.385,4201.795,4182.821,4198.59,4185.0,4189.744000000001,4198.59,0,0
182,22,0,0,4190.769,4210.897,4194.103,4226.923,4167.821,4192.821,4197.821,4185.0,4192.0509999999995,4184.231,4203.333,4181.026,4181.667,4198.718,0,0
183,23,0,0,4200.0,4222.821,4202.0509999999995,4232.179,4177.179,4200.0,4196.154,4179.872,4176.795,4181.41,4214.744000000001,4191.795,4179.872,4205.0,0,0
184,24,0,0,4210.769,4234.231,4205.255999999999,4234.744000000001,4182.436,4200.897,4199.487,4185.641,4184.872,4189.872,4217.821,4202.436,4191.41,4214.872,0,0
185,25,0,0,4217.821,4237.564,4204.872,4234.872,4180.513,4194.872,4203.333,4191.41,4193.846,4206.026,4213.974,4200.0,4196.923,4220.128,0,0
186,26,0,0,4209.359,4226.667,4202.9490000000005,4229.359,4169.231,4195.255999999999,4198.974,4176.41,4188.077,4198.59,4204.487,4188.462,4186.282,4215.769,0,0
187,27,0,0,4199.103,4218.718,4197.0509999999995,4223.974,4165.513,4200.385,4194.487,4168.974,4181.026,4188.077,4199.359,4184.872,4180.513,4210.769,0,0
188,28,0,0,4208.462,4228.077,4197.9490000000005,4224.103,4177.692,4200.769,4199.231,4189.487,4183.846,4196.41,4202.436,4195.769,4186.282,4213.077,0,0
189,29,0,0,4219.231,4237.0509999999995,4201.026,4223.205,4180.255999999999,4198.205,4200.641,4199.103,4190.769,4189.103,4204.744000000001,4200.255999999999,4185.641,4214.231,0,0
190,30,0,0,4216.154,4233.59,4201.538,4219.103,4168.846,4197.564,4197.0509999999995,4191.41,4193.462,4178.462,4203.462,4198.718,4181.41,4214.487,0,0
191,31,0,0,4215.385,4230.769,4200.385,4218.846,4174.615,4199.872,4198.846,4195.897,4201.538,4196.154,4202.692,4200.641,4182.9490000000005,4215.769,0,0
192,32,0,0,4221.795,4238.59,4198.974,4218.077,4198.205,4200.769,4200.128,4203.333,4201.795,4207.308,4201.026,4205.513,4183.718,4215.385,0,0
193,33,0,0,4233.205,4245.641,4205.255999999999,4216.667,4204.359,4198.974,4197.692,4200.769,4187.821,4205.128,4201.923,4211.154,4180.385,4220.641,0,0
194,34,0,0,4247.821,4252.436,4214.615,4222.821,4196.923,4199.359,4197.692,4193.718,4190.385,4202.692,4209.359,4217.692,4180.769,4231.282,0,0
195,35,0,0,4261.41,4261.154,4221.923,4231.154,4206.923,4204.103,4203.077,4190.897,4201.667,4198.205,4217.692,4229.359,4189.744000000001,4236.795,0,0
196,36,0,0,4267.308,4266.154,4225.513,4229.231,4217.9490000000005,4205.897,4208.462,4198.462,4192.308,4207.436,4212.692,4234.231,4191.154,4236.667,0,0
197,37,0,0,4264.359,4267.564,4224.744000000001,4221.795,4208.333,4202.9490000000005,4205.255999999999,4203.077,4185.897,4214.615,4200.641,4225.385,4180.385,4232.436,0,0
198,38,0,0,4256.923,4263.974,4220.0,4216.667,4200.641,4203.462,4200.897,4193.462,4190.385,4204.744000000001,4199.231,4217.564,4175.385,4223.462,0,0
199,39,0,0,4245.513,4252.821,4216.282,4213.077,4205.128,4203.974,4201.154,4185.385,4185.255999999999,4201.538,4197.179,4213.846,4182.179,4215.255999999999,0,0
200,40,0,0,4231.41,4240.641,4215.641,4203.718,4203.974,4197.0509999999995,4196.41,4191.41,4189.615,4195.128,4187.692,4204.231,4182.436,4212.564,0,0
201,41,0,0,4229.231,4240.385,4211.923,4198.462,4201.282,4194.359,4192.179,4200.641,4199.487,4179.744000000001,4183.59,4197.564,4170.641,4211.026,0,0
202,42,0,0,4242.179,4247.179,4211.667,4208.846,4202.9490000000005,4200.769,4197.564,4203.205,4197.436,4192.564,4184.744000000001,4204.359,4172.308,4212.308,0,0
203,43,0,0,4246.026,4248.974,4216.667,4215.641,4200.385,4202.821,4201.282,4200.255999999999,4197.821,4219.615,4181.667,4207.692,4183.462,4213.077,0,0
204,44,0,0,4236.282,4239.872,4215.769,4205.255999999999,4198.718,4198.077,4199.872,4197.179,4192.564,4221.282,4181.026,4207.564,4183.718,4211.282,0,0
205,45,0,0,4231.282,4229.359,4205.641,4194.615,4202.436,4198.59,4202.308,4195.0,4186.41,4205.769,4187.0509999999995,4213.077,4186.41,4215.0,0,0
206,46,0,0,4230.897,4232.436,4201.026,4192.179,4206.41,4200.128,4203.333,4192.0509999999995,4193.59,4186.154,4188.846,4212.564,4187.179,4213.718,0,0
207,47,0,0,4227.308,4232.692,4209.872,4190.128,4200.769,4196.667,4198.462,4191.923,4192.564,4177.436,4183.59,4204.103,4172.821,4203.846,0,0
208,48,0,0,4226.41,4218.718,4215.385,4186.282,4185.128,4199.359,4196.795,4191.41,4180.0,4193.333,4179.231,4205.769,4167.564,4205.641,0,0
209,49,0,0,4232.564,4216.026,4215.255999999999,4187.308,4180.769,4197.436,4201.026,4192.308,4186.282,4206.538,4185.769,4215.255999999999,4184.744000000001,4216.923,0,0
210,50,0,0,4231.282,4220.769,4213.205,4187.179,4187.821,4187.436,4196.41,4187.821,4192.308,4187.436,4188.462,4210.385,4185.128,4211.41,0,0
211,51,0,0,4218.333,4207.692,4204.359,4182.436,4192.692,4192.308,4185.641,4175.897,4177.0509999999995,4166.41,4172.308,4198.974,4169.487,4197.692,0,0
212,52,0,0,4212.9490000000005,4202.179,4200.0,4181.41,4200.255999999999,4202.564,4190.897,4174.744000000001,4174.231,4179.872,4166.026,4198.846,4173.205,4200.128,0,0
213,53,0,0,4219.487,4217.179,4211.41,4185.385,4197.9490000000005,4202.0509999999995,4203.462,4185.128,4186.154,4198.846,4178.59,4202.0509999999995,4184.231,4206.026,0,0
214,54,0,0,4217.821,4216.923,4218.333,4185.255999999999,4186.154,4204.231,4203.846,4193.462,4189.744000000001,4199.487,4181.026,4202.564,4193.077,4204.231,0,0
215,55,0,0,4204.103,4197.9490000000005,4205.255999999999,4180.897,4194.359,4209.872,4201.667,4198.846,4185.641,4198.205,4167.179,4193.59,4198.718,4194.231,0,0
216,56,0,0,4203.846,4197.564,4198.205,4180.641,4205.641,4204.744000000001,4203.077,4202.692,4183.462,4206.538,4166.026,4182.0509999999995,4202.436,4188.462,0,0
217,57,0,0,4216.282,4213.59,4207.308,4183.205,4200.641,4200.897,4201.026,4202.9490000000005,4191.026,4208.205,4180.641,4188.718,4205.128,4197.436,0,0
218,58,0,0,4217.308,4216.282,4207.564,4182.308,4196.795,4207.564,4200.513,4202.564,4200.255999999999,4195.128,4181.667,4198.59,4194.359,4201.538,0,0
219,59,0,0,4215.513,4215.385,4205.0,4182.308,4192.9490000000005,4215.897,4203.974,4201.282,4202.821,4203.846,4175.385,4198.846,4190.641,4201.282,0,0
220,60,0,0,4217.821,4217.564,4212.436,4184.103,4191.667,4215.255999999999,4202.9490000000005,4191.538,4195.513,4223.846,4180.0,4201.667,4202.564,4206.026,0,0
221,61,0,0,4215.641,4219.615,4215.0,4182.436,4203.974,4204.615,4200.255999999999,4187.9490000000005,4191.41,4208.846,4185.641,4203.974,4200.385,4208.718,0,0
222,62,0,0,4221.667,4225.897,4212.9490000000005,4185.255999999999,4205.513,4203.974,4201.667,4200.128,4199.103,4195.0,4184.231,4204.872,4187.9490000000005,4212.564,0,0
223,63,0,0,4232.0509999999995,4229.231,4215.897,4189.231,4193.846,4211.538,4203.205,4209.103,4204.231,4218.974,4188.462,4217.436,4197.564,4222.692,0,0
224,64,0,2153,4223.205,4219.359,4209.487,4178.718,4200.128,4205.255999999999,4199.103,4198.718,4198.333,4210.897,4189.103,4217.9490000000005,4207.821,4220.255999999999,0,0
225,65,0,1926,4212.0509999999995,4215.385,4199.872,4170.641,4210.0,4199.615,4195.255999999999,4188.974,4192.0509999999995,4179.872,4175.897,4198.974,4198.333,4208.077,0,0
226,66,0,3374,4225.769,4226.282,4210.513,4187.179,4200.769,4207.821,4199.359,4198.846,4196.538,4202.436,4177.0509999999995,4202.821,4199.744000000001,4211.41,0,0
227,67,0,3279,4236.667,4225.255999999999,4218.718,4199.615,4194.872,4208.846,4205.128,4207.692,4201.795,4224.872,4189.103,4218.333,4201.026,4218.718,0,0
228,68,0,2734,4224.872,4213.59,4209.615,4181.538,4204.615,4197.564,4204.103,4200.641,4193.974,4209.744000000001,4180.641,4208.077,4186.026,4209.872,0,0
229,69,0,2370,4215.128,4211.538,4207.0509999999995,4165.769,4205.513,4201.282,4203.077,4200.897,4184.487,4209.487,4168.077,4197.436,4184.615,4201.667,0,0
230,70,0,2327,4218.333,4218.718,4215.513,4176.923,4200.641,4209.615,4206.41,4213.077,4189.872,4213.974,4177.179,4209.487,4201.026,4205.128,0,0
231,71,0,2900,4220.128,4215.513,4217.564,4187.692,4207.308,4201.538,4205.641,4214.744000000001,4199.103,4200.641,4182.821,4217.0509999999995,4201.538,4208.205,0,0
232,72,0,2379,4217.692,4202.821,4214.103,4182.0509999999995,4209.103,4196.026,4201.154,4204.103,4195.128,4193.077,4174.359,4212.564,4189.615,4208.205,0,0
233,73,0,3475,4220.0,4200.897,4212.692,4180.513,4200.385,4205.769,4203.333,4198.462,4193.462,4199.103,4173.077,4212.179,4194.103,4209.872,0,0
234,74,0,2954,4218.462,4201.154,4212.308,4183.718,4197.179,4206.923,4204.872,4199.103,4203.077,4211.923,4173.077,4210.769,4203.59,4205.769,0,0
235,75,0,2838,4212.9490000000005,4198.333,4210.769,4181.026,4197.436,4192.692,4200.128,4197.436,4192.0509999999995,4203.333,4173.205,4210.897,4193.846,4199.487,0,0
236,76,0,2277,4219.231,4202.0509999999995,4208.333,4184.615,4200.897,4189.487,4200.769,4199.744000000001,4171.41,4185.769,4185.897,4217.436,4187.436,4205.0,0,0
237,77,0,3268,4215.255999999999,4196.923,4204.872,4186.154,4203.077,4186.41,4196.41,4196.667,4175.0,4195.128,4185.0,4210.128,4191.923,4206.026,0,0
238,78,0,2954,4201.282,4184.231,4201.667,4176.154,4193.205,4175.641,4189.615,4186.923,4183.974,4200.0,4166.282,4195.513,4190.0,4196.667,0,0
239,79,0,2838,4207.821,4194.231,4202.564,4179.615,4188.462,4184.744000000001,4197.308,4183.846,4183.077,4185.255999999999,4165.385,4198.974,4190.128,4196.538,0,0
240,80,0,2277,4215.897,4204.615,4202.0509999999995,4187.436,4194.231,4204.872,4204.615,4186.667,4185.513,4187.564,4171.667,4204.103,4197.0509999999995,4198.462,0,0
241,81,0,3268,4208.974,4192.564,4201.41,4178.974,4194.872,4191.41,4198.462,4192.436,4180.128,4204.103,4172.564,4200.385,4201.667,4198.333,0,0
242,82,0,2954,4207.308,4191.41,4202.564,4175.769,4192.308,4146.282,4195.128,4196.538,4151.026,4199.231,4183.205,4201.282,4202.564,4200.769,0,0
243,83,0,2838,4206.923,4199.615,4201.795,4182.308,4191.026,4143.205,4204.231,4203.333,4149.872,4188.333,4188.462,4202.821,4195.385,4201.538,0,0
244,84,0,2277,4198.205,4197.564,4200.128,4181.026,4193.205,4186.538,4208.333,4204.487,4185.0,4195.255999999999,4175.0,4198.718,4185.897,4198.974,0,0
245,85,0,3268,4196.667,4199.231,4200.255999999999,4183.462,4197.692,4208.846,4208.077,4191.538,4201.795,4196.667,4168.718,4198.718,4190.128,4200.641,0,0
246,86,0,2954,4201.667,4199.872,4200.128,4185.897,4196.923,4206.282,4215.0,4193.718,4201.795,4186.538,4179.615,4202.308,4201.795,4203.333,0,0
247,87,0,2838,4198.077,4189.872,4199.231,4175.128,4198.077,4208.974,4216.795,4212.436,4199.359,4184.744000000001,4181.41,4203.462,4201.41,4202.564,0,0
248,88,0,2277,4191.667,4187.9490000000005,4198.846,4167.308,4207.9490000000005,4210.128,4208.846,4207.0509999999995,4192.179,4197.9490000000005,4173.974,4200.641,4200.641,4205.385,0,0
249,89,0,3268,4183.846,4187.0509999999995,4192.9490000000005,4168.974,4201.41,4201.026,4200.0,4181.41,4185.0,4202.436,4169.615,4187.0509999999995,4201.667,4198.205,0,0
250,90,0,2954,4179.103,4184.103,4188.59,4175.255999999999,4187.0509999999995,4196.667,4200.255999999999,4178.846,4182.821,4191.282,4166.667,4176.923,4198.718,4186.41,0,0
251,91,0,2838,4185.0,4194.872,4196.026,4183.333,4196.154,4202.179,4207.0509999999995,4187.564,4177.692,4184.615,4173.077,4189.359,4198.974,4193.974,0,0
252,92,0,2277,4193.846,4205.255999999999,4203.205,4186.154,4217.179,4213.077,4209.872,4185.385,4177.821,4182.436,4184.744000000001,4202.308,4200.769,4205.513,0,0
253,93,0,3268,4197.308,4201.154,4202.564,4184.103,4216.41,4214.103,4204.872,4185.0,4187.821,4184.103,4180.641,4202.436,4195.128,4203.59,0,0
254,94,0,2954,4194.359,4201.154,4200.769,4184.872,4200.897,4202.564,4200.513,4181.795,4186.154,4186.538,4169.103,4200.769,4189.615,4200.128,0,0
255,95,0,2838,4187.692,4200.255999999999,4200.0,4182.436,4202.564,4202.9490000000005,4199.744000000001,4174.615,4183.077,4184.872,4167.436,4195.128,4188.205,4199.487,0,0
256,96,0,2277,4189.487,4196.538,4201.154,4180.128,4213.077,4207.9490000000005,4198.205,4172.179,4186.41,4182.308,4171.41,4188.462,4187.821,4197.692,0,0
257,97,0,3268,4197.821,4204.103,4203.59,4188.077,4216.282,4201.538,4198.205,4173.846,4185.769,4190.128,4175.641,4191.154,4190.385,4200.897,0,0
258,98,0,2954,4197.0509999999995,4203.077,4199.872,4187.308,4214.231,4198.846,4195.128,4178.462,4182.821,4203.974,4179.487,4193.462,4196.667,4203.846,0,0
259,99,0,2838,4196.41,4198.974,4198.205,4183.077,4206.795,4203.333,4191.667,4184.103,4185.385,4191.026,4181.154,4195.769,4199.487,4202.692,0,0
260,100,0,2277,4202.564,4211.795,4205.769,4191.282,4202.564,4201.154,4198.333,4189.615,4190.769,4172.308,4176.41,4200.255999999999,4198.205,4204.615,0,0
261,101,0,3268,4195.385,4215.128,4205.255999999999,4195.255999999999,4210.255999999999,4201.923,4201.667,4187.821,4185.641,4178.718,4172.179,4193.205,4197.692,4202.0509999999995,0,0
262,102,0,2954,4183.333,4198.333,4197.692,4186.41,4216.795,4210.641,4200.641,4187.308,4185.255999999999,4195.513,4175.128,4183.974,4198.974,4197.436,0,0
263,103,0,2838,4184.359,4186.667,4200.255999999999,4181.41,4216.667,4208.974,4204.744000000001,4193.974,4196.795,4199.359,4180.641,4189.103,4205.255999999999,4199.744000000001,0,0
264,104,0,2277,4179.231,4188.59,4199.487,4185.0,4214.744000000001,4198.205,4203.974,4190.769,4196.026,4188.718,4179.615,4191.795,4204.487,4199.487,0,0
265,105,0,3268,4167.436,4193.333,4187.0509999999995,4184.615,4203.974,4200.641,4199.872,4176.795,4182.821,4184.487,4173.59,4179.487,4190.513,4188.077,0,0
266,106,0,2954,4167.564,4199.231,4184.231,4184.103,4201.667,4208.077,4202.436,4168.077,4179.744000000001,4181.667,4163.462,4167.692,4182.9490000000005,4176.026,0,0
267,107,0,2838,4167.179,4202.0509999999995,4188.974,4187.564,4218.59,4202.436,4204.615,4167.821,4185.641,4176.154,4154.872,4162.436,4186.667,4172.9490000000005,0,0
268,108,0,2277,4155.641,4201.41,4185.128,4184.231,4217.436,4197.0509999999995,4203.59,4168.59,4183.974,4173.462,4162.692,4158.077,4185.897,4173.077,0,0
269,109,0,3268,4156.154,4201.795,4181.538,4182.436,4200.255999999999,4200.897,4203.846,4174.487,4182.308,4174.487,4170.769,4158.718,4182.436,4175.897,0,0
270,110,0,2954,4171.026,4204.744000000001,4189.872,4190.769,4204.744000000001,4198.077,4202.9490000000005,4185.0,4185.0,4186.538,4169.231,4168.846,4191.026,4183.205,0,0
271,111,0,2838,4173.718,4201.923,4195.897,4192.564,4220.128,4188.077,4200.513,4183.846,4186.923,4203.205,4172.436,4176.282,4197.179,4186.41,0,0
272,112,0,2277,4161.538,4188.974,4189.359,4182.564,4218.974,4193.59,4200.769,4173.718,4188.718,4190.255999999999,4170.897,4171.667,4192.436,4185.255999999999,0,0
273,113,0,3268,4154.487,4185.128,4182.308,4182.564,4207.436,4201.154,4201.923,4170.769,4185.128,4158.974,4158.974,4166.026,4185.769,4180.385,0,0
274,114,0,2954,4152.0509999999995,4184.872,4182.692,4183.59,4202.0509999999995,4188.974,4201.154,4172.821,4186.667,4172.9490000000005,4154.615,4162.9490000000005,4185.255999999999,4172.436,0,0
275,115,0,2838,4153.077,4182.564,4184.872,4177.308,4209.103,4186.41,4199.872,4170.641,4201.026,4201.667,4168.846,4164.744000000001,4196.795,4173.718,0,0
276,116,0,2277,4161.026,4195.0,4188.718,4183.974,4220.769,4200.128,4200.385,4177.0509999999995,4197.821,4197.179,4175.385,4169.487,4202.179,4183.462,0,0
277,117,0,3268,4162.436,4204.744000000001,4192.692,4192.692,4218.077,4191.795,4199.872,4183.333,4172.692,4181.282,4166.795,4169.872,4191.154,4185.0,0,0
278,118,0,2954,4155.385,4192.692,4190.255999999999,4186.026,4210.769,4178.333,4196.923,4176.795,4171.538,4171.538,4171.026,4170.385,4186.154,4180.641,0,0
279,119,0,2838,4150.128,4182.821,4186.282,4180.769,4216.923,4197.179,4200.255999999999,4173.462,4192.821,4181.154,4174.487,4168.333,4193.462,4178.205,0,0
280,120,0,2277,4142.821,4181.923,4184.231,4182.821,4214.744000000001,4206.538,4203.462,4175.255999999999,4192.0509999999995,4196.667,4160.769,4156.538,4188.846,4171.538,0,0
281,121,0,3268,4145.255999999999,4183.846,4184.744000000001,4186.795,4199.487,4188.077,4195.255999999999,4166.795,4174.615,4176.41,4158.205,4151.282,4181.667,4171.026,0,0
282,122,0,2954,4162.821,4192.9490000000005,4191.026,4190.255999999999,4207.564,4189.231,4192.436,4165.897,4176.282,4151.923,4169.615,4165.769,4186.282,4185.128,0,0
283,123,0,2838,4164.487,4189.487,4191.41,4184.103,4233.077,4199.103,4199.359,4177.179,4188.205,4171.923,4170.0,4169.359,4186.154,4189.615,0,0
284,124,0,2277,4152.0509999999995,4180.513,4185.0,4178.846,4229.744000000001,4185.0,4197.564,4176.923,4179.231,4189.487,4166.795,4154.872,4181.667,4177.308,0,0
285,125,0,3268,4155.0,4188.846,4185.641,4187.821,4209.359,4184.359,4191.795,4173.718,4165.769,4170.0,4167.564,4148.59,4183.333,4170.897,0,0
286,126,0,2954,4151.795,4187.436,4184.744000000001,4184.744000000001,4215.513,4202.0509999999995,4192.0509999999995,4176.026,4177.9490000000005,4166.154,4157.179,4143.077,4185.128,4168.077,0,0
287,127,0,52,4132.179,4172.821,4171.538,4169.231,4222.692,4192.308,4188.205,4173.462,4189.615,4179.872,4149.103,4129.359,4179.231,4156.538,0,0
288,0,0,2156,4128.333,4177.692,4164.359,4170.641,4205.255999999999,4180.255999999999,4182.821,4169.872,4174.103,4175.641,4161.538,4128.205,4177.9490000000005,4151.923,0,0
289,1,0,1934,4135.641,4183.846,4168.846,4178.846,4201.538,4190.897,4185.385,4168.974,4163.718,4168.462,4170.255999999999,4136.923,4184.744000000001,4155.641,0,0
290,2,0,3381,4129.103,4169.231,4168.205,4174.103,4219.487,4190.897,4186.923,4164.615,4169.615,4168.718,4159.103,4134.359,4181.923,4152.308,0,0
291,3,0,3285,4127.564,4170.255999999999,4167.692,4175.641,4219.872,4185.255999999999,4185.255999999999,4164.359,4170.513,4167.692,4157.308,4140.641,4175.641,4156.923,0,0
292,4,0,2723,4143.718,4188.718,4177.179,4188.846,4215.385,4188.59,4186.538,4170.128,4164.231,4174.744000000001,4170.641,4156.41,4176.795,4170.385,0,0
293,5,0,2362,4152.9490000000005,4189.487,4184.487,4190.255999999999,4226.026,4186.282,4185.385,4164.103,4164.359,4196.282,4172.564,4157.564,4175.769,4171.282,0,0
294,6,0,2328,4154.359,4184.615,4186.667,4186.538,4225.385,4183.846,4182.821,4166.282,4177.564,4204.103,4176.026,4161.154,4179.744000000001,4177.821,0,0
295,7,0,2914,4157.179,4189.615,4182.821,4186.026,4218.462,4186.667,4183.205,4179.615,4187.9490000000005,4184.872,4184.359,4170.0,4196.923,4188.718,0,0
296,8,0,2352,4152.9490000000005,4184.103,4172.9490000000005,4178.59,4219.487,4181.923,4183.205,4176.538,4186.41,4184.103,4175.385,4161.667,4204.487,4179.487,0,0
297,9,0,3486,4142.821,4171.41,4169.615,4171.923,4207.564,4178.205,4183.846,4168.333,4187.821,4214.487,4165.0,4147.308,4201.795,4169.103,0,0
298,10,0,2954,4132.308,4166.795,4172.179,4172.308,4197.436,4184.103,4186.538,4171.923,4186.41,4219.103,4160.769,4139.744000000001,4200.641,4164.487,0,0
299,11,0,2842,4128.077,4157.0509999999995,4168.974,4170.641,4208.462,4188.205,4187.179,4167.692,4172.308,4177.436,4151.538,4135.641,4192.564,4153.846,0,0
300,12,0,2288,4133.846,4150.128,4170.769,4171.538,4221.282,4187.308,4185.385,4155.641,4166.282,4155.641,4159.103,4147.564,4185.641,4157.692,0,0
301,13,0,3273,4141.923,4164.872,4181.795,4182.179,4225.255999999999,4187.308,4181.538,4151.538,4172.308,4159.872,4173.974,4161.795,4185.255999999999,4171.923,0,0
302,14,0,2954,4145.641,4169.872,4183.718,4187.0509999999995,4225.128,4190.769,4179.615,4148.974,4167.564,4161.41,4167.179,4156.41,4181.667,4169.231,0,0
303,15,0,2842,4150.0,4154.615,4182.179,4181.154,4220.769,4189.231,4183.333,4154.615,4159.231,4172.9490000000005,4163.846,4154.872,4182.0509999999995,4166.154,0,0
304,16,0,0,4158.205,4161.026,4186.538,4181.282,4217.9490000000005,4183.205,4187.821,4166.41,4172.436,4189.359,4176.538,4163.59,4191.282,4177.564,0,0
305,17,0,0,4163.462,4177.179,4186.795,4186.538,4215.255999999999,4184.487,4185.0,4167.0509999999995,4190.0,4194.231,4172.308,4159.231,4196.154,4181.923,0,0
306,18,0,0,4165.385,4170.0,4182.9490000000005,4185.128,4212.0509999999995,4188.205,4186.026,4174.615,4191.026,4201.154,4163.462,4158.462,4199.231,4181.667,0,0
307,19,0,0,4170.897,4171.667,4185.0,4182.564,4213.974,4185.255999999999,4191.795,4190.641,4191.41,4213.718,4181.282,4174.359,4206.667,4188.59,0,0
308,20,0,0,4175.385,4187.0509999999995,4187.9490000000005,4185.897,4209.487,4181.41,4189.615,4185.641,4199.615,4208.718,4192.179,4180.0,4207.821,4192.436,0,0
309,21,0,0,4165.513,4174.615,4181.026,4180.128,4206.795,4191.41,4184.744000000001,4172.179,4193.462,4199.359,4178.59,4166.41,4204.103,4185.0,0,0
310,22,0,0,4152.308,4158.205,4171.026,4174.231,4217.821,4210.513,4183.718,4167.692,4174.744000000001,4200.769,4163.974,4154.231,4197.821,4173.462,0,0
311,23,0,0,4151.538,4164.744000000001,4169.231,4182.821,4221.41,4218.718,4186.282,4157.179,4171.026,4189.487,4157.9490000000005,4153.462,4189.487,4168.205,0,0
312,24,0,0,4146.282,4159.615,4170.0,4181.41,4211.667,4215.641,4186.41,4148.846,4172.692,4164.615,4159.872,4154.872,4182.692,4166.795,0,0
313,25,0,0,4135.897,4145.0,4166.795,4168.974,4208.333,4218.718,4187.0509999999995,4158.974,4173.462,4158.974,4168.462,4150.385,4180.641,4165.641,0,0
314,26,0,0,4142.436,4149.872,4168.077,4168.846,4214.231,4221.026,4194.103,4167.308,4183.974,4180.385,4171.282,4148.333,4192.9490000000005,4168.333,0,0
315,27,0,0,4155.513,4155.897,4173.205,4172.0509999999995,4212.0509999999995,4213.59,4200.513,4171.41,4191.538,4194.103,4168.462,4155.128,4210.897,4172.564,0,0
316,28,0,0,4151.154,4153.205,4169.872,4167.0509999999995,4200.897,4213.974,4201.026,4185.0,4187.821,4203.205,4175.513,4155.128,4214.872,4172.308,0,0
317,29,0,0,4145.128,4157.9490000000005,4168.846,4170.0,4197.308,4219.487,4199.615,4187.0509999999995,4189.103,4210.641,4176.026,4141.154,4209.231,4169.359,0,0
318,30,0,0,4148.59,4157.308,4169.744000000001,4175.128,4207.821,4218.333,4200.128,4173.718,4192.9490000000005,4194.103,4166.154,4134.231,4206.538,4165.0,0,0
319,31,0,0,4145.769,4154.615,4161.282,4171.667,4218.846,4217.692,4200.255999999999,4169.103,4187.308,4183.462,4166.154,4135.897,4204.615,4159.872,0,0
320,32,0,0,4138.077,4161.282,4158.718,4170.769,4214.615,4217.9490000000005,4200.128,4171.795,4185.641,4206.41,4169.231,4135.255999999999,4202.692,4157.179,0,0
321,33,0,0,4135.641,4157.821,4163.077,4169.744000000001,4205.385,4216.538,4195.0,4164.487,4182.9490000000005,4208.846,4158.333,4132.179,4199.359,4156.282,0,0
322,34,0,0,4138.846,4147.9490000000005,4162.821,4164.615,4201.154,4212.179,4187.0509999999995,4156.667,4171.41,4166.41,4147.821,4134.872,4192.179,4157.9490000000005,0,0
323,35,0,0,4146.667,4157.564,4165.0,4170.0,4201.41,4205.897,4184.872,4160.641,4166.795,4139.615,4162.308,4147.0509999999995,4186.923,4164.744000000001,0,0
324,36,0,0,4157.821,4170.255999999999,4173.333,4184.872,4205.897,4200.255999999999,4183.333,4166.154,4174.359,4160.255999999999,4170.513,4156.282,4188.59,4176.667,0,0
325,37,0,0,4166.282,4171.795,4172.436,4187.564,4213.59,4201.795,4180.385,4167.692,4182.179,4201.154,4161.667,4154.744000000001,4195.255999999999,4184.487,0,0
326,38,0,0,4169.103,4178.59,4169.872,4179.872,4221.538,4209.872,4180.769,4169.744000000001,4185.255999999999,4217.179,4175.513,4156.795,4203.205,4185.255999999999,0,0
327,39,0,0,4169.359,4183.333,4176.282,4181.538,4216.538,4216.154,4182.179,4171.154,4187.0509999999995,4195.385,4195.769,4167.564,4204.359,4186.026,0,0
328,40,0,0,4169.103,4175.385,4177.821,4188.718,4202.564,4216.923,4182.179,4170.641,4192.9490000000005,4193.205,4187.564,4174.103,4202.821,4187.9490000000005,0,0
329,41,0,0,4166.282,4170.641,4173.846,4182.179,4206.923,4215.0,4183.333,4175.0,4201.026,4222.564,4183.59,4168.462,4204.103,4186.667,0,0
330,42,0,0,4158.462,4171.282,4170.897,4174.487,4217.821,4215.513,4186.667,4179.744000000001,4200.0,4223.077,4188.718,4159.615,4204.103,4185.128,0,0
331,43,0,0,4153.462,4164.615,4170.513,4178.205,4208.205,4217.436,4192.9490000000005,4173.718,4198.846,4202.179,4176.923,4157.0509999999995,4204.231,4181.282,0,0
332,44,0,0,4154.103,4159.872,4169.103,4177.436,4197.308,4217.821,4201.154,4171.538,4201.026,4200.385,4167.436,4155.897,4202.821,4171.923,0,0
333,45,0,0,4150.769,4163.077,4167.436,4168.974,4200.385,4216.538,4200.897,4184.744000000001,4194.744000000001,4204.103,4168.462,4156.41,4198.718,4172.692,0,0
334,46,0,0,4153.077,4170.769,4170.0,4173.974,4203.59,4212.436,4191.026,4189.744000000001,4186.026,4195.255999999999,4173.077,4166.538,4199.872,4184.615,0,0
335,47,0,0,4166.026,4176.538,4174.359,4186.667,4207.9490000000005,4212.821,4185.0,4177.436,4187.0509999999995,4186.41,4187.9490000000005,4170.385,4201.667,4189.103,0,0
336,48,0,0,4167.564,4176.026,4174.615,4183.718,4207.821,4214.872,4184.359,4163.462,4186.923,4188.718,4185.641,4156.795,4198.718,4178.462,0,0
337,49,0,0,4155.769,4178.974,4170.641,4178.333,4198.462,4212.179,4181.538,4155.641,4182.0509999999995,4202.0509999999995,4169.359,4150.897,4198.59,4170.385,0,0
338,50,0,0,4154.615,4183.462,4170.128,4179.231,4197.436,4212.821,4181.282,4158.205,4184.103,4204.744000000001,4172.179,4158.462,4199.103,4174.744000000001,0,0
339,51,0,0,4167.436,4186.282,4176.923,4182.436,4202.308,4215.385,4187.564,4166.154,4189.744000000001,4196.538,4173.974,4156.795,4193.077,4176.923,0,0
340,52,0,0,4171.538,4186.538,4180.128,4187.308,4201.923,4210.385,4190.385,4171.795,4187.9490000000005,4200.769,4171.026,4153.59,4188.974,4172.692,0,0
341,53,0,0,4166.026,4185.385,4177.9490000000005,4186.154,4200.641,4207.821,4188.077,4177.9490000000005,4185.128,4202.9490000000005,4184.103,4159.744000000001,4197.564,4177.179,0,0
342,54,0,0,4173.59,4191.923,4180.769,4185.641,4202.436,4214.872,4193.846,4186.41,4192.308,4200.897,4190.385,4167.821,4205.385,4187.436,0,0
343,55,0,0,4184.872,4203.077,4188.462,4191.41,4202.9490000000005,4222.0509999999995,4199.487,4189.872,4203.718,4208.333,4184.231,4172.821,4193.077,4188.205,0,0
344,56,0,0,4179.744000000001,4199.231,4185.641,4191.026,4203.974,4218.462,4191.667,4185.385,4200.897,4205.255999999999,4181.154,4168.59,4173.846,4184.744000000001,0,0
345,57,0,0,4170.513,4187.179,4173.333,4182.564,4206.538,4208.333,4181.282,4176.41,4184.744000000001,4192.564,4173.333,4158.718,4164.487,4182.308,0,0
346,58,0,0,4171.282,4191.41,4173.462,4183.462,4208.59,4205.897,4181.154,4170.128,4179.487,4201.923,4167.9490000000005,4161.026,4159.615,4182.436,0,0
347,59,0,0,4175.385,4193.846,4183.718,4188.462,4200.769,4213.205,4183.462,4171.41,4187.9490000000005,4204.615,4175.897,4169.487,4152.564,4185.513,0,0
348,60,0,0,4177.308,4183.974,4185.128,4186.154,4192.692,4216.667,4182.564,4169.103,4189.231,4183.462,4178.974,4165.897,4149.103,4182.308,0,0
349,61,0,0,4183.077,4187.308,4181.154,4185.513,4200.385,4208.462,4183.846,4165.0,4183.59,4188.846,4182.564,4167.0509999999995,4153.333,4184.744000000001,0,0
350,62,0,0,4187.564,4201.41,4185.128,4187.821,4206.282,4204.487,4183.974,4167.0509999999995,4182.821,4206.154,4190.128,4180.513,4157.0509999999995,4194.615,0,0
351,63,0,0,4188.846,4203.718,4190.513,4189.359,4197.9490000000005,4208.462,4184.231,4167.0509999999995,4187.692,4200.897,4181.154,4178.333,4150.513,4192.436,0,0
352,64,0,2160,4189.744000000001,4196.795,4190.641,4193.59,4199.487,4215.897,4187.179,4166.154,4190.128,4201.923,4176.282,4172.308,4139.231,4185.0,0,0
353,65,0,1941,4187.308,4191.282,4188.462,4196.667,4208.077,4217.692,4188.846,4167.9490000000005,4180.769,4202.179,4188.333,4177.436,4140.128,4185.513,0,0
354,66,0,3387,4182.9490000000005,4191.667,4186.41,4198.462,4208.718,4203.718,4188.59,4170.897,4174.231,4182.436,4185.0,4174.487,4141.923,4182.821,0,0
355,67,0,3308,4185.385,4198.462,4189.872,4201.282,4213.333,4200.128,4187.821,4175.897,4183.333,4184.487,4174.487,4172.692,4136.667,4179.231,0,0
356,68,0,2735,4192.564,4203.59,4191.538,4200.897,4217.564,4215.385,4188.59,4176.154,4193.846,4208.462,4180.128,4183.846,4139.231,4184.744000000001,0,0
357,69,0,2361,4194.231,4199.872,4187.564,4197.9490000000005,4202.308,4221.41,4187.692,4173.205,4191.026,4205.513,4185.385,4186.282,4142.821,4187.9490000000005,0,0
358,70,0,2332,4192.821,4200.0,4186.538,4198.718,4193.974,4213.718,4184.103,4172.821,4185.897,4194.744000000001,4182.436,4177.436,4137.0509999999995,4187.436,0,0
359,71,0,2914,4200.385,4215.513,4190.897,4203.59,4208.718,4211.41,4182.692,4166.923,4185.897,4192.821,4188.59,4183.462,4137.821,4196.795,0,0
360,72,0,2356,4203.59,4220.513,4190.897,4200.513,4211.282,4207.821,4181.923,4156.795,4182.9490000000005,4187.179,4193.077,4189.744000000001,4146.026,4201.795,0,0
361,73,0,3495,4190.641,4206.282,4184.872,4192.9490000000005,4197.9490000000005,4197.436,4175.513,4154.615,4181.282,4192.9490000000005,4178.718,4176.41,4139.359,4191.538,0,0
362,74,0,2957,4181.41,4197.821,4182.0509999999995,4194.872,4194.487,4195.897,4169.103,4155.385,4178.59,4199.487,4172.692,4167.179,4133.205,4183.59,0,0
363,75,0,2845,4184.615,4192.9490000000005,4181.923,4195.513,4198.333,4197.821,4170.0,4150.385,4180.255999999999,4195.0,4181.795,4171.923,4145.255999999999,4184.615,0,0
364,76,0,2283,4184.744000000001,4185.897,4181.923,4187.179,4204.615,4197.564,4171.41,4150.128,4186.026,4196.538,4185.641,4174.615,4148.333,4184.615,0,0
365,77,0,3273,4182.0509999999995,4190.255999999999,4183.077,4186.282,4202.821,4196.282,4169.231,4160.513,4180.513,4193.59,4182.308,4170.128,4136.795,4183.974,0,0
366,78,0,2957,4185.0,4193.718,4181.538,4190.897,4188.718,4196.795,4167.9490000000005,4167.821,4173.846,4183.205,4179.231,4170.255999999999,4136.282,4183.333,0,0
367,79,0,2845,4182.0509999999995,4183.333,4174.872,4186.538,4183.59,4201.026,4171.154,4167.9490000000005,4181.026,4186.154,4173.718,4167.9490000000005,4143.974,4177.692,0,0
368,80,0,2283,4172.436,4180.897,4171.795,4183.974,4195.385,4201.667,4176.538,4164.615,4186.795,4198.846,4167.9490000000005,4157.0509999999995,4141.667,4171.282,0,0
369,81,0,3273,4174.359,4189.487,4177.821,4188.718,4202.564,4200.641,4180.897,4161.667,4180.255999999999,4198.846,4173.462,4155.897,4140.0,4171.154,0,0
370,82,0,2957,4184.231,4190.255999999999,4182.564,4189.744000000001,4198.205,4204.359,4184.103,4163.077,4181.282,4193.718,4175.897,4165.641,4146.795,4172.0509999999995,0,0
371,83,0,2845,4187.564,4187.692,4181.667,4188.205,4197.308,4207.9490000000005,4187.179,4168.718,4186.923,4183.718,4171.667,4169.872,4151.667,4171.026,0,0
372,84,0,2283,4185.385,4192.436,4182.0509999999995,4190.513,4202.692,4205.897,4186.41,4169.872,4187.564,4180.513,4169.487,4165.897,4150.0,4175.513,0,0
373,85,0,3273,4190.769,4198.59,4186.282,4196.538,4204.872,4201.538,4183.846,4165.769,4186.795,4200.385,4171.923,4171.795,4145.0,4184.359,0,0
374,86,0,2957,4201.923,4201.154,4189.103,4200.513,4203.462,4199.872,4183.846,4165.897,4178.333,4194.103,4178.718,4182.9490000000005,4141.154,4187.0509999999995,0,0
375,87,0,2845,4202.0509999999995,4197.821,4188.974,4199.872,4204.231,4201.538,4183.718,4169.487,4175.255999999999,4166.795,4177.308,4181.923,4140.0,4185.0,0,0
376,88,0,2283,4191.41,4193.333,4188.205,4195.0,4206.538,4204.103,4182.436,4170.769,4184.231,4174.359,4166.41,4167.821,4138.205,4180.897,0,0
377,89,0,3273,4183.846,4186.41,4182.564,4187.821,4206.026,4203.718,4183.718,4170.641,4186.667,4195.128,4163.462,4156.282,4137.0509999999995,4172.436,0,0
378,90,0,2957,4182.0509999999995,4177.692,4173.333,4182.308,4201.923,4202.308,4181.795,4171.41,4183.333,4185.641,4169.744000000001,4158.59,4145.769,4168.718,0,0
379,91,0,2845,4180.897,4178.333,4172.308,4183.718,4196.795,4201.282,4175.128,4174.615,4181.923,4177.179,4171.667,4164.744000000001,4152.564,4177.0509999999995,0,0
380,92,0,2283,4182.179,4184.744000000001,4180.0,4186.538,4198.59,4200.255999999999,4167.179,4170.255999999999,4176.795,4187.821,4166.923,4164.487,4144.872,4182.692,0,0
381,93,0,3273,4190.513,4192.179,4184.744000000001,4187.308,4203.846,4199.231,4167.9490000000005,4166.282,4176.667,4188.718,4167.564,4165.385,4142.436,4182.564,0,0
382,94,0,2957,4200.255999999999,4200.0,4185.255999999999,4190.0,4202.564,4200.513,4178.077,4180.641,4182.9490000000005,4183.333,4177.9490000000005,4172.564,4153.333,4184.487,0,0
383,95,0,2845,4201.795,4200.255999999999,4186.667,4190.769,4201.154,4199.231,4181.026,4187.692,4176.923,4183.974,4183.462,4174.615,4153.974,4188.205,0,0
384,96,0,2283,4197.9490000000005,4191.667,4187.564,4190.128,4202.692,4191.41,4177.9490000000005,4172.308,4167.179,4184.103,4179.615,4174.359,4146.795,4191.026,0,0
385,97,0,3273,4200.128,4188.59,4186.923,4190.0,4202.692,4191.154,4178.974,4170.0,4174.487,4184.359,4181.026,4182.308,4152.564,4190.641,0,0
386,98,0,2957,4202.436,4189.487,4187.179,4186.667,4201.667,4201.154,4177.436,4184.359,4192.564,4200.0,4183.846,4185.0,4157.436,4187.179,0,0
387,99,0,2845,4198.333,4187.0509999999995,4187.692,4186.154,4197.436,4206.282,4174.231,4188.59,4199.487,4221.154,4180.385,4180.385,4155.513,4188.077,0,0
388,100,0,2283,4200.641,4189.744000000001,4187.179,4192.9490000000005,4197.9490000000005,4205.128,4180.641,4191.923,4195.255999999999,4216.41,4185.385,4184.615,4161.026,4193.974,0,0
389,101,0,3273,4199.872,4190.641,4185.897,4192.9490000000005,4208.974,4204.231,4186.923,4195.128,4187.436,4204.231,4194.231,4190.0,4168.205,4191.154,0,0
390,102,0,2957,4190.128,4185.255999999999,4185.255999999999,4185.255999999999,4208.59,4202.0509999999995,4183.718,4186.923,4185.897,4197.692,4189.103,4185.128,4167.308,4185.513,0,0
391,103,0,2845,4192.564,4185.385,4185.897,4186.795,4195.385,4201.538,4183.846,4190.128,4196.154,4191.154,4183.718,4182.821,4168.077,4191.41,0,0
392,104,0,2283,4201.41,4188.462,4187.564,4190.641,4196.795,4202.9490000000005,4184.231,4199.359,4201.41,4208.205,4188.205,4188.718,4173.974,4195.0,0,0
393,105,0,3273,4193.59,4187.821,4186.41,4187.9490000000005,4204.744000000001,4202.436,4184.615,4191.538,4189.615,4231.667,4189.359,4185.513,4170.0,4188.718,0,0
394,106,0,2957,4181.282,4185.769,4179.872,4184.872,4201.538,4200.0,4184.487,4181.282,4179.744000000001,4217.308,4182.821,4171.282,4163.462,4181.667,0,0
395,107,0,2845,4184.231,4181.538,4177.692,4184.231,4199.231,4195.897,4182.0509999999995,4185.769,4183.846,4197.564,4182.0509999999995,4171.026,4167.179,4180.385,0,0
396,108,0,2283,4191.026,4182.436,4184.487,4182.9490000000005,4201.923,4201.41,4188.462,4195.128,4186.282,4198.333,4185.897,4183.333,4169.487,4183.462,0,0
397,109,0,3273,4188.462,4187.308,4186.41,4184.359,4200.255999999999,4210.897,4198.077,4199.103,4190.897,4201.282,4183.718,4183.59,4166.154,4185.385,0,0
398,110,0,2957,4185.385,4180.128,4184.872,4186.41,4197.9490000000005,4207.436,4197.9490000000005,4201.154,4200.385,4207.179,4182.564,4179.359,4168.462,4184.744000000001,0,0
399,111,0,2845,4193.718,4175.0,4189.359,4187.9490000000005,4200.385,4202.821,4196.923,4205.385,4199.103,4207.821,4187.564,4186.41,4173.333,4185.897,0,0
400,112,0,2283,4204.615,4181.41,4192.0509999999995,4188.974,4203.59,4206.667,4197.821,4206.538,4198.59,4196.795,4189.231,4191.923,4170.769,4190.0,0,0
401,113,0,3273,4202.564,4182.692,4192.564,4188.205,4202.9490000000005,4203.333,4191.41,4200.385,4199.359,4204.359,4186.282,4187.564,4169.231,4194.744000000001,0,0
402,114,0,2957,4201.154,4182.692,4195.897,4188.077,4201.41,4195.769,4185.255999999999,4198.205,4189.872,4216.41,4185.897,4186.795,4172.179,4199.359,0,0
403,115,0,2845,4208.718,4190.0,4198.59,4189.487,4201.667,4200.128,4186.41,4202.436,4188.59,4208.077,4186.282,4193.718,4171.41,4200.897,0,0
404,116,0,2283,4208.846,4189.103,4196.282,4187.308,4202.0509999999995,4206.026,4187.821,4201.026,4201.154,4207.692,4187.564,4198.846,4170.128,4200.769,0,0
405,117,0,3273,4201.154,4181.282,4189.231,4184.359,4201.795,4201.795,4185.385,4195.641,4197.0509999999995,4205.897,4188.462,4190.513,4171.538,4200.255999999999,0,0
406,118,0,2957,4198.846,4182.564,4182.692,4186.282,4204.103,4198.077,4180.769,4194.872,4184.103,4191.026,4185.769,4181.154,4171.41,4198.462,0,0
407,119,0,2845,4204.103,4185.641,4188.333,4189.872,4206.282,4204.231,4184.103,4201.667,4192.0509999999995,4203.718,4185.255999999999,4193.462,4170.769,4199.744000000001,0,0
408,120,0,2283,4207.0509999999995,4184.487,4196.41,4188.205,4203.846,4207.692,4186.795,4206.282,4204.615,4224.744000000001,4189.359,4203.462,4171.795,4203.462,0,0
409,121,0,3273,4202.821,4185.128,4189.744000000001,4186.923,4204.487,4200.897,4175.513,4198.333,4199.744000000001,4207.564,4187.564,4188.462,4169.359,4200.128,0,0
410,122,0,2957,4200.128,4185.385,4185.128,4189.744000000001,4206.667,4198.205,4173.333,4190.0,4191.41,4195.0,4182.0509999999995,4180.385,4165.0,4197.308,0,0
411,123,0,2845,4201.923,4184.103,4187.564,4189.359,4200.897,4201.154,4181.795,4188.59,4187.564,4205.0,4187.9490000000005,4190.897,4166.41,4199.615,0,0
412,124,0,2283,4201.923,4184.615,4185.385,4186.282,4196.538,4200.385,4177.821,4183.333,4184.487,4189.359,4192.436,4185.641,4172.692,4195.385,0,0
413,125,0,3273,4199.359,4185.255999999999,4181.667,4186.154,4201.667,4199.615,4169.872,4180.513,4186.026,4180.513,4180.769,4170.641,4173.846,4187.0509999999995,0,0
414,126,0,2957,4200.641,4185.513,4185.641,4187.821,4201.795,4201.41,4172.692,4186.41,4189.359,4208.59,4176.538,4174.231,4170.385,4188.718,0,0
415,127,0,52,4200.897,4183.077,4188.205,4186.795,4196.154,4199.615,4178.462,4183.077,4185.0,4204.231,4186.154,4177.308,4171.923,4190.641,0,0
416,0,0,2159,4199.231,4182.692,4185.513,4185.641,4199.744000000001,4199.872,4184.359,4181.795,4183.974,4177.179,4182.692,4171.795,4174.487,4185.255999999999,0,0
417,1,0,1940,4201.667,4187.9490000000005,4188.59,4186.795,4202.308,4206.154,4189.615,4197.0509999999995,4195.0,4193.077,4175.0,4172.9490000000005,4171.282,4186.538,0,0
418,2,0,3384,4198.718,4179.744000000001,4187.179,4182.308,4197.9490000000005,4206.538,4193.333,4207.436,4204.103,4220.513,4180.128,4171.41,4173.205,4188.462,0,0
419,3,0,3297,4198.718,4173.462,4182.692,4184.615,4199.744000000001,4201.154,4200.769,4210.769,4204.231,4212.692,4185.769,4171.154,4184.103,4184.872,0,0
420,4,0,2739,4211.667,4194.103,4190.255999999999,4198.846,4204.744000000001,4201.41,4201.154,4215.255999999999,4200.385,4202.0509999999995,4187.436,4183.205,4187.564,4191.41,0,0
421,5,0,2361,4212.692,4204.231,4195.513,4200.255999999999,4201.795,4205.513,4189.487,4208.974,4195.385,4203.462,4187.179,4185.641,4184.615,4198.077,0,0
422,6,0,2329,4200.0,4184.744000000001,4187.179,4187.564,4196.41,4204.872,4183.846,4198.077,4198.846,4201.923,4183.59,4173.59,4183.205,4191.154,0,0
423,7,0,2912,4199.103,4178.205,4184.615,4184.744000000001,4198.974,4202.9490000000005,4184.744000000001,4197.179,4200.128,4201.282,4184.231,4170.0,4177.0509999999995,4184.872,0,0
424,8,0,2356,4204.872,4189.359,4189.615,4193.205,4202.436,4203.333,4182.564,4198.205,4189.487,4201.154,4185.385,4176.282,4169.487,4191.41,0,0
425,9,0,3478,4203.333,4188.718,4187.179,4193.077,4202.308,4203.718,4181.41,4197.564,4188.59,4201.538,4182.436,4183.462,4168.59,4199.872,0,0
426,10,0,2957,4204.103,4185.255999999999,4190.0,4186.795,4200.769,4205.385,4186.923,4195.897,4199.487,4200.0,4186.923,4189.487,4173.205,4202.0509999999995,0,0
427,11,0,2846,4202.9490000000005,4185.385,4195.641,4184.615,4200.897,4204.103,4187.308,4188.205,4200.128,4196.282,4190.0,4187.821,4178.846,4199.103,0,0
428,12,0,2278,4196.282,4183.59,4191.026,4186.41,4202.564,4197.564,4181.41,4188.718,4195.641,4207.9490000000005,4185.255999999999,4184.487,4184.359,4196.795,0,0
429,13,0,3271,4201.026,4185.897,4187.436,4188.333,4199.231,4202.179,4189.615,4199.744000000001,4198.718,4218.077,4187.436,4189.487,4189.487,4201.154,0,0
430,14,0,2957,4205.385,4187.436,4188.462,4187.821,4196.41,4212.0509999999995,4200.897,4202.821,4202.564,4211.026,4191.026,4191.026,4191.282,4203.077,0,0
431,15,0,2846,4200.128,4186.667,4191.41,4191.282,4206.923,4208.205,4193.59,4196.923,4200.385,4198.718,4187.9490000000005,4187.692,4189.231,4198.077,0,0
432,16,0,0,4203.846,4188.077,4196.538,4196.282,4216.41,4200.641,4182.692,4197.436,4198.462,4194.615,4188.205,4187.692,4187.9490000000005,4197.821,0,0
433,17,0,0,4217.564,4191.282,4201.795,4197.9490000000005,4209.872,4204.359,4187.564,4203.462,4200.255999999999,4207.564,4190.128,4189.359,4189.231,4204.359,0,0
434,18,0,0,4217.179,4197.564,4198.333,4197.308,4201.026,4206.41,4191.538,4204.231,4197.564,4223.846,4188.077,4187.692,4186.538,4204.231,0,0
435,19,0,0,4203.333,4198.974,4190.255999999999,4197.436,4201.923,4201.282,4186.282,4199.103,4192.436,4211.282,4185.0,4185.0,4182.821,4195.513,0,0
436,20,0,0,4200.255999999999,4193.718,4191.282,4200.385,4204.872,4202.179,4191.41,4200.897,4198.462,4191.154,4184.615,4184.872,4185.128,4195.255999999999,0,0
437,21,0,0,4204.487,4195.769,4197.308,4197.564,4209.487,4204.615,4197.179,4210.641,4204.231,4204.103,4186.923,4184.615,4184.872,4197.564,0,0
438,22,0,0,4202.692,4197.436,4198.718,4191.154,4211.923,4204.231,4193.59,4217.9490000000005,4199.615,4221.41,4188.333,4182.692,4181.667,4191.923,0,0
439,23,0,0,4199.872,4189.744000000001,4198.846,4191.667,4211.538,4204.359,4191.41,4219.103,4203.205,4213.077,4185.897,4177.9490000000005,4184.615,4187.0509999999995,0,0
440,24,0,0,4200.641,4189.231,4197.436,4195.769,4216.026,4200.385,4191.026,4214.103,4206.41,4204.872,4183.59,4176.923,4189.744000000001,4187.179,0,0
441,25,0,0,4201.41,4194.231,4189.615,4193.077,4215.513,4196.538,4185.769,4205.255999999999,4192.821,4208.205,4185.769,4181.538,4184.487,4188.846,0,0
442,26,0,0,4200.641,4186.282,4186.41,4184.744000000001,4212.821,4199.231,4181.795,4197.9490000000005,4184.231,4204.744000000001,4188.718,4185.385,4177.436,4194.231,0,0
443,27,0,0,4201.154,4180.641,4190.897,4185.128,4211.667,4202.179,4184.231,4197.308,4188.846,4194.744000000001,4188.846,4187.692,4183.333,4201.795,0,0
444,28,0,0,4199.872,4193.846,4190.128,4193.718,4205.128,4198.59,4184.231,4198.846,4190.385,4200.0,4186.026,4181.154,4182.821,4197.692,0,0
445,29,0,0,4196.026,4197.308,4186.026,4192.564,4205.769,4198.59,4183.077,4196.282,4187.0509999999995,4205.897,4184.744000000001,4172.436,4172.564,4191.923,0,0
446,30,0,0,4195.769,4186.41,4185.513,4184.872,4216.154,4201.154,4184.103,4189.872,4187.9490000000005,4200.385,4183.59,4175.897,4175.0,4191.154,0,0
447,31,0,0,4198.077,4187.9490000000005,4186.282,4185.255999999999,4215.385,4198.718,4185.897,4185.897,4188.333,4202.179,4182.436,4183.846,4184.103,4188.974,0,0
448,32,0,0,4198.846,4202.179,4188.846,4190.769,4208.974,4198.462,4186.154,4191.538,4186.282,4195.897,4186.026,4187.308,4182.692,4192.564,0,0
449,33,0,0,4199.103,4199.872,4190.128,4188.846,4216.154,4198.333,4185.128,4199.103,4187.821,4177.692,4188.077,4183.077,4180.513,4195.128,0,0
450,34,0,0,4200.128,4188.205,4187.564,4187.9490000000005,4212.821,4193.205,4186.026,4199.103,4185.641,4192.821,4185.897,4174.744000000001,4184.359,4187.0509999999995,0,0
451,35,0,0,4200.385,4197.692,4186.667,4192.9490000000005,4203.205,4191.667,4186.795,4197.436,4187.179,4222.564,4185.641,4175.641,4183.077,4183.846,0,0
452,36,0,0,4199.744000000001,4205.513,4188.59,4193.462,4214.359,4198.077,4187.9490000000005,4202.179,4196.154,4217.821,4186.538,4185.255999999999,4181.667,4193.077,0,0
453,37,0,0,4200.385,4191.41,4189.487,4189.872,4223.974,4200.385,4190.255999999999,4204.231,4190.897,4196.41,4187.436,4183.974,4185.641,4193.333,0,0
454,38,0,0,4201.026,4181.795,4186.795,4187.436,4214.231,4197.564,4187.9490000000005,4202.0509999999995,4180.385,4194.103,4189.103,4174.487,4186.538,4185.897,0,0
455,39,0,0,4197.436,4187.9490000000005,4185.513,4187.436,4210.255999999999,4199.103,4185.385,4201.923,4191.41,4210.255999999999,4181.282,4171.795,4184.615,4185.255999999999,0,0
456,40,0,0,4188.205,4188.974,4184.103,4184.872,4217.0509999999995,4198.59,4186.026,4193.718,4199.359,4221.667,4170.128,4170.0,4182.564,4183.846,0,0
457,41,0,0,4180.897,4178.846,4180.513,4180.769,4207.0509999999995,4192.9490000000005,4180.255999999999,4180.255999999999,4184.744000000001,4195.641,4173.718,4167.436,4182.692,4180.128,0,0
458,42,0,0,4185.0,4178.846,4182.308,4183.718,4196.923,4194.103,4177.564,4180.513,4179.103,4168.846,4182.436,4168.718,4180.385,4181.41,0,0
459,43,0,0,4190.385,4192.179,4187.179,4189.615,4210.255999999999,4196.923,4184.872,4188.846,4187.179,4193.846,4183.974,4173.333,4177.179,4186.154,0,0
460,44,0,0,4181.923,4192.564,4186.667,4186.795,4220.385,4189.872,4183.077,4188.333,4185.897,4206.923,4181.538,4174.744000000001,4176.154,4185.0,0,0
461,45,0,0,4175.513,4183.462,4183.59,4180.385,4216.154,4183.59,4176.026,4181.923,4180.255999999999,4184.103,4179.231,4169.615,4177.692,4180.128,0,0
462,46,0,0,4188.462,4192.564,4186.795,4184.359,4213.846,4189.744000000001,4181.538,4182.821,4180.769,4195.128,4181.282,4174.103,4181.795,4182.564,0,0
463,47,0,0,4201.282,4202.436,4192.564,4189.744000000001,4210.641,4194.103,4190.255999999999,4191.538,4185.385,4214.615,4191.282,4188.718,4186.154,4193.333,0,0
464,48,0,0,4200.255999999999,4196.282,4194.744000000001,4188.59,4206.795,4188.59,4188.333,4195.897,4188.077,4190.897,4190.641,4190.769,4183.333,4200.513,0,0
465,49,0,0,4199.615,4196.41,4197.564,4186.154,4213.462,4186.538,4185.255999999999,4195.641,4185.769,4184.359,4186.795,4190.0,4170.897,4200.897,0,0
466,50,0,0,4202.308,4198.205,4196.795,4185.128,4218.077,4188.974,4184.359,4199.231,4186.154,4216.282,4194.872,4195.513,4167.821,4200.897,0,0
467,51,0,0,4202.179,4195.769,4196.923,4187.436,4215.0,4187.564,4184.487,4203.846,4188.205,4208.59,4193.205,4191.41,4181.795,4200.513,0,0
468,52,0,0,4201.667,4197.564,4197.821,4190.897,4217.308,4185.897,4185.255999999999,4198.718,4185.0,4182.308,4184.231,4184.359,4190.769,4199.487,0,0
469,53,0,0,4200.128,4196.667,4193.59,4188.333,4221.41,4185.128,4184.103,4187.0509999999995,4183.333,4199.872,4187.0509999999995,4183.718,4185.385,4200.385,0,0
470,54,0,0,4199.231,4195.385,4188.846,4185.255999999999,4224.103,4182.564,4185.897,4186.41,4185.641,4215.769,4187.9490000000005,4179.359,4181.538,4196.154,0,0
471,55,0,0,4198.077,4199.487,4187.436,4189.103,4224.744000000001,4189.872,4187.9490000000005,4194.359,4188.974,4205.897,4181.41,4177.0509999999995,4186.282,4190.0,0,0
472,56,0,0,4193.59,4193.718,4187.821,4189.103,4215.897,4199.231,4187.564,4200.385,4194.872,4210.769,4189.744000000001,4183.077,4190.641,4191.795,0,0
473,57,0,0,4188.718,4185.769,4185.385,4182.692,4215.513,4191.41,4185.769,4199.359,4194.231,4218.718,4198.59,4183.59,4189.359,4191.667,0,0
474,58,0,0,4186.282,4192.436,4184.231,4182.179,4225.513,4182.9490000000005,4183.462,4195.255999999999,4184.487,4202.821,4191.41,4181.795,4185.769,4186.41,0,0
475,59,0,0,4183.077,4192.308,4183.846,4184.359,4223.333,4187.0509999999995,4185.0,4195.897,4184.487,4194.103,4185.897,4180.769,4185.128,4186.026,0,0
476,60,0,0,4180.385,4184.359,4184.103,4182.564,4217.308,4187.9490000000005,4183.077,4197.0509999999995,4187.179,4211.667,4184.103,4173.59,4186.41,4185.897,0,0
477,61,0,0,4184.231,4190.897,4186.795,4183.59,4217.564,4182.9490000000005,4173.974,4189.231,4180.385,4224.103,4183.205,4174.615,4184.744000000001,4186.41,0,0
478,62,0,0,4188.59,4201.026,4189.615,4188.205,4217.308,4183.59,4170.641,4181.538,4177.821,4203.205,4192.179,4184.231,4182.436,4195.0,0,0
479,63,0,0,4188.205,4196.282,4189.103,4186.667,4227.0509999999995,4184.359,4175.769,4182.692,4184.487,4183.205,4199.231,4182.308,4182.436,4198.974,0,0
480,64,0,2158,4191.41,4188.846,4187.308,4185.385,4233.974,4183.205,4178.718,4183.462,4185.769,4205.255999999999,4191.282,4178.205,4185.897,4196.282,0,0
481,65,0,1942,4200.769,4195.641,4194.103,4194.615,4223.205,4185.385,4183.077,4181.795,4180.513,4217.436,4183.333,4183.333,4190.897,4197.564,0,0
482,66,0,3384,4203.718,4202.436,4199.615,4197.564,4220.385,4188.077,4190.0,4184.231,4177.692,4196.538,4185.0,4184.103,4187.692,4197.308,0,0
483,67,0,3297,4200.0,4200.641,4195.128,4188.59,4233.59,4188.333,4188.974,4191.667,4181.538,4200.897,4191.667,4182.179,4185.128,4195.769,0,0
484,68,0,2749,4200.255999999999,4202.179,4195.255999999999,4187.436,4238.462,4188.462,4185.769,4200.385,4188.846,4207.179,4199.872,4188.205,4195.769,4200.255999999999,0,0
485,69,0,2360,4200.897,4202.0509999999995,4195.641,4193.077,4230.897,4189.103,4187.0509999999995,4202.179,4189.615,4201.41,4201.667,4189.744000000001,4199.615,4204.487,0,0
486,70,0,2330,4199.615,4198.718,4188.846,4191.538,4230.897,4189.872,4186.795,4196.282,4186.282,4213.974,4197.0509999999995,4185.641,4193.974,4202.436,0,0
487,71,0,2911,4198.59,4202.0509999999995,4188.974,4188.333,4238.205,4191.282,4184.744000000001,4191.026,4185.513,4212.9490000000005,4198.205,4185.255999999999,4194.231,4198.333,0,0
488,72,0,2367,4198.205,4198.59,4199.615,4188.462,4241.795,4192.179,4186.154,4189.103,4188.333,4201.923,4202.308,4191.667,4199.872,4204.615,0,0
489,73,0,3480,4202.436,4191.154,4199.103,4187.179,4235.897,4189.103,4186.923,4188.462,4189.103,4207.564,4200.641,4197.179,4196.923,4214.872,0,0
490,74,0,2957,4205.897,4198.718,4190.385,4186.667,4223.59,4184.872,4178.59,4185.641,4180.513,4200.513,4199.872,4191.923,4182.179,4209.487,0,0
491,75,0,2842,4202.179,4201.026,4192.9490000000005,4187.692,4219.615,4184.615,4167.9490000000005,4180.255999999999,4176.923,4185.513,4199.359,4183.974,4172.9490000000005,4203.59,0,0
492,76,0,2278,4204.487,4192.692,4201.154,4192.9490000000005,4229.231,4186.154,4168.333,4184.359,4184.615,4213.077,4198.718,4189.487,4185.255999999999,4215.255999999999,0,0
493,77,0,3271,4211.282,4199.872,4199.231,4199.872,4231.026,4184.872,4172.9490000000005,4190.128,4186.41,4237.0509999999995,4201.795,4195.769,4204.487,4219.359,0,0
494,78,0,2957,4203.077,4205.0,4189.359,4193.333,4220.513,4181.923,4171.282,4180.641,4180.128,4209.359,4201.154,4184.872,4200.769,4204.103,0,0
495,79,0,2842,4191.923,4188.205,4184.103,4180.769,4218.462,4180.641,4167.564,4174.872,4181.154,4189.103,4190.0,4175.0,4188.59,4195.769,0,0
496,80,0,2278,4196.538,4183.59,4186.41,4180.641,4218.718,4182.308,4170.255999999999,4183.333,4186.026,4206.667,4183.462,4176.667,4185.897,4199.615,0,0
497,81,0,3271,4203.205,4196.026,4187.0509999999995,4185.769,4214.103,4185.255999999999,4179.103,4190.897,4184.487,4217.179,4192.179,4178.718,4186.538,4200.641,0,0
498,82,0,2957,4202.692,4199.359,4185.513,4184.359,4218.59,4187.9490000000005,4185.897,4193.846,4183.718,4202.9490000000005,4199.231,4180.385,4192.308,4202.0509999999995,0,0
499,83,0,2842,4200.897,4197.564,4190.128,4183.718,4218.974,4187.564,4184.615,4200.641,4184.103,4200.128,4195.255999999999,4182.692,4193.974,4202.179,0,0
500,84,0,2278,4202.179,4199.615,4196.282,4186.923,4211.667,4185.513,4182.0509999999995,4203.846,4184.103,4203.846,4194.359,4183.59,4189.359,4200.255999999999,0,0
501,85,0,3271,4210.128,4201.923,4193.333,4187.564,4216.41,4183.59,4184.872,4200.897,4185.769,4197.9490000000005,4201.538,4185.641,4189.103,4205.769,0,0
502,86,0,2957,4216.282,4202.0509999999995,4187.9490000000005,4187.436,4220.513,4181.795,4185.897,4202.308,4187.692,4202.9490000000005,4204.359,4188.077,4189.487,4216.026,0,0
503,87,0,2842,4217.821,4202.821,4191.538,4190.769,4215.769,4181.154,4178.59,4198.462,4184.487,4211.026,4199.872,4187.308,4186.41,4217.9490000000005,0,0
504,88,0,2278,4216.026,4203.333,4196.538,4190.513,4223.846,4182.308,4168.462,4186.282,4178.077,4198.846,4198.59,4185.385,4190.897,4213.462,0,0
505,89,0,3271,4211.923,4203.077,4192.308,4188.077,4235.128,4186.923,4170.513,4180.641,4178.846,4183.205,4198.974,4179.615,4197.9490000000005,4208.205,0,0
506,90,0,2957,4202.436,4197.821,4184.231,4185.385,4226.667,4190.641,4180.513,4184.103,4180.128,4188.333,4192.436,4165.385,4193.077,4201.026,0,0
507,91,0,2842,4188.205,4184.615,4180.385,4178.205,4207.0509999999995,4183.846,4175.641,4184.872,4176.538,4184.744000000001,4183.846,4152.9490000000005,4186.667,4197.821,0,0
508,92,0,2278,4185.513,4179.103,4182.564,4175.897,4206.538,4176.282,4168.333,4182.9490000000005,4172.564,4167.821,4183.205,4155.128,4184.872,4197.0509999999995,0,0
509,93,0,3271,4197.436,4187.308,4186.795,4183.59,4221.538,4182.436,4177.821,4185.769,4171.795,4178.333,4186.923,4164.615,4185.385,4191.41,0,0
510,94,0,2957,4204.872,4196.41,4187.564,4186.923,4225.255999999999,4191.923,4188.974,4183.077,4174.359,4193.333,4185.513,4167.692,4187.436,4185.897,0,0
511,95,0,2842,4196.923,4191.667,4182.0509999999995,4183.205,4213.718,4186.538,4185.128,4178.462,4167.308,4179.359,4183.462,4164.487,4186.41,4183.205,0,0
512,96,0,2278,4198.333,4182.9490000000005,4184.103,4181.667,4214.103,4182.564,4180.641,4183.333,4165.769,4184.487,4190.0,4168.077,4186.923,4191.026,0,0
513,97,0,3271,4215.769,4192.821,4196.923,4183.974,4227.564,4191.41,4185.385,4188.846,4175.641,4210.513,4198.462,4179.359,4185.0,4205.769,0,0
514,98,0,2957,4229.872,4210.255999999999,4204.359,4193.205,4225.641,4192.179,4190.0,4187.436,4177.179,4197.821,4202.564,4192.564,4185.769,4214.359,0,0
515,99,0,2842,4232.821,4209.103,4204.615,4198.846,4218.59,4182.9490000000005,4190.385,4188.462,4168.846,4185.128,4202.821,4201.538,4195.897,4217.564,0,0
516,100,0,2278,4227.564,4194.231,4202.308,4191.026,4218.462,4183.462,4187.821,4187.308,4166.923,4201.923,4200.897,4200.128,4196.154,4219.359,0,0
517,101,0,3271,4228.205,4190.769,4202.179,4184.103,4217.821,4193.846,4186.026,4180.255999999999,4177.692,4204.487,4198.333,4197.0509999999995,4184.231,4217.436,0,0
518,102,0,2957,4233.846,4197.692,4209.487,4188.462,4220.769,4197.179,4185.128,4186.667,4187.179,4204.744000000001,4200.897,4200.255999999999,4188.59,4217.0509999999995,0,0
519,103,0,2842,4235.255999999999,4204.103,4213.846,4195.0,4226.795,4195.128,4190.0,4202.179,4188.462,4217.0509999999995,4202.564,4203.205,4201.923,4220.0,0,0
520,104,0,2278,4233.974,4206.026,4206.667,4192.9490000000005,4229.103,4195.385,4199.615,4206.667,4187.692,4210.897,4201.923,4200.255999999999,4200.255999999999,4216.282,0,0
521,105,0,3271,4232.436,4200.0,4201.026,4187.821,4227.9490000000005,4196.282,4200.897,4204.487,4196.667,4198.333,4208.974,4196.538,4196.923,4213.59,0,0
522,106,0,2957,4232.308,4198.846,4203.974,4187.564,4232.564,4197.308,4200.0,4205.897,4203.974,4203.077,4210.385,4198.974,4200.255999999999,4216.667,0,0
523,107,0,2842,4235.385,4204.487,4205.0,4189.487,4237.821,4194.359,4199.103,4207.436,4196.667,4207.0509999999995,4205.0,4204.744000000001,4199.359,4218.462,0,0
524,108,0,2278,4236.026,4206.923,4203.205,4188.718,4231.026,4188.59,4190.255999999999,4206.41,4198.462,4213.462,4206.41,4204.359,4198.205,4217.308,0,0
525,109,0,3271,4230.897,4202.821,4202.564,4187.436,4220.641,4191.667,4185.385,4205.513,4200.255999999999,4217.179,4213.718,4199.103,4200.385,4215.0,0,0
526,110,0,2957,4232.0509999999995,4200.513,4204.487,4187.436,4226.667,4200.641,4192.692,4201.538,4188.718,4200.385,4219.231,4200.385,4202.821,4215.897,0,0
527,111,0,2842,4235.769,4199.744000000001,4203.718,4186.026,4240.513,4198.718,4190.513,4189.359,4182.692,4197.692,4211.538,4199.872,4202.308,4216.795,0,0
528,112,0,2278,4230.769,4197.692,4198.974,4181.923,4233.077,4194.103,4183.462,4186.026,4192.564,4218.333,4201.154,4194.872,4202.564,4214.231,0,0
529,113,0,3271,4234.872,4210.0,4205.513,4186.667,4225.897,4198.846,4194.872,4206.282,4203.333,4224.103,4209.231,4199.615,4202.436,4217.692,0,0
530,114,0,2957,4244.872,4216.795,4212.692,4196.282,4233.974,4201.282,4204.615,4219.487,4201.026,4208.077,4218.59,4203.462,4194.615,4222.564,0,0
531,115,0,2842,4245.513,4205.385,4211.026,4189.359,4235.513,4198.974,4198.077,4213.077,4199.487,4207.179,4211.026,4200.641,4191.026,4223.077,0,0
532,116,0,2278,4247.308,4207.0509999999995,4214.231,4180.385,4231.282,4200.513,4197.308,4215.897,4204.231,4218.974,4213.462,4210.769,4201.41,4229.872,0,0
533,117,0,3271,4249.359,4216.667,4218.59,4191.538,4229.744000000001,4200.0,4202.564,4219.103,4202.9490000000005,4216.538,4220.641,4220.128,4206.282,4233.462,0,0
534,118,0,2957,4249.744000000001,4219.744000000001,4217.564,4202.308,4233.718,4198.59,4201.538,4216.154,4203.974,4217.436,4217.436,4218.205,4203.333,4230.385,0,0
535,119,0,2842,4260.0,4223.974,4219.231,4198.974,4233.846,4204.103,4201.538,4228.333,4213.205,4227.436,4227.436,4228.59,4212.9490000000005,4240.641,0,0
536,120,0,2278,4266.667,4226.667,4220.897,4195.385,4231.41,4204.744000000001,4206.026,4233.333,4211.667,4224.872,4233.846,4236.923,4219.487,4250.128,0,0
537,121,0,3271,4253.59,4219.103,4215.513,4196.026,4238.846,4195.513,4199.872,4216.795,4200.0,4216.41,4220.0,4223.205,4206.923,4239.744000000001,0,0
538,122,0,2957,4247.308,4218.205,4214.487,4197.692,4234.872,4191.538,4187.0509999999995,4211.154,4198.462,4219.231,4213.462,4211.923,4200.0,4231.282,0,0
539,123,0,2842,4257.179,4220.641,4215.897,4196.923,4215.128,4196.667,4186.538,4217.0509999999995,4202.179,4214.231,4218.846,4216.923,4203.333,4236.538,0,0
540,124,0,2278,4266.795,4224.487,4217.179,4197.179,4220.0,4201.795,4198.974,4217.0509999999995,4203.077,4217.692,4226.41,4228.718,4205.385,4248.333,0,0
541,125,0,3271,4268.205,4234.103,4221.923,4203.974,4244.231,4202.692,4200.255999999999,4219.615,4205.128,4242.9490000000005,4232.436,4233.718,4207.821,4255.513,0,0
542,126,0,2957,4253.462,4220.641,4216.538,4197.179,4241.538,4200.641,4185.897,4219.487,4202.308,4231.026,4223.718,4218.205,4207.436,4241.282,0,0
543,127,0,52,4243.077,4208.846,4209.231,4189.103,4229.872,4198.974,4188.077,4218.205,4200.0,4203.846,4212.692,4206.026,4207.0509999999995,4225.513,0,0
544,0,0,2157,4246.923,4223.974,4212.308,4197.821,4235.641,4201.41,4201.41,4225.513,4203.205,4221.41,4218.718,4216.026,4210.897,4231.667,0,0
545,1,0,1941,4242.0509999999995,4219.103,4209.872,4196.795,4238.846,4204.487,4193.59,4224.872,4198.205,4235.128,4219.359,4213.846,4205.769,4231.026,0,0
546,2,0,3384,4229.359,4198.205,4199.744000000001,4186.923,4231.795,4200.641,4181.41,4211.41,4189.231,4215.255999999999,4209.615,4198.077,4198.077,4215.385,0,0
547,3,0,3296,4228.846,4202.308,4200.641,4192.564,4225.0,4200.897,4192.0509999999995,4203.718,4191.667,4207.9490000000005,4212.9490000000005,4200.897,4205.641,4214.615,0,0
548,4,0,2735,4236.538,4212.692,4208.333,4203.974,4234.359,4212.436,4203.846,4202.179,4200.0,4221.538,4219.231,4208.333,4210.513,4224.487,0,0
549,5,0,2360,4236.923,4202.692,4205.641,4199.615,4247.821,4214.872,4196.41,4193.846,4199.103,4226.41,4213.077,4201.667,4202.308,4221.795,0,0
550,6,0,2333,4228.462,4196.026,4200.513,4190.0,4240.255999999999,4204.487,4188.462,4191.41,4193.846,4224.103,4211.026,4198.462,4200.769,4216.41,0,0
551,7,0,2912,4218.205,4201.026,4200.897,4187.692,4226.538,4204.103,4188.974,4199.744000000001,4197.9490000000005,4226.282,4213.205,4199.103,4205.897,4214.231,0,0
552,8,0,2363,4214.615,4198.718,4200.255999999999,4188.59,4229.615,4206.667,4189.231,4200.255999999999,4200.769,4226.282,4206.026,4189.744000000001,4204.231,4207.9490000000005,0,0
553,9,0,3494,4212.564,4191.282,4197.179,4187.564,4234.231,4198.846,4184.231,4193.59,4192.308,4216.667,4197.564,4182.564,4198.462,4200.641,0,0
554,10,0,2957,4210.897,4189.615,4197.692,4184.103,4231.026,4198.718,4182.0509999999995,4196.026,4191.282,4207.821,4203.974,4189.487,4199.487,4203.846,0,0
555,11,0,2845,4211.923,4191.282,4199.231,4186.282,4232.0509999999995,4205.769,4185.513,4202.692,4199.872,4220.897,4212.0509999999995,4193.846,4205.897,4211.923,0,0
556,12,0,2278,4206.41,4186.795,4193.846,4185.769,4232.436,4203.333,4186.923,4201.41,4199.615,4220.641,4204.615,4186.538,4203.974,4207.308,0,0
557,13,0,3272,4201.154,4182.821,4193.077,4182.179,4231.41,4205.513,4191.282,4206.667,4196.795,4200.255999999999,4197.9490000000005,4182.692,4201.026,4199.103,0,0
558,14,0,2957,4203.718,4188.462,4196.667,4185.641,4230.897,4215.128,4197.564,4217.564,4202.692,4206.154,4202.692,4187.308,4207.0509999999995,4202.692,0,0
559,15,0,2845,4203.333,4189.231,4196.41,4187.692,4226.41,4208.974,4192.9490000000005,4214.487,4201.923,4223.59,4202.9490000000005,4185.641,4208.333,4204.744000000001,0,0
560,16,0,0,4200.255999999999,4180.769,4195.128,4183.077,4224.744000000001,4196.026,4185.769,4203.59,4193.846,4219.231,4197.9490000000005,4181.538,4200.897,4201.538,0,0
561,17,0,0,4195.641,4170.897,4193.462,4177.308,4228.59,4198.59,4184.231,4200.641,4196.41,4205.0,4202.821,4182.821,4200.513,4200.385,0,0
562,18,0,0,4184.615,4165.641,4186.154,4172.0509999999995,4233.333,4205.641,4181.795,4202.308,4200.255999999999,4203.462,4199.231,4175.769,4202.179,4191.795,0,0
563,19,0,0,4180.513,4172.821,4183.333,4175.641,4228.462,4202.0509999999995,4181.026,4203.077,4196.795,4200.0,4189.359,4166.154,4200.385,4186.795,0,0
564,20,0,0,4188.59,4175.897,4188.846,4181.41,4217.821,4197.692,4182.179,4204.487,4196.41,4194.359,4198.974,4172.308,4204.615,4201.795,0,0
565,21,0,0,4188.59,4162.564,4186.282,4176.154,4217.564,4198.333,4173.59,4201.538,4197.0509999999995,4206.282,4198.974,4175.385,4203.59,4201.154,0,0
566,22,0,0,4180.255999999999,4158.077,4181.923,4175.513,4222.308,4199.103,4166.026,4196.538,4189.744000000001,4217.308,4185.0,4167.436,4201.667,4185.0,0,0
567,23,0,0,4180.385,4167.821,4185.641,4180.897,4221.538,4199.103,4174.744000000001,4197.179,4183.718,4207.436,4190.513,4168.077,4211.795,4188.974,0,0
568,24,0,0,4186.282,4172.821,4189.359,4177.179,4221.667,4198.077,4183.59,4198.205,4186.282,4192.9490000000005,4201.538,4173.333,4211.282,4198.846,0,0
569,25,0,0,4184.744000000001,4168.974,4188.846,4174.872,4226.154,4198.718,4182.564,4196.538,4188.077,4195.897,4195.513,4170.769,4199.231,4195.641,0,0
570,26,0,0,4182.179,4167.0509999999995,4188.333,4182.821,4230.255999999999,4203.974,4182.9490000000005,4198.333,4191.538,4205.0,4191.154,4171.923,4199.872,4194.615,0,0
571,27,0,0,4189.487,4177.692,4193.333,4185.641,4231.154,4206.154,4187.0509999999995,4204.487,4195.513,4207.821,4197.564,4180.897,4206.154,4201.282,0,0
572,28,0,0,4191.154,4184.231,4194.487,4185.128,4220.255999999999,4200.128,4185.897,4207.0509999999995,4191.154,4196.795,4200.128,4184.615,4202.179,4202.821,0,0
573,29,0,0,4185.255999999999,4175.255999999999,4189.744000000001,4185.0,4214.487,4196.282,4180.897,4202.179,4185.128,4201.795,4199.872,4182.179,4200.513,4203.077,0,0
574,30,0,0,4189.872,4173.205,4192.692,4182.821,4220.897,4202.308,4182.436,4201.795,4186.41,4220.255999999999,4201.667,4184.487,4204.103,4207.692,0,0
575,31,0,0,4196.667,4185.385,4197.179,4188.077,4222.308,4206.026,4185.897,4204.615,4188.59,4202.692,4202.308,4185.897,4202.564,4207.179,0,0
576,32,0,0,4189.615,4182.564,4189.872,4186.154,4222.179,4200.255999999999,4179.872,4199.231,4183.59,4186.41,4201.41,4176.795,4200.641,4202.179,0,0
577,33,0,0,4177.821,4164.359,4181.923,4171.667,4224.359,4196.41,4171.41,4197.821,4179.744000000001,4206.923,4196.538,4168.333,4201.154,4195.897,0,0
578,34,0,0,4171.026,4160.513,4183.846,4170.513,4216.282,4200.513,4169.487,4202.692,4184.103,4215.0,4191.538,4170.769,4201.026,4188.718,0,0
579,35,0,0,4167.692,4172.179,4185.255999999999,4180.0,4211.282,4203.077,4172.564,4196.026,4187.692,4190.769,4190.769,4170.769,4200.641,4185.513,0,0
580,36,0,0,4174.231,4184.231,4185.0,4183.846,4217.564,4201.923,4178.974,4191.538,4184.359,4178.333,4200.0,4171.026,4200.513,4194.231,0,0
581,37,0,0,4182.9490000000005,4179.744000000001,4188.846,4182.692,4214.872,4202.692,4185.0,4200.641,4183.59,4191.282,4202.821,4178.974,4202.564,4201.282,0,0
582,38,0,0,4184.359,4172.692,4193.462,4183.205,4212.0509999999995,4202.821,4185.897,4202.9490000000005,4187.821,4204.103,4191.026,4184.359,4208.974,4197.436,0,0
583,39,0,0,4190.769,4184.103,4199.487,4185.897,4225.897,4202.564,4185.513,4200.255999999999,4187.0509999999995,4207.692,4190.769,4183.846,4214.872,4199.359,0,0
584,40,0,0,4201.41,4193.077,4201.923,4188.077,4234.231,4205.769,4188.333,4199.359,4182.9490000000005,4206.154,4200.128,4183.974,4216.795,4203.846,0,0
585,41,0,0,4203.077,4189.872,4198.59,4188.974,4224.359,4204.744000000001,4184.487,4188.974,4182.9490000000005,4201.923,4199.872,4183.718,4214.615,4202.308,0,0
586,42,0,0,4198.462,4185.513,4196.282,4188.205,4215.769,4199.103,4173.974,4180.255999999999,4184.359,4190.128,4197.308,4182.821,4207.308,4202.308,0,0
587,43,0,0,4200.128,4188.077,4198.59,4188.846,4218.974,4198.462,4169.872,4184.872,4181.667,4187.308,4201.538,4186.026,4199.615,4203.974,0,0
588,44,0,0,4201.282,4190.513,4200.769,4188.205,4220.255999999999,4200.769,4172.436,4190.255999999999,4181.154,4201.282,4202.9490000000005,4188.59,4199.359,4202.308,0,0
589,45,0,0,4194.615,4180.769,4198.59,4184.744000000001,4216.41,4199.615,4174.103,4194.231,4184.872,4199.744000000001,4198.974,4186.667,4201.667,4201.795,0,0
590,46,0,0,4191.282,4170.128,4196.282,4183.077,4215.897,4197.564,4171.538,4197.308,4185.641,4184.359,4199.231,4185.385,4198.846,4202.564,0,0
591,47,0,0,4198.462,4176.795,4200.641,4184.359,4213.077,4197.821,4169.872,4198.077,4182.692,4187.9490000000005,4202.9490000000005,4188.846,4196.538,4203.205,0,0
592,48,0,0,4201.795,4190.128,4200.255999999999,4188.974,4212.564,4198.205,4172.308,4198.205,4184.872,4197.9490000000005,4204.872,4190.641,4199.359,4207.308,0,0
593,49,0,0,4184.487,4180.128,4188.462,4183.846,4214.744000000001,4195.897,4172.9490000000005,4190.385,4184.744000000001,4188.846,4196.026,4181.538,4200.128,4200.385,0,0
594,50,0,0,4170.641,4167.0509999999995,4182.179,4172.692,4208.846,4185.513,4171.538,4184.487,4175.513,4178.974,4187.179,4171.154,4191.538,4188.333,0,0
595,51,0,0,4177.9490000000005,4176.026,4186.41,4173.718,4200.128,4178.846,4171.154,4191.795,4169.744000000001,4183.846,4188.462,4170.769,4185.641,4192.9490000000005,0,0
596,52,0,0,4183.718,4178.077,4186.41,4176.667,4202.0509999999995,4187.9490000000005,4170.897,4194.231,4168.59,4187.308,4189.359,4173.077,4191.41,4196.667,0,0
597,53,0,0,4180.641,4174.487,4185.385,4176.667,4210.513,4196.795,4170.769,4182.564,4169.103,4187.9490000000005,4186.538,4170.897,4196.923,4190.385,0,0
598,54,0,0,4184.872,4180.385,4189.872,4181.154,4210.255999999999,4192.308,4173.59,4174.231,4170.255999999999,4179.872,4186.026,4170.513,4197.436,4194.359,0,0
599,55,0,0,4189.615,4178.974,4191.923,4182.692,4203.59,4187.308,4173.846,4179.103,4170.641,4175.513,4187.0509999999995,4177.179,4198.974,4201.282,0,0
600,56,0,0,4184.615,4169.872,4188.718,4172.821,4202.9490000000005,4189.615,4169.872,4192.308,4175.255999999999,4197.564,4190.255999999999,4182.0509999999995,4200.513,4196.795,0,0
601,57,0,0,4182.692,4172.308,4187.436,4169.872,4205.0,4192.436,4173.718,4197.692,4184.359,4207.179,4196.923,4182.0509999999995,4203.333,4197.179,0,0
602,58,0,0,4188.718,4183.077,4194.231,4178.333,4203.205,4195.641,4179.615,4193.077,4186.026,4193.205,4201.154,4183.077,4207.9490000000005,4202.564,0,0
603,59,0,0,4190.641,4182.9490000000005,4198.846,4181.026,4201.538,4196.154,4174.359,4195.641,4179.487,4195.128,4202.436,4184.615,4209.103,4199.872,0,0
604,60,0,0,4186.538,4176.667,4191.154,4182.436,4204.872,4190.385,4168.59,4198.718,4182.821,4207.9490000000005,4202.564,4178.59,4211.41,4199.744000000001,0,0
605,61,0,0,4186.154,4174.872,4184.615,4181.667,4207.821,4187.821,4171.026,4189.744000000001,4186.154,4205.0,4198.077,4170.513,4213.846,4198.59,0,0
606,62,0,0,4188.59,4176.538,4187.9490000000005,4176.026,4209.359,4188.59,4173.462,4183.462,4175.513,4193.333,4198.333,4171.538,4207.692,4190.641,0,0
607,63,0,0,4184.744000000001,4173.462,4186.667,4171.795,4207.0509999999995,4183.333,4169.615,4180.513,4164.744000000001,4186.667,4200.255999999999,4168.462,4197.9490000000005,4183.718,0,0
608,64,0,2157,4181.667,4168.205,4181.923,4172.179,4199.231,4181.282,4166.154,4179.487,4168.333,4197.564,4194.615,4160.641,4197.564,4183.718,0,0
609,65,0,1941,4186.154,4174.872,4186.154,4179.487,4196.795,4190.0,4166.282,4180.128,4175.0,4209.103,4193.846,4165.513,4202.564,4186.282,0,0
610,66,0,3384,4187.436,4178.846,4187.179,4183.974,4207.0509999999995,4187.9490000000005,4165.385,4175.128,4169.487,4194.744000000001,4196.282,4168.974,4200.0,4186.667,0,0
611,67,0,3291,4182.692,4171.538,4183.718,4178.077,4212.0509999999995,4181.795,4166.282,4174.872,4165.255999999999,4181.667,4192.821,4160.0,4196.282,4184.872,0,0
612,68,0,2728,4181.154,4166.026,4185.513,4170.0,4203.846,4190.641,4168.205,4182.564,4172.308,4183.974,4188.333,4158.205,4194.615,4180.769,0,0
613,69,0,2364,4183.846,4168.59,4185.769,4172.692,4199.359,4196.923,4170.0,4184.359,4176.795,4194.103,4187.0509999999995,4166.538,4196.282,4180.385,0,0
614,70,0,2333,4186.795,4172.564,4187.179,4174.359,4204.615,4187.0509999999995,4173.462,4183.462,4172.564,4202.692,4192.9490000000005,4170.0,4199.872,4186.538,0,0
615,71,0,2908,4189.615,4170.897,4191.41,4170.128,4205.385,4184.872,4174.615,4183.59,4168.59,4194.615,4200.255999999999,4170.641,4195.385,4190.513,0,0
616,72,0,2365,4195.255999999999,4176.282,4190.255999999999,4175.128,4202.436,4196.923,4174.615,4177.0509999999995,4170.513,4187.308,4194.615,4172.308,4190.897,4190.769,0,0
617,73,0,3473,4199.615,4183.59,4188.846,4181.795,4205.897,4197.436,4176.538,4171.538,4170.769,4190.513,4183.846,4171.41,4195.128,4194.872,0,0
618,74,0,2950,4201.154,4186.41,4198.205,4183.077,4215.513,4187.0509999999995,4174.872,4174.359,4167.821,4187.179,4193.718,4178.077,4204.487,4202.821,0,0
619,75,0,2845,4202.436,4190.385,4202.436,4186.41,4219.872,4181.282,4169.231,4171.538,4169.487,4186.154,4200.255999999999,4185.513,4202.179,4203.974,0,0
620,76,0,2280,4202.308,4181.795,4192.308,4184.487,4205.513,4184.487,4167.821,4167.9490000000005,4170.255999999999,4198.077,4187.821,4179.103,4188.59,4200.0,0,0
621,77,0,3274,4197.179,4169.487,4188.462,4178.077,4195.255999999999,4196.538,4173.974,4178.846,4170.0,4205.769,4189.487,4177.308,4190.0,4200.769,0,0
622,78,0,2950,4189.487,4178.333,4190.641,4181.667,4206.41,4200.385,4177.9490000000005,4192.564,4175.0,4199.615,4201.026,4184.231,4201.026,4198.59,0,0
623,79,0,2845,4185.897,4186.538,4187.308,4183.718,4209.103,4188.974,4177.0509999999995,4183.462,4173.077,4177.9490000000005,4194.231,4178.462,4196.41,4188.205,0,0
624,80,0,2280,4186.154,4174.872,4183.462,4173.333,4196.795,4186.41,4175.385,4169.744000000001,4165.385,4168.333,4179.487,4164.231,4182.692,4181.282,0,0
625,81,0,3274,4187.308,4168.077,4183.974,4166.795,4194.872,4198.718,4176.41,4180.769,4168.205,4183.333,4189.487,4166.282,4188.205,4185.385,0,0
626,82,0,2950,4187.564,4170.513,4184.231,4171.923,4202.0509999999995,4195.128,4174.615,4184.872,4174.359,4189.103,4200.385,4171.538,4194.615,4186.282,0,0
627,83,0,2845,4192.692,4175.513,4184.103,4181.154,4207.308,4181.026,4168.718,4171.026,4167.179,4184.744000000001,4191.026,4165.641,4189.487,4182.821,0,0
628,84,0,2280,4200.641,4183.205,4188.59,4184.615,4203.718,4186.795,4170.0,4171.538,4166.41,4194.872,4190.769,4170.128,4196.154,4192.564,0,0
629,85,0,3274,4200.769,4184.744000000001,4189.615,4182.179,4187.692,4192.564,4173.077,4180.641,4180.255999999999,4204.487,4200.641,4181.923,4201.026,4203.077,0,0
630,86,0,2950,4199.615,4182.9490000000005,4187.821,4183.077,4185.128,4180.769,4170.641,4183.846,4176.538,4202.308,4202.821,4186.41,4192.692,4202.179,0,0
631,87,0,2845,4198.333,4180.897,4188.846,4182.308,4199.231,4180.897,4171.026,4187.9490000000005,4165.128,4202.179,4198.974,4185.128,4189.231,4199.103,0,0
632,88,0,2280,4190.0,4172.692,4189.231,4172.564,4191.923,4195.769,4173.462,4188.077,4176.026,4199.744000000001,4194.872,4178.846,4192.564,4196.026,0,0
633,89,0,3274,4183.462,4165.641,4186.923,4169.231,4181.026,4193.462,4173.846,4182.436,4185.513,4194.103,4188.077,4172.308,4188.333,4190.0,0,0
634,90,0,2950,4186.667,4172.436,4186.282,4174.487,4190.897,4182.436,4173.59,4184.615,4171.923,4182.179,4186.795,4172.436,4182.308,4186.923,0,0
635,91,0,2845,4185.255999999999,4177.821,4186.538,4174.231,4190.128,4188.59,4173.718,4187.9490000000005,4165.128,4173.462,4189.103,4170.513,4184.744000000001,4186.282,0,0
636,92,0,2280,4175.0,4175.769,4184.359,4173.333,4177.179,4194.615,4171.282,4184.231,4173.205,4179.359,4187.436,4159.615,4184.872,4181.795,0,0
637,93,0,3274,4171.538,4175.769,4183.077,4175.897,4182.179,4189.744000000001,4170.513,4184.231,4174.231,4187.9490000000005,4187.9490000000005,4156.154,4184.487,4181.41,0,0
638,94,0,2950,4174.872,4177.821,4182.436,4174.359,4191.667,4185.641,4170.128,4183.462,4169.487,4188.846,4184.359,4158.462,4185.0,4181.795,0,0
639,95,0,2845,4174.487,4180.513,4182.179,4173.077,4179.872,4181.026,4166.795,4179.359,4165.128,4176.282,4181.41,4156.026,4183.846,4180.255999999999,0,0
640,96,0,2280,4173.846,4180.513,4183.077,4176.923,4166.538,4181.026,4166.154,4183.205,4165.769,4171.41,4186.282,4155.0,4185.769,4182.9490000000005,0,0
641,97,0,3274,4178.077,4178.974,4183.59,4175.513,4176.282,4186.795,4168.718,4184.359,4170.897,4180.769,4187.564,4157.436,4188.59,4186.282,0,0
642,98,0,2950,4177.308,4180.128,4182.9490000000005,4171.41,4190.769,4185.385,4166.538,4173.59,4167.9490000000005,4179.103,4182.0509999999995,4156.026,4184.615,4185.513,0,0
643,99,0,2845,4172.564,4184.744000000001,4182.308,4175.641,4181.667,4182.308,4168.077,4172.9490000000005,4164.615,4170.255999999999,4179.872,4154.231,4179.231,4181.667,0,0
644,100,0,2280,4173.846,4179.359,4185.641,4177.821,4164.359,4187.308,4174.744000000001,4184.231,4169.487,4169.103,4183.59,4155.128,4182.692,4177.821,0,0
645,101,0,3274,4168.205,4162.179,4184.231,4171.282,4167.9490000000005,4188.077,4175.897,4185.255999999999,4170.897,4169.615,4183.974,4148.333,4188.077,4173.333,0,0
646,102,0,2950,4153.718,4160.0,4173.59,4167.821,4177.9490000000005,4184.487,4176.41,4179.872,4167.9490000000005,4173.718,4173.077,4136.538,4186.795,4167.436,0,0
647,103,0,2845,4152.564,4170.385,4168.077,4171.026,4170.897,4188.974,4178.462,4182.692,4170.641,4183.846,4168.59,4136.026,4185.641,4165.897,0,0
648,104,0,2280,4158.718,4172.0509999999995,4172.564,4170.769,4168.718,4186.41,4171.923,4186.026,4173.59,4175.128,4179.359,4142.179,4186.923,4168.59,0,0
649,105,0,3274,4154.872,4163.59,4173.077,4166.026,4177.0509999999995,4170.897,4162.692,4183.205,4169.359,4160.641,4180.897,4139.744000000001,4185.641,4169.487,0,0
650,106,0,2950,4158.205,4162.564,4169.615,4166.795,4175.769,4171.026,4166.154,4183.974,4165.255999999999,4170.385,4176.282,4141.538,4185.769,4169.359,0,0
651,107,0,2845,4166.282,4171.538,4170.769,4171.795,4165.513,4185.513,4172.0509999999995,4189.103,4167.179,4173.462,4184.103,4152.821,4188.59,4171.795,0,0
652,108,0,2280,4159.615,4169.359,4171.667,4171.026,4158.846,4184.103,4166.282,4184.615,4164.231,4155.128,4185.0,4152.308,4183.59,4170.385,0,0
653,109,0,3274,4150.513,4155.641,4169.872,4165.513,4158.205,4173.077,4162.308,4172.436,4156.923,4147.9490000000005,4172.9490000000005,4138.974,4172.308,4160.769,0,0
654,110,0,2950,4150.897,4155.641,4166.026,4165.128,4162.692,4172.821,4165.0,4169.103,4152.9490000000005,4154.231,4167.9490000000005,4132.436,4167.436,4153.462,0,0
655,111,0,2845,4157.308,4169.359,4168.333,4169.487,4166.795,4176.41,4167.692,4166.795,4153.974,4157.0509999999995,4171.282,4142.0509999999995,4174.615,4160.255999999999,0,0
656,112,0,2280,4164.615,4173.846,4177.821,4171.795,4169.231,4174.487,4168.205,4164.487,4161.282,4164.359,4179.231,4153.974,4184.872,4172.179,0,0
657,113,0,3274,4166.667,4164.744000000001,4177.179,4170.0,4166.538,4172.821,4168.974,4175.255999999999,4169.103,4173.718,4182.436,4151.154,4187.179,4174.231,0,0
658,114,0,2950,4163.974,4165.128,4169.487,4169.872,4157.308,4177.308,4168.846,4188.205,4168.59,4170.769,4173.59,4141.923,4183.462,4167.308,0,0
659,115,0,2845,4170.385,4182.308,4175.641,4175.385,4155.641,4185.255999999999,4170.128,4195.255999999999,4169.615,4164.615,4173.077,4146.282,4183.846,4168.846,0,0
660,116,0,2280,4178.462,4184.615,4187.0509999999995,4176.41,4168.333,4186.154,4171.795,4200.513,4175.641,4166.154,4183.333,4156.282,4188.718,4178.205,0,0
661,117,0,3274,4176.667,4171.154,4187.0509999999995,4172.436,4173.718,4182.692,4172.564,4203.077,4175.0,4175.0,4187.436,4158.077,4189.615,4179.615,0,0
662,118,0,2950,4173.59,4172.564,4184.103,4176.795,4168.846,4184.231,4174.231,4198.974,4172.179,4189.615,4183.718,4156.795,4186.795,4174.872,0,0
663,119,0,2845,4171.154,4183.846,4184.103,4183.333,4164.615,4186.154,4177.308,4191.154,4171.923,4186.795,4182.564,4156.026,4185.641,4176.538,0,0
664,120,0,2280,4171.41,4185.255999999999,4184.103,4184.231,4174.744000000001,4182.436,4177.0509999999995,4184.231,4168.333,4165.769,4190.641,4159.615,4184.615,4184.615,0,0
665,121,0,3274,4174.487,4182.692,4185.255999999999,4185.385,4186.795,4185.769,4173.974,4182.179,4168.205,4160.255999999999,4197.821,4169.231,4184.103,4186.282,0,0
666,122,0,2950,4174.103,4178.59,4185.0,4181.667,4172.9490000000005,4194.744000000001,4172.9490000000005,4185.0,4172.821,4178.333,4190.0,4170.255999999999,4187.179,4183.462,0,0
667,123,0,2845,4170.641,4173.077,4183.59,4176.282,4156.667,4194.487,4173.59,4186.282,4171.923,4199.872,4182.0509999999995,4160.0,4188.333,4183.846,0,0
668,124,0,2280,4169.615,4175.128,4183.462,4179.359,4167.0509999999995,4188.462,4172.436,4186.538,4169.744000000001,4188.846,4185.513,4155.385,4185.385,4181.026,0,0
669,125,0,3274,4173.718,4175.0,4184.872,4181.667,4175.769,4187.9490000000005,4170.513,4187.564,4171.923,4161.667,4183.846,4157.179,4184.231,4176.282,0,0
670,126,0,2950,4174.103,4166.923,4184.487,4173.59,4162.821,4187.564,4171.026,4186.026,4168.205,4166.282,4180.385,4155.128,4182.564,4171.538,0,0
671,127,0,52,4171.923,4163.205,4183.846,4169.359,4158.333,4187.821,4171.41,4185.385,4168.333,4178.333,4182.308,4154.744000000001,4182.179,4170.641,0,0
672,0,0,2155,4176.538,4173.59,4186.282,4178.59,4163.974,4191.154,4170.897,4181.667,4173.59,4170.897,4180.897,4155.641,4185.128,4175.897,0,0
673,1,0,1934,4184.103,4182.564,4187.692,4185.385,4164.359,4189.103,4171.538,4171.795,4163.974,4166.538,4182.564,4159.231,4183.718,4181.795,0,0
674,2,0,3378,4185.0,4173.974,4186.41,4182.564,4165.0,4190.769,4172.9490000000005,4171.41,4156.026,4168.718,4186.667,4164.359,4180.0,4183.59,0,0
675,3,0,3270,4184.615,4172.564,4188.462,4181.795,4170.513,4187.0509999999995,4179.103,4183.59,4167.0509999999995,4174.744000000001,4185.897,4162.436,4183.846,4184.231,0,0
676,4,0,2739,4188.077,4186.923,4190.897,4186.923,4171.795,4166.41,4183.59,4186.026,4173.974,4191.923,4184.359,4158.974,4192.821,4183.462,0,0
677,5,0,2360,4187.308,4184.231,4187.308,4182.564,4159.487,4150.128,4183.59,4181.41,4173.718,4189.103,4183.846,4163.846,4196.026,4181.795,0,0
678,6,0,2334,4184.487,4169.231,4185.255999999999,4173.59,4159.487,4149.487,4182.821,4191.923,4182.0509999999995,4176.026,4190.385,4170.128,4192.308,4185.641,0,0
679,7,0,2910,4181.41,4171.41,4187.564,4176.538,4169.615,4160.769,4184.615,4205.769,4186.667,4183.462,4200.255999999999,4167.564,4189.615,4186.41,0,0
680,8,0,2359,4172.821,4173.333,4184.359,4177.0509999999995,4162.564,4169.872,4186.154,4205.513,4183.846,4180.128,4190.128,4158.718,4190.0,4173.462,0,0
681,9,0,3477,4165.513,4162.0509999999995,4179.872,4168.59,4150.385,4162.821,4179.744000000001,4202.821,4181.795,4174.744000000001,4171.795,4151.923,4187.821,4166.026,0,0
682,10,0,2951,4168.205,4168.59,4183.205,4170.897,4151.795,4153.205,4172.436,4200.385,4174.487,4181.795,4176.923,4156.667,4183.462,4175.255999999999,0,0
683,11,0,2840,4178.205,4184.872,4187.564,4183.077,4160.513,4161.282,4176.667,4199.487,4169.487,4169.103,4188.205,4168.205,4183.333,4182.9490000000005,0,0
684,12,0,2273,4186.41,4180.0,4186.538,4186.026,4161.41,4166.282,4185.769,4203.077,4170.385,4165.641,4186.538,4171.667,4184.872,4185.641,0,0
685,13,0,3271,4181.795,4166.026,4185.385,4179.487,4158.974,4156.538,4184.744000000001,4198.333,4168.462,4189.103,4186.795,4171.41,4185.385,4184.615,0,0
686,14,0,2951,4173.205,4166.923,4186.923,4177.692,4156.41,4153.462,4182.0509999999995,4189.744000000001,4165.641,4179.231,4188.59,4172.0509999999995,4183.846,4178.077,0,0
687,15,0,2840,4180.513,4175.0,4187.9490000000005,4183.205,4157.9490000000005,4156.923,4187.179,4197.9490000000005,4166.41,4166.795,4186.538,4172.692,4184.103,4179.872,0,0
688,16,0,0,4185.769,4172.821,4186.667,4183.974,4156.795,4154.487,4183.205,4202.179,4168.462,4189.359,4185.385,4171.538,4186.795,4184.359,0,0
689,17,0,0,4173.846,4168.846,4185.0,4175.769,4153.59,4151.41,4170.255999999999,4188.205,4170.769,4179.103,4187.0509999999995,4169.744000000001,4185.128,4177.179,0,0
690,18,0,0,4166.41,4168.846,4184.231,4170.897,4155.769,4161.154,4168.59,4183.974,4172.179,4153.974,4186.282,4165.897,4182.436,4168.59,0,0
691,19,0,0,4170.255999999999,4167.436,4182.821,4171.154,4158.205,4168.59,4172.436,4190.128,4172.436,4172.0509999999995,4176.154,4158.077,4180.255999999999,4170.255999999999,0,0
692,20,0,0,4169.231,4164.744000000001,4182.564,4172.564,4163.974,4159.872,4170.769,4190.769,4171.026,4175.769,4168.59,4152.9490000000005,4179.744000000001,4170.0,0,0
693,21,0,0,4166.538,4167.692,4184.744000000001,4178.59,4165.769,4157.692,4174.744000000001,4195.513,4166.795,4152.436,4176.538,4157.308,4180.897,4168.077,0,0
694,22,0,0,4174.615,4174.231,4185.255999999999,4185.897,4161.41,4167.692,4184.744000000001,4203.59,4171.154,4177.0509999999995,4185.0,4166.282,4186.026,4174.615,0,0
695,23,0,0,4184.872,4173.59,4185.641,4186.282,4159.103,4170.128,4185.128,4204.231,4184.231,4209.359,4186.923,4173.846,4193.846,4185.255999999999,0,0
696,24,0,0,4182.692,4170.897,4188.846,4181.282,4164.231,4165.255999999999,4176.667,4201.538,4186.154,4188.462,4189.103,4173.077,4192.692,4187.436,0,0
697,25,0,0,4172.564,4170.0,4186.667,4175.0,4166.667,4161.41,4170.385,4193.462,4167.821,4162.436,4183.462,4161.923,4181.282,4176.282,0,0
698,26,0,0,4168.718,4170.385,4174.615,4173.59,4158.718,4156.154,4167.564,4177.436,4152.821,4165.0,4177.179,4152.564,4176.667,4168.974,0,0
699,27,0,0,4168.462,4172.821,4170.769,4177.0509999999995,4159.615,4155.0,4166.667,4170.897,4160.641,4173.974,4180.255999999999,4148.718,4180.641,4169.615,0,0
700,28,0,0,4166.026,4174.359,4177.821,4176.154,4168.333,4159.103,4165.769,4179.231,4169.103,4174.231,4183.205,4148.333,4181.026,4170.255999999999,0,0
701,29,0,0,4169.744000000001,4175.513,4177.9490000000005,4171.41,4165.385,4158.077,4166.795,4185.513,4166.667,4170.769,4187.0509999999995,4153.205,4180.513,4172.821,0,0
702,30,0,0,4169.231,4176.282,4171.538,4171.923,4151.154,4154.744000000001,4169.103,4183.718,4166.026,4168.974,4186.923,4155.769,4185.385,4173.205,0,0
703,31,0,0,4158.462,4172.821,4170.513,4173.205,4150.769,4160.0,4169.359,4183.462,4163.974,4170.128,4176.538,4152.0509999999995,4185.255999999999,4169.487,0,0
704,32,0,0,4155.385,4168.846,4171.282,4171.41,4159.231,4170.0,4169.872,4181.154,4160.128,4176.667,4172.0509999999995,4148.846,4178.59,4165.255999999999,0,0
705,33,0,0,4157.308,4170.0,4168.846,4170.769,4158.205,4172.308,4171.538,4179.744000000001,4165.255999999999,4174.103,4174.103,4144.872,4177.821,4160.0,0,0
706,34,0,0,4153.718,4165.385,4166.154,4170.128,4156.538,4163.333,4171.538,4182.821,4170.897,4153.846,4169.487,4138.59,4181.154,4153.205,0,0
707,35,0,0,4151.538,4158.846,4166.667,4168.59,4155.513,4159.103,4169.231,4177.0509999999995,4167.692,4153.718,4170.385,4138.077,4181.154,4154.487,0,0
708,36,0,0,4153.974,4162.9490000000005,4168.333,4169.615,4154.615,4164.744000000001,4166.154,4166.41,4168.846,4177.9490000000005,4177.0509999999995,4139.744000000001,4181.538,4162.179,0,0
709,37,0,0,4160.255999999999,4169.487,4171.41,4172.436,4156.282,4168.846,4166.41,4166.154,4166.282,4178.205,4179.615,4143.846,4182.692,4165.128,0,0
710,38,0,0,4169.744000000001,4171.923,4176.154,4173.59,4157.692,4166.795,4167.436,4170.128,4158.077,4164.231,4183.718,4153.974,4181.667,4170.385,0,0
711,39,0,0,4173.718,4175.769,4181.026,4173.333,4157.308,4165.769,4165.255999999999,4166.795,4156.795,4165.641,4184.615,4158.077,4182.436,4177.9490000000005,0,0
712,40,0,0,4170.641,4173.718,4184.231,4172.0509999999995,4157.179,4166.923,4167.179,4166.795,4155.897,4166.026,4183.077,4155.769,4181.923,4178.974,0,0
713,41,0,0,4170.385,4166.154,4182.821,4170.641,4158.59,4168.59,4168.59,4169.103,4155.255999999999,4165.128,4183.205,4157.436,4175.513,4175.255999999999,0,0
714,42,0,0,4169.359,4168.974,4175.128,4172.436,4158.846,4167.9490000000005,4158.59,4159.487,4155.0,4174.231,4174.744000000001,4156.154,4168.718,4172.436,0,0
715,43,0,0,4161.795,4171.923,4169.103,4173.718,4158.846,4159.744000000001,4153.974,4151.667,4153.462,4168.718,4168.846,4150.255999999999,4170.385,4170.0,0,0
716,44,0,0,4159.103,4165.385,4169.103,4170.897,4158.077,4159.231,4165.641,4161.795,4160.385,4155.128,4173.846,4150.641,4179.487,4168.077,0,0
717,45,0,0,4164.615,4165.641,4169.359,4168.974,4154.872,4168.846,4169.487,4172.821,4166.538,4164.231,4172.308,4154.359,4181.026,4167.308,0,0
718,46,0,0,4168.974,4175.0,4170.0,4172.564,4156.923,4165.897,4157.436,4165.0,4158.59,4182.179,4174.231,4154.744000000001,4178.205,4166.538,0,0
719,47,0,0,4165.255999999999,4172.179,4171.41,4171.538,4160.641,4158.077,4152.436,4159.872,4151.282,4180.255999999999,4180.385,4151.923,4178.974,4165.255999999999,0,0
720,48,0,0,4164.615,4167.436,4170.769,4169.231,4157.564,4164.615,4161.026,4167.564,4158.077,4166.154,4177.308,4154.359,4178.59,4166.41,0,0
721,49,0,0,4177.179,4178.333,4177.564,4177.9490000000005,4154.872,4171.41,4169.231,4173.846,4165.769,4175.641,4181.026,4165.385,4185.513,4176.026,0,0
722,50,0,0,4187.0509999999995,4182.436,4186.538,4180.769,4160.128,4168.205,4169.359,4173.718,4169.872,4192.436,4191.41,4173.077,4197.821,4183.077,0,0
723,51,0,0,4183.846,4173.205,4184.103,4174.872,4168.205,4167.821,4167.821,4170.385,4172.179,4189.103,4187.564,4168.718,4192.9490000000005,4179.103,0,0
724,52,0,0,4180.769,4177.0509999999995,4181.795,4178.462,4173.205,4172.179,4171.026,4169.487,4171.923,4194.487,4184.103,4165.769,4183.718,4181.026,0,0
725,53,0,0,4187.0509999999995,4190.769,4186.923,4187.564,4173.462,4173.846,4174.103,4173.333,4173.077,4203.846,4191.026,4171.667,4194.872,4189.487,0,0
726,54,0,0,4189.872,4188.974,4189.359,4187.9490000000005,4171.538,4170.513,4172.0509999999995,4175.641,4172.692,4193.718,4189.231,4169.103,4204.359,4187.179,0,0
727,55,0,0,4183.462,4178.462,4185.128,4182.436,4168.205,4168.205,4169.615,4173.59,4170.128,4181.923,4182.308,4159.487,4197.0509999999995,4179.487,0,0
728,56,0,0,4183.59,4181.282,4185.0,4181.538,4166.667,4170.897,4170.897,4178.846,4168.59,4188.205,4185.128,4162.9490000000005,4189.615,4183.59,0,0
729,57,0,0,4186.795,4188.974,4191.026,4185.513,4170.0,4172.179,4173.077,4189.872,4170.641,4194.103,4187.0509999999995,4172.436,4190.769,4186.026,0,0
730,58,0,0,4177.821,4181.795,4184.744000000001,4183.205,4173.333,4166.538,4170.385,4185.385,4169.615,4181.923,4175.0,4160.641,4182.821,4174.615,0,0
731,59,0,0,4167.179,4170.641,4169.615,4173.205,4170.769,4163.846,4166.282,4172.0509999999995,4162.179,4166.41,4164.103,4142.0509999999995,4168.462,4163.59,0,0
732,60,0,0,4171.538,4179.231,4173.974,4176.154,4170.641,4166.154,4168.205,4171.538,4157.692,4164.744000000001,4169.872,4146.538,4170.385,4165.385,0,0
733,61,0,0,4176.026,4187.9490000000005,4183.846,4185.0,4172.0509999999995,4165.385,4170.769,4174.359,4159.231,4174.231,4174.615,4152.564,4177.0509999999995,4170.769,0,0
734,62,0,0,4170.255999999999,4178.205,4175.641,4179.744000000001,4166.538,4166.154,4168.846,4170.255999999999,4163.077,4173.846,4167.9490000000005,4145.255999999999,4173.205,4167.308,0,0
735,63,0,0,4167.692,4168.205,4168.462,4170.513,4166.538,4169.615,4166.41,4168.205,4165.897,4160.385,4170.385,4146.41,4174.872,4164.872,0,0
736,64,0,2155,4171.154,4172.692,4174.615,4170.513,4173.718,4168.59,4165.641,4167.564,4166.538,4158.333,4183.846,4156.026,4185.255999999999,4175.255999999999,0,0
737,65,0,1939,4173.077,4178.59,4174.872,4177.308,4171.795,4166.923,4165.769,4167.0509999999995,4166.282,4175.0,4187.0509999999995,4158.205,4184.872,4186.538,0,0
738,66,0,3379,4174.744000000001,4177.821,4173.077,4183.846,4168.462,4169.103,4166.667,4169.615,4167.692,4193.846,4176.282,4155.897,4177.436,4181.026,0,0
739,67,0,3294,4175.128,4174.231,4177.308,4183.59,4169.231,4168.333,4166.538,4170.769,4168.077,4186.667,4167.564,4154.487,4170.128,4169.487,0,0
740,68,0,2748,4171.154,4169.872,4177.564,4178.846,4166.795,4165.128,4164.872,4169.231,4166.41,4162.179,4174.615,4153.846,4169.231,4168.462,0,0
741,69,0,2362,4176.154,4174.615,4174.615,4180.897,4167.179,4166.667,4166.026,4170.769,4167.436,4159.872,4184.487,4157.436,4179.615,4171.41,0,0
742,70,0,2334,4185.128,4181.923,4177.308,4187.436,4170.385,4170.128,4168.974,4172.0509999999995,4170.641,4183.333,4184.359,4160.513,4187.564,4172.179,0,0
743,71,0,2910,4177.0509999999995,4175.255999999999,4179.487,4182.821,4166.667,4168.846,4169.359,4171.41,4171.026,4189.487,4182.179,4159.487,4181.282,4172.179,0,0
744,72,0,2365,4165.641,4165.0,4175.641,4173.718,4165.641,4168.333,4169.231,4171.154,4168.077,4164.231,4186.923,4158.718,4172.692,4168.59,0,0
745,73,0,3458,4167.692,4162.9490000000005,4172.436,4172.564,4173.59,4168.846,4169.487,4170.641,4167.821,4158.59,4186.026,4158.974,4171.41,4168.333,0,0
746,74,0,2951,4168.077,4163.718,4172.308,4177.436,4175.641,4160.769,4167.9490000000005,4172.0509999999995,4170.897,4182.179,4174.744000000001,4157.436,4172.179,4170.641,0,0
747,75,0,2844,4164.487,4166.282,4171.538,4181.538,4168.077,4158.462,4162.821,4172.179,4170.255999999999,4192.692,4174.872,4161.795,4176.154,4170.128,0,0
748,76,0,2276,4169.231,4173.718,4174.615,4183.974,4165.0,4168.59,4157.0509999999995,4167.436,4168.205,4191.795,4184.231,4165.897,4181.154,4174.872,0,0
749,77,0,3274,4174.872,4176.923,4179.359,4184.872,4170.513,4168.333,4154.231,4158.333,4169.231,4178.718,4186.538,4161.667,4176.282,4181.282,0,0
750,78,0,2951,4178.59,4178.333,4179.872,4183.846,4173.59,4158.333,4154.359,4154.103,4167.0509999999995,4158.333,4183.974,4160.0,4172.0509999999995,4181.667,0,0
751,79,0,2844,4186.154,4185.255999999999,4180.513,4186.538,4165.385,4158.077,4153.846,4156.538,4158.846,4163.333,4180.513,4162.0509999999995,4172.436,4183.974,0,0
752,80,0,2276,4188.205,4184.359,4177.0509999999995,4188.846,4160.513,4158.077,4149.231,4149.231,4149.615,4169.872,4174.872,4155.641,4167.9490000000005,4184.103,0,0
753,81,0,3274,4179.872,4173.205,4173.974,4185.641,4166.026,4153.846,4146.923,4142.179,4151.41,4154.359,4173.974,4150.769,4171.923,4175.385,0,0
754,82,0,2951,4173.846,4168.077,4176.538,4182.821,4171.41,4155.128,4150.513,4150.897,4165.255999999999,4161.795,4175.385,4152.821,4185.513,4170.255999999999,0,0
755,83,0,2844,4172.308,4171.026,4174.872,4183.077,4165.897,4155.385,4152.179,4163.205,4173.205,4193.846,4174.872,4151.667,4187.0509999999995,4173.077,0,0
756,84,0,2276,4168.846,4169.615,4175.641,4183.59,4159.231,4158.59,4153.846,4168.462,4170.255999999999,4193.59,4183.205,4157.564,4184.744000000001,4174.359,0,0
757,85,0,3274,4166.667,4167.179,4182.821,4182.436,4166.154,4166.667,4161.538,4168.333,4169.359,4173.59,4189.872,4169.359,4188.846,4173.462,0,0
758,86,0,2951,4168.333,4169.744000000001,4184.487,4183.077,4173.205,4171.154,4169.615,4168.974,4172.0509999999995,4174.103,4186.282,4167.9490000000005,4189.103,4172.9490000000005,0,0
759,87,0,2844,4171.282,4170.897,4181.154,4185.513,4172.0509999999995,4172.436,4171.667,4174.103,4170.513,4182.564,4183.077,4161.282,4181.538,4172.9490000000005,0,0
760,88,0,2276,4173.718,4170.0,4183.974,4186.795,4178.205,4173.462,4172.179,4178.462,4170.385,4187.9490000000005,4176.667,4159.487,4172.692,4172.0509999999995,0,0
761,89,0,3274,4176.538,4172.821,4185.128,4187.308,4183.205,4172.692,4176.154,4172.821,4168.974,4184.744000000001,4171.795,4158.462,4169.872,4170.513,0,0
762,90,0,2951,4179.103,4172.821,4182.0509999999995,4186.923,4173.718,4171.282,4179.231,4171.41,4166.154,4173.462,4182.9490000000005,4160.385,4177.436,4176.154,0,0
763,91,0,2844,4180.641,4169.231,4184.359,4187.436,4166.538,4170.128,4175.769,4176.795,4174.487,4168.59,4191.538,4161.923,4184.359,4185.897,0,0
764,92,0,2276,4176.026,4168.333,4184.359,4183.205,4164.103,4167.564,4170.0,4173.718,4179.872,4178.59,4179.231,4155.385,4183.846,4182.179,0,0
765,93,0,3274,4169.872,4170.385,4177.9490000000005,4176.538,4163.462,4166.923,4169.744000000001,4169.231,4173.333,4188.59,4174.103,4150.0,4186.667,4171.923,0,0
766,94,0,2951,4168.462,4169.487,4170.385,4177.179,4171.923,4166.41,4171.795,4170.0,4169.872,4185.385,4181.41,4151.667,4186.795,4169.487,0,0
767,95,0,2844,4168.462,4166.538,4169.103,4182.179,4174.872,4168.077,4171.154,4170.641,4173.077,4180.0,4185.385,4155.128,4187.436,4172.692,0,0
768,96,0,2276,4166.923,4168.718,4170.385,4182.692,4169.487,4171.026,4171.026,4170.255999999999,4171.026,4175.769,4187.436,4155.128,4194.487,4172.692,0,0
769,97,0,3274,4163.974,4171.667,4168.333,4181.923,4168.846,4170.0,4171.538,4173.333,4168.59,4174.615,4182.308,4152.9490000000005,4194.231,4170.0,0,0
770,98,0,2951,4164.487,4168.59,4168.462,4182.564,4172.9490000000005,4168.846,4169.103,4173.846,4172.179,4175.0,4178.077,4151.154,4185.641,4169.744000000001,0,0
771,99,0,2844,4168.846,4166.41,4172.436,4182.0509999999995,4172.821,4170.769,4171.154,4171.667,4170.385,4170.255999999999,4182.436,4151.795,4185.385,4171.154,0,0
772,100,0,2276,4169.872,4169.744000000001,4173.59,4183.205,4173.462,4171.41,4177.436,4178.205,4167.692,4174.231,4182.308,4152.821,4190.641,4169.487,0,0
773,101,0,3274,4167.179,4169.231,4172.0509999999995,4181.667,4174.615,4165.0,4175.897,4181.795,4177.179,4184.872,4174.615,4153.205,4188.077,4167.0509999999995,0,0
774,102,0,2951,4169.231,4167.179,4174.615,4176.026,4164.487,4157.179,4169.103,4173.333,4186.026,4187.9490000000005,4176.795,4152.9490000000005,4186.154,4167.692,0,0
