,COUNTER, INTERPOLATED, RAW_CQ, AF3, F7, F3, FC5, T7, P7, O1, O2, P8, T8, FC6, F4, F8, AF4, MARKER_HARDWARE, MARKER
0,42,0,0,4153.333,4152.564,4168.718,4157.821,4187.564,4171.282,4150.513,4175.0,4177.9490000000005,4183.846,4171.154,4185.897,4173.462,4159.487,0,0
1,43,0,0,4151.41,4156.41,4167.0509999999995,4161.667,4186.026,4174.744000000001,4160.255999999999,4171.538,4177.308,4183.974,4169.615,4186.795,4174.103,4158.59,0,0
2,44,0,0,4143.718,4151.154,4166.41,4156.795,4184.872,4172.821,4166.538,4173.846,4178.077,4180.897,4162.564,4181.41,4172.436,4151.282,0,0
3,45,0,0,4138.59,4143.077,4161.154,4151.41,4185.897,4170.385,4170.897,4176.026,4180.769,4175.255999999999,4157.179,4172.692,4171.923,4143.974,0,0
4,46,0,0,4137.308,4137.436,4149.103,4147.436,4180.128,4168.974,4165.0,4170.128,4179.359,4171.41,4150.641,4168.974,4173.077,4140.128,0,0
5,47,0,0,4133.846,4135.255999999999,4140.0,4144.872,4172.308,4167.0509999999995,4152.821,4163.846,4173.333,4169.487,4143.59,4167.308,4169.615,4137.692,0,0
6,48,0,0,4136.923,4143.718,4143.718,4149.487,4171.41,4166.923,4151.667,4163.718,4167.308,4168.718,4146.923,4164.744000000001,4165.0,4141.282,0,0
7,49,0,0,4147.308,4154.103,4152.308,4157.9490000000005,4177.436,4169.615,4156.154,4167.564,4169.487,4175.385,4161.923,4167.564,4174.744000000001,4150.513,0,0
8,50,0,0,4156.154,4157.564,4155.513,4163.974,4181.667,4171.923,4156.026,4170.769,4173.846,4186.538,4170.769,4177.436,4188.462,4155.897,0,0
9,51,0,0,4159.744000000001,4158.974,4162.692,4167.692,4181.923,4172.179,4161.923,4168.462,4170.769,4186.41,4169.872,4185.769,4184.487,4155.0,0,0
10,52,0,0,4157.308,4159.872,4170.897,4169.103,4179.231,4171.282,4171.026,4164.744000000001,4172.0509999999995,4177.0509999999995,4166.667,4182.179,4172.436,4150.641,0,0
11,53,0,0,4154.359,4156.41,4162.9490000000005,4167.0509999999995,4176.026,4171.923,4166.154,4167.179,4174.615,4173.205,4161.41,4171.923,4172.179,4144.231,0,0
12,54,0,0,4148.846,4154.359,4152.9490000000005,4162.692,4169.615,4168.205,4157.308,4166.667,4165.385,4168.59,4153.077,4169.231,4176.538,4140.0,0,0
13,55,0,0,4140.0,4152.692,4151.923,4154.103,4156.538,4157.9490000000005,4150.385,4164.359,4153.974,4158.846,4145.641,4168.974,4165.641,4137.0509999999995,0,0
14,56,0,0,4142.308,4151.538,4153.205,4153.59,4150.0,4157.308,4145.513,4170.897,4155.255999999999,4157.692,4147.0509999999995,4167.9490000000005,4152.692,4139.872,0,0
15,57,0,0,4154.744000000001,4159.231,4163.333,4168.333,4155.128,4170.385,4160.385,4170.385,4159.103,4166.923,4157.436,4177.821,4160.641,4152.436,0,0
16,58,0,0,4158.462,4162.436,4170.128,4172.9490000000005,4156.667,4174.615,4173.974,4157.9490000000005,4153.077,4170.385,4160.897,4186.923,4169.744000000001,4159.487,0,0
17,59,0,0,4151.41,4155.128,4160.897,4160.0,4150.128,4167.0509999999995,4154.359,4152.0509999999995,4152.0509999999995,4167.9490000000005,4156.667,4183.205,4158.974,4154.615,0,0
18,60,0,0,4150.385,4149.744000000001,4154.744000000001,4154.744000000001,4147.308,4165.128,4131.41,4151.026,4151.282,4166.667,4156.41,4181.538,4147.308,4152.308,0,0
19,61,0,0,4153.718,4155.0,4161.026,4166.026,4150.385,4166.41,4136.154,4151.026,4146.154,4166.923,4159.744000000001,4183.205,4157.821,4155.385,0,0
20,62,0,0,4150.385,4157.0509999999995,4162.308,4173.205,4153.846,4161.538,4140.897,4157.179,4160.385,4172.308,4159.487,4175.641,4172.564,4152.564,0,0
21,63,0,0,4136.667,4146.538,4154.872,4164.103,4149.231,4154.487,4136.154,4154.744000000001,4169.231,4169.615,4148.205,4164.487,4167.436,4140.897,0,0
22,64,0,2876,4131.282,4141.923,4149.872,4153.846,4138.462,4157.564,4141.795,4148.59,4149.231,4152.564,4138.718,4162.564,4151.282,4134.359,0,0
23,65,0,3237,4145.641,4150.641,4152.692,4158.462,4140.0,4168.333,4154.487,4161.026,4146.923,4153.846,4146.795,4173.333,4147.436,4146.026,0,0
24,66,0,3265,4157.821,4155.513,4162.9490000000005,4167.692,4151.667,4171.282,4158.718,4173.846,4175.0,4179.872,4156.795,4183.846,4163.333,4160.0,0,0
25,67,0,3433,4155.897,4150.641,4168.077,4167.821,4154.615,4168.718,4156.41,4168.333,4174.231,4187.436,4157.0509999999995,4183.205,4167.564,4158.846,0,0
26,68,0,3510,4151.923,4150.128,4166.154,4165.255999999999,4154.103,4167.9490000000005,4154.487,4160.255999999999,4145.255999999999,4172.692,4157.179,4180.897,4151.41,4154.872,0,0
27,69,0,2881,4152.821,4151.923,4166.538,4161.282,4156.923,4166.538,4151.41,4157.692,4142.0509999999995,4164.744000000001,4155.897,4181.154,4143.59,4154.872,0,0
28,70,0,3424,4153.077,4151.026,4166.282,4154.103,4156.667,4164.359,4150.0,4153.59,4159.744000000001,4169.231,4151.026,4179.103,4151.282,4154.103,0,0
29,71,0,2961,4152.179,4153.205,4162.179,4156.667,4160.0,4162.692,4152.821,4157.564,4176.41,4178.846,4155.513,4180.255999999999,4158.59,4155.641,0,0
30,72,0,3197,4154.231,4154.359,4159.615,4162.9490000000005,4167.9490000000005,4162.308,4153.077,4168.846,4186.538,4184.615,4161.282,4182.0509999999995,4159.359,4158.718,0,0
31,73,0,3573,4151.923,4155.0,4160.0,4158.974,4171.923,4165.769,4153.846,4166.282,4174.744000000001,4175.897,4155.769,4176.154,4155.769,4152.564,0,0
32,74,0,3421,4144.487,4152.692,4158.974,4154.872,4171.538,4168.077,4155.128,4154.359,4150.513,4158.077,4149.103,4171.795,4148.205,4141.41,0,0
33,75,0,2603,4140.769,4145.769,4158.462,4155.0,4171.026,4165.897,4154.872,4153.462,4154.103,4157.821,4150.513,4173.077,4148.077,4140.513,0,0
34,76,0,3404,4143.205,4140.513,4155.641,4153.333,4172.436,4165.513,4154.231,4158.333,4174.359,4168.718,4157.436,4173.974,4155.641,4146.795,0,0
35,77,0,2686,4140.513,4142.179,4151.41,4152.9490000000005,4173.077,4168.205,4155.128,4156.026,4167.436,4169.103,4158.333,4172.564,4164.103,4145.0,0,0
36,78,0,3421,4137.308,4142.692,4150.128,4154.359,4172.692,4168.59,4155.255999999999,4153.974,4154.231,4165.641,4150.769,4169.872,4170.255999999999,4137.9490000000005,0,0
37,79,0,2603,4146.667,4143.462,4153.077,4153.974,4170.513,4167.564,4153.718,4161.538,4165.513,4167.821,4155.128,4171.026,4168.974,4142.821,0,0
38,80,0,3404,4156.538,4149.487,4159.231,4154.744000000001,4169.872,4165.513,4153.59,4166.795,4176.667,4169.872,4166.667,4173.333,4168.205,4153.333,0,0
39,81,0,2686,4155.769,4153.205,4166.667,4163.718,4171.026,4165.513,4154.487,4170.385,4171.282,4168.718,4161.154,4173.333,4172.821,4154.744000000001,0,0
40,82,0,3421,4154.231,4155.255999999999,4166.923,4171.282,4172.179,4168.846,4155.0,4168.333,4164.744000000001,4167.436,4152.692,4173.974,4171.41,4152.692,0,0
41,83,0,2603,4158.077,4156.538,4157.692,4162.9490000000005,4171.795,4170.513,4157.0509999999995,4148.462,4156.923,4159.359,4153.846,4172.0509999999995,4158.59,4152.692,0,0
42,84,0,3404,4162.9490000000005,4154.872,4156.154,4155.769,4169.359,4169.744000000001,4151.154,4132.179,4146.923,4155.641,4154.744000000001,4171.026,4153.462,4156.154,0,0
43,85,0,2686,4170.769,4158.077,4168.077,4167.179,4172.179,4171.154,4151.026,4148.974,4153.718,4168.333,4162.9490000000005,4182.821,4162.436,4165.897,0,0
44,86,0,3421,4172.821,4162.821,4175.385,4172.0509999999995,4176.026,4173.974,4168.077,4170.128,4163.205,4173.718,4168.846,4189.359,4157.692,4166.795,0,0
45,87,0,2603,4160.641,4155.641,4165.128,4157.9490000000005,4172.179,4170.385,4166.538,4161.026,4149.744000000001,4157.308,4152.9490000000005,4175.513,4139.744000000001,4150.769,0,0
46,88,0,3404,4152.308,4149.487,4153.718,4155.769,4173.462,4166.026,4141.667,4150.641,4140.897,4147.308,4144.359,4166.667,4143.59,4146.026,0,0
47,89,0,2686,4155.897,4156.026,4156.282,4169.359,4185.897,4168.974,4137.179,4156.41,4159.103,4158.077,4154.231,4170.641,4159.487,4150.513,0,0
48,90,0,3421,4157.436,4158.718,4161.538,4174.744000000001,4188.974,4170.513,4146.667,4160.128,4173.974,4162.9490000000005,4154.231,4170.513,4155.769,4142.0509999999995,0,0
49,91,0,2603,4153.205,4153.718,4158.333,4170.0,4174.615,4163.077,4138.846,4158.077,4161.923,4153.333,4148.205,4167.821,4147.9490000000005,4135.385,0,0
50,92,0,3404,4151.923,4151.923,4155.385,4167.0509999999995,4165.641,4159.359,4137.564,4152.436,4151.667,4155.385,4152.436,4168.59,4154.872,4140.513,0,0
51,93,0,2686,4156.667,4154.615,4161.154,4171.538,4171.154,4165.0,4154.744000000001,4152.692,4161.41,4167.0509999999995,4157.436,4169.103,4159.103,4141.282,0,0
52,94,0,3421,4154.487,4156.026,4158.333,4174.615,4174.231,4168.462,4159.103,4156.667,4163.846,4161.667,4158.59,4170.255999999999,4152.564,4138.846,0,0
53,95,0,2603,4142.9490000000005,4151.282,4150.255999999999,4167.0509999999995,4170.385,4166.154,4150.897,4156.282,4152.308,4154.359,4157.308,4172.0509999999995,4157.308,4139.615,0,0
54,96,0,3404,4136.282,4142.564,4150.769,4155.897,4167.9490000000005,4165.769,4150.897,4158.846,4159.103,4166.026,4153.333,4169.231,4171.282,4138.718,0,0
55,97,0,2686,4139.615,4138.077,4153.333,4155.128,4163.462,4167.0509999999995,4156.154,4169.744000000001,4184.615,4178.718,4156.41,4170.128,4175.255999999999,4144.487,0,0
56,98,0,3421,4138.462,4139.487,4151.41,4156.795,4152.692,4167.436,4156.667,4173.462,4187.821,4177.9490000000005,4165.897,4180.255999999999,4172.9490000000005,4153.333,0,0
57,99,0,2603,4134.359,4139.359,4151.41,4153.974,4150.128,4170.255999999999,4163.333,4171.538,4164.872,4172.308,4165.897,4185.0,4169.359,4152.9490000000005,0,0
58,100,0,3404,4135.385,4136.154,4153.333,4152.436,4153.333,4172.436,4172.0509999999995,4175.128,4155.897,4169.103,4158.846,4177.692,4162.308,4152.179,0,0
59,101,0,2686,4137.179,4134.359,4152.821,4153.718,4151.282,4172.436,4171.282,4175.128,4166.923,4170.897,4156.538,4170.897,4153.462,4150.255999999999,0,0
60,102,0,3421,4137.436,4135.641,4153.718,4153.59,4157.436,4172.9490000000005,4171.154,4171.923,4168.077,4167.692,4151.41,4172.436,4145.0,4142.9490000000005,0,0
61,103,0,2603,4137.179,4136.923,4154.615,4153.333,4168.205,4172.308,4168.974,4169.872,4153.333,4155.385,4141.41,4170.641,4134.615,4142.308,0,0
62,104,0,3404,4141.795,4138.205,4156.795,4156.923,4169.359,4171.41,4160.769,4168.077,4152.821,4159.359,4142.692,4170.128,4134.359,4152.821,0,0
63,105,0,2686,4148.59,4143.333,4159.359,4160.128,4168.974,4171.538,4158.974,4169.359,4165.385,4176.282,4154.359,4178.718,4146.795,4156.795,0,0
64,106,0,3421,4144.103,4145.769,4156.154,4157.436,4168.077,4169.103,4158.974,4171.538,4162.821,4176.41,4158.077,4179.744000000001,4148.205,4151.795,0,0
65,107,0,2603,4134.615,4140.769,4151.026,4153.59,4158.59,4165.128,4152.308,4168.077,4152.308,4170.897,4152.436,4169.487,4145.641,4149.487,0,0
66,108,0,3404,4135.769,4137.564,4151.41,4148.205,4152.9490000000005,4165.385,4149.744000000001,4163.333,4159.103,4179.103,4149.615,4168.59,4149.103,4150.897,0,0
67,109,0,2686,4141.538,4139.872,4154.615,4145.255999999999,4162.179,4169.487,4158.205,4165.513,4169.231,4184.231,4152.692,4174.872,4153.718,4152.692,0,0
68,110,0,3421,4138.333,4137.436,4153.718,4147.9490000000005,4169.615,4172.821,4164.231,4168.333,4170.897,4181.282,4152.821,4172.436,4161.41,4152.436,0,0
69,111,0,2603,4139.744000000001,4137.692,4152.821,4152.564,4169.615,4174.872,4162.564,4168.333,4178.462,4193.333,4152.436,4169.615,4170.385,4154.359,0,0
70,112,0,3404,4151.026,4150.769,4155.385,4156.41,4171.154,4174.744000000001,4159.615,4170.0,4181.282,4211.795,4156.923,4173.462,4169.872,4159.359,0,0
71,113,0,2686,4151.923,4152.821,4157.0509999999995,4156.667,4170.255999999999,4171.923,4156.154,4171.923,4168.333,4216.026,4153.333,4173.077,4156.154,4156.795,0,0
72,114,0,3421,4145.385,4139.615,4155.897,4153.205,4162.436,4169.744000000001,4155.128,4170.769,4164.103,4224.744000000001,4146.667,4171.41,4149.615,4151.667,0,0
73,115,0,2603,4143.205,4136.667,4153.718,4150.897,4156.795,4170.769,4156.154,4168.59,4170.128,4251.923,4150.641,4171.795,4153.718,4152.9490000000005,0,0
74,116,0,3404,4142.0509999999995,4142.564,4152.564,4152.436,4159.487,4174.359,4159.103,4172.436,4171.154,4276.795,4156.41,4172.564,4158.462,4155.255999999999,0,0
75,117,0,2686,4143.974,4140.385,4156.026,4152.692,4163.846,4183.205,4167.9490000000005,4175.385,4172.308,4293.974,4156.154,4176.923,4157.436,4153.718,0,0
76,118,0,3421,4150.513,4135.641,4157.179,4152.179,4165.385,4185.255999999999,4168.718,4166.282,4166.795,4314.487,4155.255999999999,4182.9490000000005,4152.436,4153.846,0,0
77,119,0,2603,4152.692,4143.462,4152.436,4153.59,4168.077,4174.359,4159.103,4153.718,4161.41,4336.795,4156.282,4183.077,4158.205,4156.026,0,0
78,120,0,3404,4150.128,4152.0509999999995,4158.59,4154.103,4177.821,4172.9490000000005,4156.923,4153.333,4166.282,4356.667,4156.154,4181.154,4162.564,4155.897,0,0
79,121,0,2686,4151.282,4147.308,4167.436,4155.769,4186.538,4180.897,4160.128,4163.846,4161.282,4366.026,4154.615,4184.359,4146.923,4155.255999999999,0,0
80,122,0,3421,4150.255999999999,4141.667,4161.282,4156.154,4186.667,4175.385,4154.872,4166.41,4156.154,4367.564,4151.667,4183.205,4135.641,4152.436,0,0
81,123,0,2603,4147.9490000000005,4147.308,4157.179,4156.282,4186.154,4171.667,4150.255999999999,4158.205,4163.462,4374.231,4149.872,4174.103,4147.564,4153.077,0,0
82,124,0,3404,4153.718,4156.795,4165.255999999999,4162.436,4186.538,4178.718,4151.667,4154.231,4159.359,4381.282,4153.462,4173.846,4158.333,4162.0509999999995,0,0
83,125,0,2686,4164.615,4162.564,4171.154,4169.231,4183.077,4178.077,4150.385,4163.974,4152.564,4387.9490000000005,4165.128,4184.744000000001,4155.255999999999,4170.897,0,0
84,126,0,3421,4173.462,4170.128,4167.308,4170.769,4182.179,4175.128,4150.385,4158.974,4158.974,4393.718,4177.692,4186.795,4153.333,4175.641,0,0
85,127,0,53,4179.487,4176.923,4164.872,4171.667,4181.026,4179.615,4155.385,4160.897,4165.385,4400.0,4188.333,4186.538,4160.769,4185.385,0,0
86,0,0,2876,4199.744000000001,4190.0,4179.615,4184.615,4181.667,4182.0509999999995,4166.538,4197.821,4186.538,4419.744000000001,4212.821,4206.795,4172.308,4208.462,0,0
87,1,0,3237,4230.128,4217.692,4199.615,4204.231,4192.564,4183.462,4174.359,4186.026,4194.872,4433.205,4234.359,4223.718,4171.667,4231.667,0,0
88,2,0,3265,4252.692,4247.821,4202.0509999999995,4217.821,4203.205,4185.769,4167.692,4142.821,4162.436,4417.0509999999995,4232.821,4221.795,4155.385,4244.359,0,0
89,3,0,3433,4269.744000000001,4270.897,4204.359,4228.333,4208.59,4186.154,4165.641,4158.974,4149.487,4404.744000000001,4236.026,4223.205,4146.667,4253.59,0,0
90,4,0,3510,4283.077,4285.0,4218.974,4238.205,4216.923,4187.9490000000005,4170.641,4180.385,4173.333,4421.026,4251.667,4236.026,4156.795,4263.974,0,0
91,5,0,2881,4287.9490000000005,4286.667,4222.308,4240.769,4220.0,4189.359,4170.385,4171.282,4186.41,4433.718,4256.41,4246.282,4168.718,4270.385,0,0
92,6,0,3429,4281.282,4274.359,4217.692,4234.872,4211.538,4184.103,4166.795,4177.9490000000005,4183.718,4430.385,4250.769,4243.333,4168.077,4265.385,0,0
93,7,0,2964,4267.436,4258.462,4216.154,4228.59,4207.0509999999995,4185.769,4169.231,4178.59,4181.923,4424.744000000001,4244.103,4233.462,4164.487,4251.41,0,0
94,8,0,3194,4255.641,4249.615,4210.385,4225.255999999999,4208.462,4194.615,4177.9490000000005,4167.308,4183.59,4423.846,4237.564,4231.795,4177.436,4238.59,0,0
95,9,0,3563,4247.692,4240.255999999999,4202.308,4221.154,4204.744000000001,4194.359,4184.487,4185.128,4192.308,4419.359,4231.41,4234.103,4188.333,4232.436,0,0
96,10,0,3418,4231.795,4222.9490000000005,4192.436,4212.564,4193.846,4186.282,4176.282,4184.872,4183.333,4398.718,4213.59,4217.564,4169.103,4218.974,0,0
97,11,0,2604,4209.615,4207.436,4179.487,4196.923,4184.103,4182.0509999999995,4157.308,4163.205,4158.59,4382.436,4187.692,4198.718,4148.718,4196.026,0,0
98,12,0,3406,4198.846,4197.308,4172.179,4185.513,4182.564,4182.0509999999995,4149.744000000001,4164.103,4159.103,4381.282,4175.513,4195.0,4156.795,4182.179,0,0
99,13,0,2686,4198.718,4190.0,4172.692,4184.487,4185.0,4183.846,4162.179,4168.077,4178.974,4376.538,4173.333,4190.255999999999,4168.333,4180.513,0,0
100,14,0,3418,4195.641,4190.0,4175.255999999999,4187.692,4188.077,4187.821,4181.026,4174.231,4188.846,4369.487,4172.564,4190.897,4168.974,4181.795,0,0
101,15,0,2604,4187.308,4190.128,4175.385,4187.179,4187.821,4187.692,4183.846,4182.179,4185.513,4370.0,4173.718,4196.667,4170.769,4180.255999999999,0,0
102,16,0,0,4179.103,4179.744000000001,4171.667,4180.513,4186.026,4184.615,4172.692,4176.538,4186.538,4372.9490000000005,4172.9490000000005,4192.179,4174.615,4173.462,0,0
103,17,0,0,4170.769,4168.974,4167.308,4171.923,4186.154,4183.205,4168.462,4170.128,4187.9490000000005,4369.872,4168.974,4182.692,4173.077,4166.667,0,0
104,18,0,0,4163.462,4166.41,4165.128,4167.692,4187.692,4179.872,4169.872,4169.359,4176.667,4361.667,4165.385,4181.795,4167.9490000000005,4164.615,0,0
105,19,0,0,4166.026,4169.487,4166.41,4170.128,4188.59,4180.385,4170.641,4167.9490000000005,4166.923,4359.103,4166.667,4184.615,4174.359,4166.154,0,0
106,20,0,0,4172.308,4173.462,4170.0,4172.564,4187.821,4182.9490000000005,4168.846,4167.821,4169.103,4359.359,4170.769,4186.795,4182.0509999999995,4168.846,0,0
107,21,0,0,4172.9490000000005,4172.9490000000005,4169.231,4174.615,4185.769,4181.538,4168.333,4168.974,4170.0,4353.974,4167.436,4188.205,4175.769,4167.0509999999995,0,0
108,22,0,0,4175.0,4176.154,4169.744000000001,4179.615,4185.0,4182.821,4172.0509999999995,4167.436,4168.077,4352.436,4161.154,4186.923,4171.923,4160.385,0,0
109,23,0,0,4174.487,4179.487,4168.846,4178.846,4182.308,4184.103,4174.231,4166.41,4167.0509999999995,4350.255999999999,4159.359,4186.026,4176.41,4156.538,0,0
110,24,0,0,4167.692,4173.846,4161.667,4171.41,4173.077,4180.769,4170.255999999999,4167.9490000000005,4165.513,4337.692,4156.667,4185.255999999999,4173.205,4155.128,0,0
111,25,0,0,4168.333,4171.154,4160.0,4170.0,4168.077,4183.077,4168.077,4171.282,4168.974,4331.41,4154.103,4181.923,4170.385,4153.205,0,0
112,26,0,0,4169.615,4174.231,4162.821,4171.667,4169.231,4183.077,4169.615,4171.41,4170.128,4330.513,4156.154,4175.513,4173.077,4152.692,0,0
113,27,0,0,4160.769,4170.513,4156.923,4166.923,4165.0,4172.436,4167.179,4166.923,4160.128,4314.872,4154.359,4170.128,4163.59,4147.821,0,0
114,28,0,0,4159.615,4166.667,4152.692,4165.385,4162.9490000000005,4170.897,4165.513,4165.385,4152.308,4302.308,4149.872,4171.154,4156.667,4144.872,0,0
115,29,0,0,4169.231,4171.923,4160.128,4169.744000000001,4168.718,4182.179,4171.282,4168.59,4156.538,4310.641,4153.462,4172.436,4168.205,4147.179,0,0
116,30,0,0,4169.103,4172.308,4162.0509999999995,4170.128,4170.769,4186.41,4172.821,4171.282,4162.564,4314.872,4155.0,4170.641,4175.255999999999,4143.462,0,0
117,31,0,0,4162.9490000000005,4168.974,4156.282,4167.692,4169.103,4179.872,4172.179,4166.795,4160.128,4300.513,4146.282,4168.59,4165.769,4135.641,0,0
118,32,0,0,4165.385,4169.487,4160.385,4167.821,4169.615,4175.0,4176.282,4160.385,4151.538,4289.103,4144.872,4168.205,4159.872,4139.615,0,0
119,33,0,0,4172.436,4173.077,4170.0,4169.872,4172.179,4172.9490000000005,4167.308,4163.333,4152.692,4291.538,4156.538,4171.795,4167.9490000000005,4151.026,0,0
120,34,0,0,4167.0509999999995,4171.538,4166.026,4170.128,4176.923,4172.9490000000005,4155.641,4168.846,4161.538,4289.359,4159.872,4173.59,4172.179,4149.872,0,0
121,35,0,0,4154.359,4162.308,4153.333,4164.359,4182.308,4176.41,4159.103,4163.718,4160.128,4275.0,4150.897,4166.538,4167.692,4139.359,0,0
122,36,0,0,4151.923,4163.205,4152.821,4162.0509999999995,4185.897,4179.359,4160.128,4156.667,4156.795,4266.923,4151.154,4165.255999999999,4168.59,4135.513,0,0
123,37,0,0,4156.538,4166.795,4157.821,4166.795,4186.667,4175.897,4151.795,4154.103,4159.231,4266.538,4153.462,4166.538,4168.333,4139.103,0,0
124,38,0,0,4154.103,4160.255999999999,4155.128,4163.974,4186.667,4170.641,4154.487,4153.846,4156.667,4258.462,4143.974,4157.9490000000005,4159.359,4137.821,0,0
125,39,0,0,4147.9490000000005,4159.103,4149.615,4155.897,4184.359,4169.872,4157.436,4154.872,4151.795,4245.897,4133.59,4156.026,4158.462,4133.077,0,0
126,40,0,0,4152.0509999999995,4167.692,4152.692,4160.769,4185.897,4170.0,4151.282,4154.872,4156.41,4243.974,4137.821,4167.0509999999995,4166.667,4135.513,0,0
127,41,0,0,4162.0509999999995,4172.692,4164.615,4172.179,4194.744000000001,4172.0509999999995,4161.923,4161.154,4163.333,4251.41,4149.744000000001,4172.308,4170.385,4138.846,0,0
128,42,0,0,4162.179,4167.692,4165.641,4168.462,4194.615,4172.9490000000005,4168.974,4167.0509999999995,4160.769,4248.205,4147.308,4169.744000000001,4164.231,4133.333,0,0
129,43,0,0,4151.667,4156.538,4155.128,4154.487,4183.718,4171.282,4158.974,4159.615,4153.846,4232.436,4136.41,4166.795,4153.974,4125.769,0,0
130,44,0,0,4147.436,4149.103,4148.718,4149.231,4180.513,4174.744000000001,4160.513,4149.615,4148.974,4221.154,4133.974,4163.974,4146.538,4128.077,0,0
131,45,0,0,4157.0509999999995,4157.821,4153.974,4157.0509999999995,4186.923,4178.205,4172.692,4158.077,4154.872,4227.564,4146.538,4172.308,4151.667,4135.641,0,0
132,46,0,0,4168.077,4169.744000000001,4161.923,4168.333,4189.872,4172.692,4170.513,4171.282,4165.255999999999,4237.692,4162.564,4184.487,4163.974,4142.9490000000005,0,0
133,47,0,0,4178.59,4174.872,4170.128,4178.077,4194.487,4168.59,4165.255999999999,4168.59,4168.333,4242.179,4170.0,4187.821,4170.0,4151.41,0,0
134,48,0,0,4186.667,4181.795,4177.692,4183.718,4197.821,4172.436,4173.205,4166.282,4169.359,4246.667,4175.0,4194.744000000001,4177.436,4157.179,0,0
135,49,0,0,4187.0509999999995,4187.0509999999995,4176.282,4181.538,4192.9490000000005,4172.692,4164.615,4171.923,4173.974,4244.744000000001,4181.154,4200.255999999999,4185.769,4157.564,0,0
136,50,0,0,4184.359,4181.154,4171.667,4176.538,4190.0,4168.59,4148.462,4169.615,4168.333,4236.026,4178.974,4192.821,4182.436,4155.513,0,0
137,51,0,0,4183.718,4178.333,4172.564,4179.744000000001,4195.769,4168.462,4159.744000000001,4167.0509999999995,4159.615,4226.667,4171.41,4190.255999999999,4171.154,4156.795,0,0
138,52,0,0,4187.564,4186.154,4177.436,4184.872,4199.487,4170.641,4168.59,4172.179,4163.974,4222.821,4177.0509999999995,4197.308,4169.487,4162.564,0,0
139,53,0,0,4185.0,4184.744000000001,4172.821,4178.846,4192.436,4171.538,4154.744000000001,4162.179,4163.333,4220.641,4177.308,4194.231,4175.513,4162.9490000000005,0,0
140,54,0,0,4168.846,4171.538,4159.487,4167.821,4186.026,4171.795,4152.692,4149.744000000001,4156.154,4212.821,4162.308,4180.769,4169.872,4151.026,0,0
141,55,0,0,4151.923,4160.128,4152.0509999999995,4160.897,4179.872,4167.692,4159.487,4155.385,4154.872,4201.795,4149.872,4171.154,4159.359,4138.718,0,0
142,56,0,0,4149.615,4156.923,4152.179,4156.538,4171.923,4165.513,4156.026,4156.41,4155.128,4195.385,4142.179,4167.692,4161.282,4136.41,0,0
143,57,0,0,4151.538,4156.154,4150.769,4152.9490000000005,4169.744000000001,4170.641,4159.103,4148.718,4148.077,4190.897,4136.026,4167.436,4165.255999999999,4138.205,0,0
144,58,0,0,4143.59,4154.615,4142.564,4153.333,4171.923,4173.077,4164.615,4152.564,4146.154,4184.487,4135.769,4166.795,4157.564,4136.795,0,0
145,59,0,0,4137.436,4154.359,4140.513,4153.462,4169.359,4168.077,4158.077,4161.154,4147.436,4183.59,4135.641,4166.538,4151.538,4131.795,0,0
146,60,0,0,4136.923,4147.9490000000005,4139.872,4145.385,4167.436,4164.487,4153.462,4154.231,4138.077,4176.154,4124.615,4160.641,4150.255999999999,4124.615,0,0
147,61,0,0,4135.255999999999,4141.282,4136.667,4136.795,4167.436,4165.513,4154.103,4147.308,4143.718,4173.718,4117.821,4152.0509999999995,4153.077,4121.282,0,0
148,62,0,0,4135.769,4145.255999999999,4143.333,4143.718,4160.513,4168.205,4155.255999999999,4159.744000000001,4161.154,4188.59,4128.333,4155.513,4162.0509999999995,4128.333,0,0
149,63,0,0,4140.513,4154.103,4153.462,4152.436,4156.41,4168.974,4157.308,4166.795,4151.026,4185.128,4134.231,4166.154,4158.205,4137.436,0,0
150,64,0,2876,4140.255999999999,4151.538,4152.692,4145.897,4156.923,4166.667,4153.205,4142.692,4126.41,4163.333,4124.103,4168.846,4140.513,4137.0509999999995,0,0
151,65,0,3238,4135.255999999999,4147.9490000000005,4149.359,4143.205,4154.872,4167.9490000000005,4153.077,4133.205,4129.359,4158.333,4121.026,4165.385,4136.795,4135.0,0,0
152,66,0,3267,4138.846,4152.564,4154.103,4151.41,4154.103,4172.436,4166.026,4167.179,4149.359,4170.769,4133.718,4170.255999999999,4146.795,4142.821,0,0
153,67,0,3438,4150.513,4152.692,4160.513,4153.718,4156.41,4171.923,4174.744000000001,4180.513,4157.692,4180.641,4143.077,4182.9490000000005,4153.077,4152.692,0,0
154,68,0,3511,4155.769,4151.154,4165.385,4152.9490000000005,4158.205,4168.205,4169.487,4152.564,4153.59,4181.154,4148.077,4190.128,4159.231,4154.231,0,0
155,69,0,2880,4153.974,4154.615,4170.0,4156.026,4158.333,4170.255999999999,4166.41,4154.103,4153.974,4179.744000000001,4153.974,4189.103,4168.077,4152.564,0,0
156,70,0,3424,4154.744000000001,4154.359,4167.0509999999995,4157.0509999999995,4158.59,4173.974,4170.255999999999,4177.9490000000005,4167.692,4184.231,4157.308,4187.564,4172.9490000000005,4154.231,0,0
157,71,0,2968,4152.0509999999995,4149.615,4157.179,4152.564,4156.154,4169.487,4161.538,4158.846,4166.667,4182.692,4156.026,4186.026,4166.795,4154.103,0,0
158,72,0,3198,4152.9490000000005,4158.077,4159.231,4155.513,4156.923,4168.846,4159.872,4143.59,4154.103,4173.205,4155.897,4184.615,4162.179,4155.128,0,0
159,73,0,3577,4163.59,4172.821,4171.41,4165.128,4160.897,4176.41,4171.795,4168.974,4158.205,4173.205,4160.128,4187.692,4170.897,4159.615,0,0
160,74,0,3428,4162.9490000000005,4163.718,4165.769,4160.897,4152.564,4174.872,4160.897,4161.795,4158.974,4173.333,4154.487,4186.538,4170.769,4156.667,0,0
161,75,0,2609,4150.128,4146.154,4149.872,4149.231,4142.308,4168.59,4151.923,4141.923,4157.436,4167.308,4143.077,4180.128,4158.59,4149.615,0,0
162,76,0,3409,4153.077,4154.744000000001,4155.641,4152.564,4145.641,4173.333,4174.487,4178.333,4168.718,4173.205,4149.231,4181.667,4155.513,4154.744000000001,0,0
163,77,0,2687,4165.0,4168.077,4165.128,4159.103,4146.538,4169.872,4166.923,4179.744000000001,4162.821,4174.103,4156.667,4183.846,4156.923,4159.872,0,0
164,78,0,3428,4168.974,4167.821,4167.692,4160.385,4146.667,4166.795,4147.436,4130.641,4147.821,4166.667,4151.154,4183.974,4160.255999999999,4156.538,0,0
165,79,0,2609,4173.59,4170.641,4180.128,4169.487,4163.846,4186.282,4187.9490000000005,4138.718,4157.0509999999995,4176.026,4155.0,4191.026,4171.41,4158.718,0,0
166,80,0,3409,4174.359,4168.205,4183.59,4170.513,4170.769,4184.359,4197.692,4170.897,4161.923,4180.128,4160.385,4193.333,4169.359,4161.923,0,0
167,81,0,2687,4165.255999999999,4159.487,4168.462,4155.385,4155.769,4153.846,4130.897,4156.282,4145.255999999999,4158.846,4150.641,4182.436,4152.436,4156.923,0,0
168,82,0,3428,4162.564,4163.974,4162.0509999999995,4151.41,4153.205,4152.9490000000005,4107.821,4138.846,4138.59,4146.795,4143.205,4180.128,4150.513,4153.462,0,0
169,83,0,2609,4169.103,4171.282,4169.231,4160.641,4158.974,4170.641,4146.41,4146.667,4146.026,4152.308,4146.026,4187.436,4155.385,4155.0,0,0
170,84,0,3409,4171.41,4168.333,4174.744000000001,4166.41,4155.897,4172.436,4165.513,4157.0509999999995,4152.692,4150.897,4150.513,4187.564,4152.436,4160.513,0,0
171,85,0,2687,4169.231,4168.077,4180.128,4168.333,4157.0509999999995,4178.077,4168.846,4165.0,4156.667,4149.744000000001,4154.231,4190.255999999999,4159.359,4166.923,0,0
172,86,0,3428,4175.641,4172.821,4184.872,4170.513,4160.513,4182.9490000000005,4175.0,4169.359,4158.718,4151.41,4155.255999999999,4199.103,4167.0509999999995,4165.769,0,0
173,87,0,2609,4183.59,4176.538,4183.846,4174.615,4156.923,4171.667,4168.846,4173.846,4157.308,4143.718,4154.744000000001,4200.897,4158.846,4161.795,0,0
174,88,0,3409,4185.0,4182.179,4185.385,4181.923,4159.359,4173.462,4166.41,4172.179,4155.641,4144.231,4155.769,4199.359,4153.333,4165.769,0,0
175,89,0,2687,4185.0,4184.744000000001,4187.436,4185.513,4166.41,4184.872,4173.077,4158.333,4153.333,4152.692,4157.821,4199.872,4157.9490000000005,4169.103,0,0
176,90,0,3428,4186.41,4184.359,4187.9490000000005,4184.231,4168.974,4186.538,4182.692,4163.077,4152.308,4147.179,4164.615,4200.128,4157.436,4167.9490000000005,0,0
177,91,0,2609,4186.923,4187.179,4188.205,4184.744000000001,4171.026,4187.692,4190.385,4177.0509999999995,4155.0,4136.667,4167.821,4199.744000000001,4154.744000000001,4170.128,0,0
178,92,0,3409,4185.641,4187.0509999999995,4186.41,4184.744000000001,4174.103,4184.872,4185.769,4171.795,4155.513,4134.872,4158.59,4198.205,4153.333,4170.897,0,0
179,93,0,2687,4186.282,4184.103,4182.308,4179.744000000001,4177.0509999999995,4171.923,4165.255999999999,4162.179,4151.538,4135.0,4155.128,4197.308,4152.0509999999995,4167.436,0,0
180,94,0,3428,4191.667,4191.282,4183.718,4184.487,4184.744000000001,4167.564,4154.487,4166.538,4151.41,4136.667,4166.795,4200.897,4164.103,4175.255999999999,0,0
181,95,0,2609,4200.897,4202.308,4193.974,4193.974,4196.154,4177.308,4165.255999999999,4171.41,4156.154,4139.231,4173.59,4203.333,4171.41,4190.897,0,0
182,96,0,3409,4208.205,4203.077,4200.641,4194.231,4200.385,4186.41,4175.255999999999,4170.385,4157.821,4136.667,4173.846,4204.744000000001,4160.897,4200.255999999999,0,0
183,97,0,2687,4212.179,4199.872,4201.41,4193.205,4199.744000000001,4182.692,4169.872,4168.205,4156.795,4135.513,4181.538,4213.718,4161.795,4206.282,0,0
184,98,0,3428,4217.821,4208.333,4206.795,4198.333,4202.692,4172.564,4164.103,4174.744000000001,4161.923,4139.744000000001,4189.487,4225.255999999999,4175.385,4215.769,0,0
185,99,0,2609,4218.077,4217.821,4212.9490000000005,4200.897,4205.0,4176.154,4180.513,4184.231,4168.333,4140.128,4187.821,4223.59,4172.692,4216.795,0,0
186,100,0,3409,4216.923,4213.59,4212.0509999999995,4196.923,4203.59,4185.897,4193.333,4186.538,4169.359,4131.795,4181.795,4218.077,4162.692,4211.667,0,0
187,101,0,2687,4230.769,4217.436,4214.359,4197.0509999999995,4208.718,4177.821,4173.205,4185.769,4166.41,4127.308,4182.436,4222.436,4167.436,4221.41,0,0
188,102,0,3428,4249.744000000001,4236.154,4220.128,4202.564,4217.436,4167.821,4159.103,4175.641,4160.513,4127.821,4186.538,4224.615,4168.205,4234.615,0,0
189,103,0,2609,4254.615,4245.513,4216.795,4204.231,4217.821,4176.667,4180.641,4175.897,4160.641,4119.103,4186.667,4218.333,4153.718,4233.59,0,0
190,104,0,3409,4263.846,4252.9490000000005,4222.821,4208.59,4223.974,4186.026,4196.795,4202.179,4180.128,4121.923,4199.487,4229.615,4155.385,4238.077,0,0
191,105,0,2687,4295.255999999999,4280.769,4243.846,4225.641,4242.308,4182.821,4183.59,4200.641,4189.487,4145.769,4227.179,4256.026,4182.692,4261.667,0,0
192,106,0,3428,4320.769,4307.179,4251.795,4240.641,4250.641,4181.154,4179.103,4165.255999999999,4171.41,4149.359,4237.436,4262.9490000000005,4192.0509999999995,4280.385,0,0
193,107,0,2609,4331.795,4312.692,4249.231,4240.0,4247.436,4186.795,4189.231,4168.205,4169.103,4137.0509999999995,4237.436,4260.769,4177.9490000000005,4282.692,0,0
194,108,0,3409,4331.667,4306.41,4252.179,4235.385,4247.308,4188.205,4188.077,4192.821,4183.462,4142.308,4243.59,4263.846,4169.872,4284.231,0,0
195,109,0,2687,4318.846,4298.846,4250.897,4233.462,4250.255999999999,4184.615,4186.41,4189.615,4182.436,4153.077,4246.923,4259.744000000001,4173.718,4281.41,0,0
196,110,0,3428,4310.0,4293.718,4246.538,4231.41,4251.026,4185.128,4193.846,4188.333,4180.769,4160.769,4247.308,4249.872,4184.231,4272.179,0,0
197,111,0,2609,4306.026,4284.615,4244.615,4226.667,4251.026,4188.077,4201.026,4193.974,4188.205,4161.667,4240.385,4247.308,4186.41,4263.333,0,0
198,112,0,3409,4288.718,4262.564,4237.436,4211.538,4250.513,4190.385,4201.41,4187.692,4184.359,4143.846,4222.179,4247.821,4168.974,4252.564,0,0
199,113,0,2687,4262.692,4240.897,4225.769,4191.667,4245.897,4188.846,4191.923,4186.154,4179.487,4133.333,4210.897,4242.9490000000005,4162.308,4239.359,0,0
200,114,0,3428,4247.564,4229.103,4216.923,4181.538,4242.9490000000005,4185.128,4180.769,4187.436,4185.513,4138.718,4205.385,4233.59,4177.692,4227.564,0,0
201,115,0,2609,4243.718,4221.667,4210.769,4181.026,4245.769,4182.821,4183.974,4184.487,4184.231,4128.205,4187.0509999999995,4220.385,4178.333,4218.205,0,0
202,116,0,3409,4244.487,4222.821,4214.615,4182.0509999999995,4251.282,4187.308,4197.308,4195.385,4176.667,4117.179,4182.692,4218.462,4165.897,4219.487,0,0
203,117,0,2687,4234.744000000001,4217.308,4212.0509999999995,4174.359,4247.9490000000005,4182.9490000000005,4175.255999999999,4177.9490000000005,4168.205,4123.077,4183.077,4219.359,4169.744000000001,4217.436,0,0
204,118,0,3428,4221.667,4202.9490000000005,4199.103,4163.718,4243.846,4179.615,4173.974,4171.154,4175.897,4129.615,4170.128,4214.744000000001,4183.718,4205.769,0,0
205,119,0,2609,4227.692,4202.436,4207.564,4168.077,4253.59,4199.744000000001,4258.333,4247.9490000000005,4203.205,4137.179,4176.795,4225.255999999999,4185.0,4206.026,0,0
206,120,0,3409,4228.462,4206.795,4217.821,4175.769,4255.513,4204.744000000001,4263.974,4252.179,4204.615,4138.077,4185.641,4234.231,4179.872,4209.103,0,0
207,121,0,2687,4214.359,4201.538,4199.231,4164.744000000001,4243.718,4180.897,4140.255999999999,4140.769,4181.667,4128.718,4172.564,4221.41,4191.026,4199.487,0,0
208,122,0,3428,4210.0,4196.667,4185.897,4155.897,4247.9490000000005,4180.513,4131.795,4124.615,4178.846,4126.282,4163.718,4210.769,4202.564,4193.718,0,0
209,123,0,2609,4216.026,4198.205,4198.333,4166.282,4265.641,4207.692,4234.103,4201.41,4192.821,4130.513,4168.718,4216.41,4192.0509999999995,4192.308,0,0
210,124,0,3409,4222.9490000000005,4200.255999999999,4205.385,4173.974,4265.769,4206.538,4214.231,4206.282,4200.769,4134.231,4174.744000000001,4218.333,4180.385,4187.564,0,0
211,125,0,2687,4226.923,4200.641,4199.872,4170.0,4253.333,4178.846,4148.59,4182.436,4205.0,4141.154,4179.744000000001,4216.667,4196.41,4188.846,0,0
212,126,0,3428,4216.667,4195.255999999999,4198.205,4164.487,4248.077,4172.436,4176.923,4191.41,4198.718,4135.0,4173.718,4216.538,4204.744000000001,4186.154,0,0
213,127,0,53,4210.769,4195.0,4200.769,4168.333,4244.487,4183.846,4202.179,4187.9490000000005,4190.255999999999,4121.923,4163.077,4220.128,4189.615,4182.0509999999995,0,0
214,0,0,2885,4222.308,4205.255999999999,4204.103,4174.615,4244.615,4187.308,4194.744000000001,4192.308,4196.41,4123.333,4170.641,4225.769,4189.872,4193.974,0,0
215,1,0,3247,4223.846,4204.231,4200.641,4171.538,4236.538,4181.795,4200.128,4197.692,4197.179,4121.923,4173.077,4221.538,4201.795,4199.872,0,0
216,2,0,3270,4222.0509999999995,4203.077,4200.0,4173.718,4217.179,4183.974,4207.692,4205.128,4203.59,4125.897,4169.615,4223.205,4200.128,4200.128,0,0
217,3,0,3441,4239.872,4218.205,4208.974,4188.333,4219.487,4189.872,4211.41,4225.128,4219.744000000001,4147.9490000000005,4180.385,4235.255999999999,4204.615,4212.821,0,0
218,4,0,3520,4236.923,4214.487,4202.821,4179.487,4227.821,4183.846,4198.462,4197.0509999999995,4207.308,4145.897,4174.231,4225.385,4215.255999999999,4207.564,0,0
219,5,0,2879,4205.0,4185.641,4188.718,4152.564,4220.641,4178.59,4213.718,4216.538,4208.205,4125.128,4150.385,4209.615,4195.385,4184.487,0,0
220,6,0,3426,4203.974,4182.9490000000005,4197.692,4157.692,4220.255999999999,4186.41,4268.59,4300.0,4239.615,4136.667,4153.077,4227.179,4179.872,4191.923,0,0
221,7,0,2974,4218.333,4199.231,4205.897,4172.692,4226.41,4192.308,4244.615,4240.128,4223.718,4160.385,4163.59,4237.179,4199.487,4207.308,0,0
222,8,0,3209,4200.128,4189.615,4184.744000000001,4155.769,4216.41,4180.897,4156.41,4111.154,4179.615,4153.846,4147.179,4210.385,4203.974,4191.154,0,0
223,9,0,3595,4185.128,4174.615,4172.308,4144.487,4207.0509999999995,4172.564,4140.641,4144.615,4190.641,4142.308,4138.974,4200.769,4190.128,4180.769,0,0
224,10,0,3450,4202.436,4184.359,4193.846,4161.282,4219.487,4185.0,4187.436,4229.103,4223.077,4152.821,4156.795,4220.897,4198.077,4193.846,0,0
225,11,0,2613,4209.487,4188.59,4202.564,4164.487,4228.462,4186.795,4202.821,4213.59,4216.026,4173.974,4160.255999999999,4223.205,4205.641,4195.0,0,0
226,12,0,3420,4192.9490000000005,4174.103,4186.795,4146.41,4226.026,4170.255999999999,4196.026,4201.538,4200.513,4173.333,4148.333,4211.667,4186.923,4184.359,0,0
227,13,0,2697,4195.128,4177.9490000000005,4188.974,4152.308,4230.897,4173.462,4198.077,4224.487,4207.564,4149.615,4156.41,4224.359,4185.0,4183.333,0,0
228,14,0,3450,4212.436,4197.179,4205.513,4171.795,4239.615,4184.359,4194.487,4216.923,4214.103,4137.821,4171.923,4234.359,4198.846,4185.385,0,0
229,15,0,2613,4216.667,4198.333,4203.846,4165.128,4236.154,4175.513,4195.513,4204.231,4206.923,4139.103,4170.513,4221.154,4195.0,4184.487,0,0
230,16,0,0,4209.359,4190.897,4194.615,4153.59,4231.282,4168.077,4195.897,4194.744000000001,4198.462,4150.385,4164.615,4218.462,4191.538,4182.9490000000005,0,0
231,17,0,0,4214.231,4199.103,4207.0509999999995,4167.0509999999995,4234.615,4176.923,4190.769,4195.897,4200.769,4158.077,4170.128,4232.692,4193.718,4185.0,0,0
232,18,0,0,4227.564,4208.718,4217.308,4175.128,4233.462,4176.026,4177.564,4201.282,4200.897,4127.821,4168.077,4236.41,4180.0,4189.872,0,0
233,19,0,0,4223.974,4201.154,4206.667,4159.744000000001,4236.923,4169.615,4178.718,4192.179,4193.462,4108.974,4154.744000000001,4229.231,4172.9490000000005,4188.462,0,0
234,20,0,0,4214.872,4197.9490000000005,4201.795,4153.846,4250.769,4180.513,4202.436,4194.744000000001,4190.897,4148.333,4160.385,4230.641,4186.026,4185.128,0,0
235,21,0,0,4218.077,4205.0,4206.154,4160.641,4254.359,4182.436,4199.872,4199.872,4192.0509999999995,4182.308,4175.897,4231.538,4190.255999999999,4188.077,0,0
236,22,0,0,4217.821,4200.0,4203.59,4158.846,4248.462,4173.077,4180.641,4193.462,4196.41,4171.026,4175.0,4227.179,4190.769,4186.026,0,0
237,23,0,0,4215.513,4198.462,4206.795,4160.513,4253.59,4180.255999999999,4202.564,4226.282,4213.462,4165.0,4176.923,4230.128,4198.846,4184.487,0,0
238,24,0,0,4224.487,4212.692,4216.538,4173.846,4258.846,4189.359,4225.641,4246.154,4223.718,4172.692,4191.41,4236.667,4200.385,4193.333,0,0
239,25,0,0,4223.077,4209.487,4208.974,4170.255999999999,4253.333,4180.128,4191.026,4179.872,4203.718,4171.026,4193.974,4236.282,4201.538,4192.436,0,0
240,26,0,0,4203.077,4185.255999999999,4197.564,4153.462,4245.0,4176.154,4155.0,4133.462,4185.255999999999,4165.128,4185.128,4227.692,4206.795,4180.0,0,0
241,27,0,0,4195.641,4178.974,4199.231,4155.769,4238.077,4186.282,4166.795,4173.205,4183.333,4148.333,4173.462,4217.436,4193.462,4176.795,0,0
242,28,0,0,4206.923,4191.923,4204.487,4168.205,4233.462,4184.744000000001,4180.897,4193.974,4178.333,4135.128,4168.077,4214.103,4176.667,4181.667,0,0
243,29,0,0,4216.667,4199.744000000001,4213.462,4175.0,4231.282,4182.821,4189.615,4185.255999999999,4181.282,4143.846,4184.487,4223.718,4188.333,4190.0,0,0
244,30,0,0,4219.103,4203.077,4220.128,4181.538,4232.308,4192.308,4201.538,4206.795,4200.641,4159.872,4204.103,4233.333,4203.205,4200.0,0,0
245,31,0,0,4218.59,4204.487,4218.205,4186.026,4226.154,4198.333,4203.462,4219.487,4208.974,4162.179,4206.154,4233.077,4201.41,4201.538,0,0
246,32,0,0,4218.718,4202.692,4218.333,4182.308,4217.9490000000005,4198.333,4203.077,4215.513,4208.077,4155.897,4205.513,4233.846,4203.718,4198.59,0,0
247,33,0,0,4218.59,4201.026,4219.359,4180.385,4219.615,4194.359,4205.513,4216.154,4207.308,4150.769,4208.077,4239.231,4203.59,4199.487,0,0
248,34,0,0,4219.103,4203.846,4221.282,4186.026,4229.103,4193.462,4204.487,4217.564,4204.615,4149.231,4210.255999999999,4245.128,4197.564,4199.615,0,0
249,35,0,0,4225.255999999999,4208.59,4225.641,4186.795,4233.59,4196.538,4198.077,4219.359,4212.9490000000005,4161.41,4216.026,4247.179,4219.103,4199.359,0,0
250,36,0,0,4232.0509999999995,4209.615,4222.179,4183.59,4231.667,4197.692,4194.872,4217.9490000000005,4224.103,4171.282,4220.769,4246.282,4237.179,4203.462,0,0
251,37,0,0,4236.282,4212.436,4220.897,4185.641,4240.641,4199.103,4210.0,4221.795,4222.0509999999995,4165.385,4227.821,4247.9490000000005,4218.974,4209.103,0,0
252,38,0,0,4225.769,4205.385,4217.821,4181.923,4244.359,4196.026,4209.872,4215.385,4210.641,4151.795,4226.538,4241.795,4204.359,4202.821,0,0
253,39,0,0,4206.154,4190.0,4205.128,4168.205,4237.436,4192.821,4192.0509999999995,4208.205,4214.744000000001,4151.026,4212.692,4229.615,4217.564,4191.154,0,0
254,40,0,0,4206.154,4192.564,4203.846,4170.0,4242.564,4199.487,4209.487,4236.282,4235.385,4165.769,4218.205,4234.231,4228.59,4195.0,0,0
255,41,0,0,4218.846,4204.103,4216.667,4184.872,4249.744000000001,4206.154,4232.564,4253.846,4233.718,4167.692,4234.872,4246.538,4222.9490000000005,4205.0,0,0
256,42,0,0,4216.538,4201.41,4217.436,4185.128,4249.103,4197.179,4208.333,4212.821,4210.513,4150.769,4224.231,4238.462,4214.359,4202.308,0,0
257,43,0,0,4212.821,4198.462,4211.282,4182.692,4249.359,4192.821,4186.923,4186.538,4209.744000000001,4146.538,4210.641,4227.308,4211.538,4197.564,0,0
258,44,0,0,4223.077,4205.769,4217.308,4192.308,4237.9490000000005,4201.538,4206.282,4219.615,4228.077,4163.333,4222.436,4239.487,4216.41,4199.231,0,0
259,45,0,0,4223.974,4206.154,4220.641,4195.0,4228.974,4207.821,4225.385,4238.077,4226.026,4163.846,4225.128,4248.974,4216.026,4198.333,0,0
260,46,0,0,4217.564,4201.667,4218.205,4189.615,4246.282,4210.0,4220.385,4213.59,4215.0,4156.026,4217.0509999999995,4240.641,4215.897,4199.359,0,0
261,47,0,0,4215.255999999999,4199.231,4215.385,4186.923,4251.923,4204.359,4197.692,4196.41,4213.205,4162.179,4216.154,4233.077,4218.333,4195.897,0,0
262,48,0,0,4213.59,4197.9490000000005,4212.692,4185.255999999999,4239.487,4196.795,4186.026,4206.282,4216.154,4169.487,4216.795,4232.308,4218.333,4188.205,0,0
263,49,0,0,4212.9490000000005,4199.615,4212.821,4185.385,4241.026,4198.846,4197.9490000000005,4218.974,4214.872,4167.436,4216.538,4230.641,4214.487,4187.692,0,0
264,50,0,0,4215.385,4199.872,4213.974,4187.9490000000005,4242.179,4202.436,4203.59,4215.255999999999,4208.205,4159.744000000001,4216.154,4229.615,4206.282,4195.128,0,0
265,51,0,0,4215.641,4199.359,4216.538,4189.872,4232.179,4201.538,4202.436,4210.513,4207.0509999999995,4156.154,4213.462,4232.179,4206.41,4198.974,0,0
266,52,0,0,4206.923,4200.897,4213.59,4188.205,4230.641,4201.923,4211.026,4216.026,4216.154,4157.436,4213.974,4233.846,4216.41,4191.538,0,0
267,53,0,0,4199.744000000001,4195.769,4203.59,4184.615,4233.462,4206.282,4219.615,4221.923,4219.615,4156.282,4214.744000000001,4228.846,4214.744000000001,4183.846,0,0
268,54,0,0,4197.308,4187.692,4196.795,4181.538,4230.385,4205.897,4216.923,4217.436,4207.179,4143.462,4203.077,4219.359,4197.0509999999995,4181.667,0,0
269,55,0,0,4197.308,4192.308,4197.692,4182.179,4230.255999999999,4202.564,4208.462,4210.641,4201.026,4132.821,4195.769,4219.487,4194.872,4183.333,0,0
270,56,0,0,4206.667,4203.846,4203.846,4187.692,4239.872,4208.846,4219.744000000001,4220.513,4217.436,4144.744000000001,4210.641,4230.128,4214.103,4192.692,0,0
271,57,0,0,4214.103,4204.872,4206.667,4188.974,4248.462,4212.436,4232.821,4234.487,4229.103,4152.436,4221.795,4234.872,4219.744000000001,4198.205,0,0
272,58,0,0,4210.128,4200.255999999999,4203.974,4185.897,4248.846,4202.9490000000005,4214.872,4225.128,4220.0,4142.821,4216.282,4231.154,4215.0,4193.846,0,0
273,59,0,0,4211.923,4202.692,4206.282,4190.385,4252.692,4199.359,4204.231,4226.282,4218.59,4145.513,4218.718,4232.436,4222.564,4194.487,0,0
274,60,0,0,4225.255999999999,4211.923,4217.308,4200.255999999999,4261.923,4205.255999999999,4219.359,4248.205,4233.846,4154.359,4232.692,4242.436,4228.462,4201.538,0,0
275,61,0,0,4229.872,4217.179,4221.923,4201.282,4261.154,4202.9490000000005,4205.128,4224.872,4226.795,4142.564,4230.255999999999,4243.462,4217.821,4200.641,0,0
276,62,0,0,4229.872,4213.846,4217.179,4200.385,4256.795,4199.487,4180.513,4183.205,4202.564,4133.59,4221.154,4236.795,4217.436,4197.308,0,0
277,63,0,0,4223.077,4205.641,4209.231,4199.359,4255.255999999999,4202.692,4194.487,4190.128,4196.923,4133.333,4217.179,4232.308,4218.846,4191.538,0,0
278,64,0,2889,4203.846,4195.641,4198.333,4186.154,4250.0,4203.462,4211.154,4211.282,4200.513,4119.487,4206.026,4222.692,4203.333,4179.359,0,0
279,65,0,3248,4202.0509999999995,4191.41,4194.744000000001,4179.103,4245.897,4202.0509999999995,4205.255999999999,4209.103,4199.744000000001,4116.026,4200.769,4217.308,4199.231,4183.333,0,0
280,66,0,3271,4218.333,4202.179,4202.564,4193.718,4245.769,4201.282,4203.333,4212.692,4210.128,4138.333,4216.923,4229.615,4219.872,4200.897,0,0
281,67,0,3441,4220.385,4212.821,4205.897,4204.359,4249.103,4208.462,4220.641,4229.359,4218.718,4147.308,4227.308,4236.41,4228.718,4204.487,0,0
282,68,0,3520,4214.487,4206.795,4202.0509999999995,4198.462,4250.128,4217.9490000000005,4234.231,4230.255999999999,4216.154,4136.923,4218.718,4228.333,4218.077,4198.205,0,0
283,69,0,2878,4218.462,4198.205,4201.795,4194.359,4245.769,4216.026,4220.255999999999,4224.872,4220.769,4139.359,4218.462,4231.538,4218.333,4200.897,0,0
284,70,0,3437,4214.487,4201.026,4203.718,4199.359,4243.974,4210.769,4202.0509999999995,4217.564,4216.026,4139.359,4218.462,4232.9490000000005,4215.641,4202.564,0,0
285,71,0,2973,4207.0509999999995,4206.154,4200.255999999999,4200.513,4246.667,4212.436,4210.641,4211.923,4191.282,4120.128,4202.821,4221.026,4193.333,4192.821,0,0
286,72,0,3214,4215.128,4205.897,4201.538,4200.128,4251.026,4218.462,4234.103,4231.41,4191.026,4120.897,4203.59,4224.487,4191.154,4191.795,0,0
287,73,0,3580,4216.026,4201.154,4206.154,4202.308,4247.821,4217.692,4229.744000000001,4235.641,4211.154,4142.179,4216.41,4232.821,4210.255999999999,4201.282,0,0
288,74,0,3427,4200.769,4198.205,4195.769,4195.769,4236.795,4204.615,4195.513,4187.308,4195.897,4132.564,4205.641,4219.487,4201.282,4197.0509999999995,0,0
289,75,0,2611,4193.205,4199.359,4186.795,4187.564,4229.744000000001,4199.872,4198.077,4170.897,4175.0,4110.385,4188.462,4206.41,4183.333,4184.615,0,0
290,76,0,3411,4200.641,4199.103,4195.513,4192.564,4231.667,4211.667,4236.026,4221.282,4194.487,4125.128,4195.897,4212.821,4203.205,4187.9490000000005,0,0
291,77,0,2695,4208.59,4201.154,4202.692,4201.282,4233.59,4213.974,4225.255999999999,4226.026,4206.41,4144.872,4208.846,4219.103,4222.179,4200.641,0,0
292,78,0,3427,4215.0,4210.385,4205.769,4203.077,4233.077,4207.692,4186.538,4188.846,4192.179,4140.255999999999,4213.718,4221.667,4214.359,4204.487,0,0
293,79,0,2611,4218.333,4216.026,4216.026,4205.128,4234.744000000001,4211.41,4195.897,4202.308,4193.59,4143.974,4218.205,4232.564,4211.795,4203.59,0,0
294,80,0,3411,4216.667,4213.718,4221.026,4207.308,4235.385,4217.0509999999995,4219.872,4227.821,4206.026,4154.744000000001,4219.103,4238.205,4218.333,4203.718,0,0
295,81,0,2695,4216.154,4212.436,4215.0,4205.385,4233.846,4213.718,4220.897,4221.41,4206.282,4147.821,4218.462,4229.103,4216.538,4201.923,0,0
296,82,0,3427,4216.923,4214.103,4213.333,4205.0,4231.538,4206.795,4217.179,4215.128,4201.667,4137.692,4215.385,4222.179,4211.026,4201.154,0,0
297,83,0,2611,4217.692,4215.385,4216.667,4203.974,4227.564,4200.513,4204.103,4216.667,4200.897,4143.974,4212.821,4227.436,4215.897,4202.436,0,0
298,84,0,3411,4217.821,4214.872,4216.795,4204.872,4225.513,4196.41,4192.0509999999995,4214.744000000001,4208.846,4153.462,4222.0509999999995,4232.0509999999995,4224.615,4203.974,0,0
299,85,0,2695,4219.103,4217.308,4218.462,4214.103,4232.308,4202.0509999999995,4207.821,4219.103,4217.436,4158.205,4232.0509999999995,4232.9490000000005,4224.872,4208.205,0,0
300,86,0,3427,4221.154,4225.641,4220.0,4220.641,4241.667,4208.462,4219.231,4220.0,4207.308,4154.615,4225.897,4230.0,4216.667,4209.359,0,0
301,87,0,2611,4218.718,4226.41,4212.9490000000005,4211.154,4237.308,4205.0,4201.282,4201.282,4195.769,4142.179,4209.103,4219.231,4213.462,4202.9490000000005,0,0
302,88,0,3411,4214.744000000001,4215.128,4205.897,4203.846,4227.9490000000005,4203.462,4196.923,4196.41,4200.0,4135.385,4205.0,4211.538,4216.667,4197.179,0,0
303,89,0,2695,4213.59,4212.179,4210.255999999999,4211.923,4231.154,4213.077,4223.462,4229.744000000001,4202.0509999999995,4138.205,4214.359,4216.667,4214.359,4198.462,0,0
304,90,0,3427,4217.308,4219.615,4219.359,4215.897,4238.333,4220.255999999999,4237.9490000000005,4242.308,4205.641,4144.103,4219.744000000001,4222.9490000000005,4215.513,4202.436,0,0
305,91,0,2611,4215.255999999999,4212.9490000000005,4213.974,4207.692,4235.128,4213.205,4212.821,4208.077,4210.385,4142.0509999999995,4211.026,4219.872,4215.0,4201.923,0,0
306,92,0,3411,4206.282,4198.846,4199.872,4197.692,4229.103,4200.897,4176.282,4181.41,4194.744000000001,4130.769,4197.436,4211.795,4202.308,4196.795,0,0
307,93,0,2695,4206.41,4203.333,4202.821,4198.205,4230.513,4201.667,4182.436,4196.026,4184.744000000001,4128.59,4199.487,4212.692,4201.41,4197.179,0,0
308,94,0,3427,4220.513,4218.333,4221.026,4209.872,4235.641,4217.308,4222.692,4217.436,4201.795,4141.795,4215.897,4224.615,4219.231,4205.385,0,0
309,95,0,2611,4226.667,4219.359,4222.564,4216.026,4235.0,4216.282,4219.744000000001,4204.487,4201.538,4140.641,4213.718,4223.59,4215.0,4204.231,0,0
310,96,0,3411,4221.026,4212.436,4212.821,4211.795,4232.0509999999995,4200.513,4189.359,4190.769,4190.255999999999,4129.872,4197.9490000000005,4214.103,4201.154,4198.846,0,0
311,97,0,2695,4226.667,4219.231,4222.821,4214.103,4234.103,4204.744000000001,4199.103,4206.795,4204.103,4145.513,4212.564,4224.231,4220.897,4207.308,0,0
312,98,0,3427,4235.513,4224.487,4233.205,4218.846,4233.333,4211.41,4218.718,4220.641,4211.154,4161.538,4235.0,4234.103,4229.872,4216.923,0,0
313,99,0,2611,4235.385,4220.0,4231.795,4217.436,4230.641,4209.103,4225.769,4228.846,4207.436,4155.255999999999,4233.462,4233.077,4210.0,4219.103,0,0
314,100,0,3411,4232.692,4214.744000000001,4233.462,4219.231,4234.103,4215.0,4230.513,4235.128,4215.769,4154.615,4232.692,4238.846,4217.564,4218.205,0,0
315,101,0,2695,4222.821,4204.615,4227.179,4212.436,4228.974,4212.692,4208.333,4211.026,4209.231,4156.795,4229.872,4235.128,4231.026,4207.436,0,0
316,102,0,3427,4214.103,4198.205,4214.487,4202.0509999999995,4218.205,4205.255999999999,4194.487,4191.538,4192.308,4148.205,4216.41,4221.923,4219.103,4199.359,0,0
317,103,0,2611,4221.41,4206.282,4213.718,4207.9490000000005,4221.538,4214.744000000001,4224.487,4220.385,4207.9490000000005,4155.0,4220.0,4227.0509999999995,4225.255999999999,4209.103,0,0
318,104,0,3411,4229.359,4216.538,4225.897,4217.9490000000005,4229.744000000001,4224.231,4242.308,4243.59,4237.308,4178.974,4242.9490000000005,4239.615,4249.487,4219.103,0,0
319,105,0,2695,4221.923,4214.487,4228.462,4216.154,4229.359,4218.205,4225.255999999999,4226.026,4232.692,4177.564,4246.026,4235.897,4244.231,4217.0509999999995,0,0
320,106,0,3427,4218.205,4211.154,4222.0509999999995,4212.692,4227.0509999999995,4216.923,4225.128,4221.538,4212.308,4158.077,4233.077,4231.154,4226.026,4216.538,0,0
321,107,0,2611,4220.255999999999,4211.795,4222.308,4215.255999999999,4226.154,4220.255999999999,4247.308,4252.0509999999995,4216.538,4158.077,4231.538,4234.744000000001,4221.026,4215.385,0,0
322,108,0,3411,4216.154,4208.59,4225.128,4210.255999999999,4218.59,4214.359,4236.795,4240.385,4221.667,4160.897,4231.41,4232.308,4218.077,4209.744000000001,0,0
323,109,0,2695,4223.718,4213.205,4228.462,4208.59,4217.308,4208.462,4208.846,4217.308,4212.692,4158.718,4232.692,4233.205,4221.667,4215.641,0,0
324,110,0,3427,4232.9490000000005,4218.974,4232.9490000000005,4218.205,4229.487,4217.821,4234.231,4253.59,4223.974,4172.692,4243.59,4240.897,4236.282,4225.641,0,0
325,111,0,2611,4211.41,4204.103,4219.487,4209.872,4229.615,4224.103,4255.128,4243.462,4228.718,4169.231,4235.897,4224.359,4235.385,4212.564,0,0
326,112,0,3411,4188.077,4189.103,4195.897,4188.846,4211.923,4206.795,4200.513,4170.513,4203.333,4144.872,4210.897,4197.436,4223.077,4194.359,0,0
327,113,0,2695,4197.692,4197.179,4199.359,4190.641,4206.282,4192.179,4164.359,4176.41,4192.436,4146.026,4211.154,4207.564,4219.103,4199.872,0,0
328,114,0,3427,4209.487,4205.513,4216.667,4204.872,4216.923,4202.308,4201.923,4231.41,4203.205,4160.641,4228.846,4234.231,4219.103,4209.231,0,0
329,115,0,2611,4200.769,4197.9490000000005,4215.128,4201.538,4217.308,4211.667,4218.974,4227.436,4208.462,4155.897,4229.359,4233.077,4216.667,4201.795,0,0
330,116,0,3411,4200.769,4197.564,4212.9490000000005,4197.436,4211.923,4205.385,4198.462,4216.538,4210.641,4154.231,4228.462,4227.821,4217.9490000000005,4200.897,0,0
331,117,0,2695,4209.615,4204.359,4219.872,4202.308,4210.385,4201.538,4201.154,4228.077,4210.385,4157.308,4232.564,4235.769,4218.333,4209.359,0,0
332,118,0,3427,4208.462,4199.872,4215.513,4200.769,4205.513,4204.231,4212.436,4224.615,4203.462,4144.615,4220.0,4228.974,4209.359,4206.667,0,0
333,119,0,2611,4198.333,4190.641,4202.821,4195.255999999999,4201.154,4205.255999999999,4208.59,4217.0509999999995,4201.282,4127.9490000000005,4198.846,4206.667,4194.744000000001,4200.128,0,0
334,120,0,3411,4187.564,4185.513,4196.41,4186.41,4200.385,4203.718,4203.462,4213.077,4201.282,4118.59,4188.974,4197.436,4187.821,4196.795,0,0
335,121,0,2695,4190.385,4186.154,4200.0,4185.0,4203.077,4202.0509999999995,4204.487,4219.487,4201.795,4125.255999999999,4194.872,4208.205,4196.795,4196.154,0,0
336,122,0,3427,4201.923,4191.154,4203.718,4193.333,4206.923,4200.513,4200.0,4221.41,4205.513,4141.795,4209.359,4217.564,4207.308,4199.615,0,0
337,123,0,2611,4198.462,4193.333,4199.872,4192.308,4206.154,4198.333,4195.128,4203.974,4201.795,4140.513,4211.923,4214.744000000001,4205.0,4201.538,0,0
338,124,0,3411,4188.59,4189.744000000001,4197.179,4185.513,4204.103,4200.0,4204.231,4201.41,4192.564,4130.255999999999,4205.769,4213.59,4201.026,4198.846,0,0
339,125,0,2695,4191.795,4187.436,4198.974,4185.385,4206.795,4200.0,4199.615,4210.513,4192.179,4132.564,4206.282,4213.974,4200.641,4198.077,0,0
340,126,0,3427,4197.692,4189.487,4201.026,4189.359,4211.538,4197.436,4182.308,4200.769,4197.179,4135.128,4206.923,4214.103,4202.821,4201.795,0,0
341,127,0,53,4197.9490000000005,4190.0,4201.667,4191.538,4216.538,4198.333,4193.205,4199.615,4194.744000000001,4127.436,4201.41,4212.821,4198.205,4203.59,0,0
342,0,0,2884,4197.0509999999995,4190.0,4196.41,4193.077,4220.385,4200.769,4208.462,4206.538,4185.641,4123.462,4199.615,4205.897,4187.308,4203.974,0,0
343,1,0,3247,4190.641,4191.667,4186.41,4189.359,4217.436,4200.641,4193.718,4186.538,4181.154,4124.487,4199.231,4196.538,4189.359,4197.821,0,0
344,2,0,3269,4184.103,4195.0,4185.128,4187.308,4213.077,4195.385,4178.718,4174.615,4187.692,4124.359,4197.308,4199.103,4198.718,4193.462,0,0
345,3,0,3436,4188.974,4200.513,4193.462,4193.077,4215.513,4193.846,4187.436,4201.282,4200.641,4134.231,4205.897,4212.821,4203.333,4199.359,0,0
346,4,0,3517,4188.59,4198.59,4190.0,4190.641,4216.795,4196.923,4189.744000000001,4210.769,4196.667,4142.436,4208.077,4211.026,4201.154,4196.538,0,0
347,5,0,2878,4180.255999999999,4193.077,4182.9490000000005,4187.0509999999995,4213.974,4196.795,4181.282,4192.0509999999995,4180.513,4135.385,4193.718,4197.308,4196.282,4187.821,0,0
348,6,0,3425,4187.9490000000005,4197.9490000000005,4193.462,4194.872,4213.974,4196.282,4191.795,4197.9490000000005,4190.769,4138.846,4198.59,4204.487,4204.744000000001,4197.179,0,0
349,7,0,2976,4205.255999999999,4205.128,4206.667,4202.692,4217.9490000000005,4202.436,4211.795,4217.436,4206.923,4149.359,4215.769,4222.692,4215.513,4210.513,0,0
350,8,0,3218,4207.9490000000005,4206.026,4205.641,4203.333,4218.974,4205.897,4212.821,4216.923,4200.385,4141.026,4209.872,4219.359,4204.359,4204.872,0,0
351,9,0,3597,4200.255999999999,4198.077,4201.282,4201.795,4214.103,4200.128,4194.615,4205.385,4196.026,4133.974,4197.179,4211.154,4194.744000000001,4197.564,0,0
352,10,0,3435,4199.359,4190.0,4203.462,4199.487,4211.026,4198.077,4190.255999999999,4204.615,4200.641,4142.0509999999995,4202.821,4220.513,4207.692,4202.0509999999995,0,0
353,11,0,2614,4201.282,4198.205,4205.128,4200.255999999999,4215.897,4204.487,4214.872,4214.744000000001,4200.255999999999,4135.513,4202.692,4218.205,4203.974,4200.0,0,0
354,12,0,3422,4199.359,4211.154,4197.308,4204.487,4218.205,4206.923,4219.872,4209.872,4188.974,4114.231,4183.205,4200.641,4184.103,4190.385,0,0
355,13,0,2697,4196.538,4204.615,4187.436,4200.897,4206.538,4196.026,4182.436,4190.385,4170.255999999999,4102.821,4169.615,4193.077,4180.0,4182.692,0,0
356,14,0,3435,4196.667,4197.179,4189.487,4197.564,4198.077,4188.333,4160.513,4179.103,4167.9490000000005,4106.538,4177.308,4195.897,4189.359,4184.359,0,0
357,15,0,2614,4199.103,4203.205,4197.308,4201.41,4206.41,4197.436,4181.795,4185.0,4185.897,4118.59,4189.103,4197.564,4200.641,4195.0,0,0
358,16,0,0,4202.436,4205.385,4201.282,4203.846,4211.538,4204.103,4193.077,4188.846,4189.231,4126.41,4191.538,4201.923,4204.744000000001,4201.538,0,0
359,17,0,0,4199.231,4202.821,4197.9490000000005,4201.538,4205.385,4196.282,4181.41,4177.179,4167.436,4116.923,4186.282,4204.744000000001,4194.615,4192.564,0,0
360,18,0,0,4186.538,4199.359,4188.718,4197.308,4200.0,4192.436,4179.615,4166.923,4148.846,4099.744000000001,4179.487,4198.077,4175.385,4178.718,0,0
361,19,0,0,4189.744000000001,4199.487,4191.41,4196.538,4200.897,4198.462,4185.128,4176.154,4153.462,4107.564,4187.179,4203.718,4174.744000000001,4190.385,0,0
362,20,0,0,4207.0509999999995,4210.128,4205.641,4201.795,4208.462,4201.282,4190.641,4191.667,4172.564,4126.41,4203.077,4219.487,4186.282,4212.436,0,0
363,21,0,0,4209.103,4216.026,4208.333,4205.255999999999,4215.513,4201.026,4200.641,4198.333,4184.487,4126.282,4201.667,4219.872,4184.487,4209.359,0,0
364,22,0,0,4198.205,4207.0509999999995,4201.41,4202.564,4215.897,4201.41,4205.641,4201.154,4184.872,4127.692,4195.0,4215.897,4188.333,4199.615,0,0
365,23,0,0,4188.205,4198.333,4200.0,4197.9490000000005,4214.744000000001,4200.513,4198.718,4197.564,4184.744000000001,4136.667,4194.359,4214.231,4201.41,4199.231,0,0
366,24,0,0,4185.0,4199.615,4201.795,4196.923,4218.462,4201.795,4202.179,4199.487,4186.41,4130.0,4188.846,4207.692,4196.538,4195.769,0,0
367,25,0,0,4193.462,4201.282,4202.179,4200.513,4213.846,4203.974,4213.846,4205.0,4184.872,4119.487,4183.333,4207.821,4181.282,4192.436,0,0
368,26,0,0,4201.923,4198.462,4201.923,4201.41,4204.487,4201.795,4199.744000000001,4196.795,4183.077,4123.333,4186.923,4216.282,4184.103,4198.205,0,0
369,27,0,0,4200.255999999999,4198.077,4202.821,4197.821,4205.255999999999,4198.718,4188.462,4203.59,4185.897,4124.231,4186.923,4217.436,4187.9490000000005,4201.795,0,0
370,28,0,0,4199.231,4200.897,4207.179,4199.744000000001,4210.641,4203.077,4214.231,4216.026,4188.59,4123.718,4185.385,4215.641,4182.9490000000005,4197.9490000000005,0,0
371,29,0,0,4192.564,4193.333,4203.974,4199.103,4205.769,4203.077,4208.718,4188.205,4178.974,4119.487,4185.128,4209.103,4178.462,4189.872,0,0
372,30,0,0,4178.974,4182.308,4192.9490000000005,4191.41,4199.615,4194.872,4162.9490000000005,4156.795,4166.282,4107.821,4178.333,4196.41,4178.333,4183.846,0,0
373,31,0,0,4186.026,4192.9490000000005,4198.077,4197.0509999999995,4210.255999999999,4197.0509999999995,4176.41,4184.744000000001,4177.0509999999995,4121.41,4187.564,4204.744000000001,4188.205,4195.641,0,0
374,32,0,0,4205.769,4208.974,4212.436,4209.615,4216.795,4202.564,4215.255999999999,4219.103,4195.513,4142.692,4204.103,4223.974,4192.564,4210.128,0,0
375,33,0,0,4199.231,4195.897,4205.513,4200.255999999999,4199.872,4190.128,4181.923,4192.564,4182.564,4128.333,4193.974,4218.333,4183.59,4201.667,0,0
376,34,0,0,4182.692,4181.41,4193.718,4188.974,4188.59,4178.462,4145.641,4163.718,4166.41,4113.205,4183.718,4207.179,4180.641,4193.462,0,0
377,35,0,0,4191.154,4192.821,4204.359,4196.923,4198.718,4189.231,4170.641,4182.692,4182.821,4133.59,4202.179,4220.513,4189.872,4206.282,0,0
378,36,0,0,4204.359,4205.897,4217.179,4207.9490000000005,4208.718,4200.513,4196.538,4210.255999999999,4203.59,4153.205,4219.359,4233.205,4198.333,4218.59,0,0
379,37,0,0,4205.255999999999,4208.205,4219.487,4210.641,4210.0,4200.0,4198.462,4207.436,4204.359,4151.923,4218.718,4226.282,4201.795,4216.41,0,0
380,38,0,0,4203.205,4204.872,4214.231,4207.308,4207.821,4198.974,4198.59,4195.0,4194.872,4142.0509999999995,4210.0,4216.667,4199.231,4211.154,0,0
381,39,0,0,4200.897,4198.59,4205.513,4198.59,4200.0,4197.564,4192.9490000000005,4201.026,4189.231,4132.9490000000005,4202.692,4217.308,4194.872,4213.077,0,0
382,40,0,0,4205.255999999999,4199.359,4207.179,4196.282,4196.538,4194.487,4183.205,4203.718,4192.821,4142.308,4210.128,4225.897,4200.385,4217.821,0,0
383,41,0,0,4213.333,4207.564,4220.769,4207.692,4201.667,4196.538,4195.641,4199.744000000001,4200.255999999999,4156.923,4220.769,4233.205,4203.59,4218.205,0,0
384,42,0,0,4208.846,4206.41,4227.0509999999995,4213.333,4204.103,4204.359,4221.923,4208.974,4200.385,4152.9490000000005,4216.026,4232.821,4194.744000000001,4214.359,0,0
385,43,0,0,4200.641,4199.744000000001,4222.0509999999995,4206.282,4201.667,4203.718,4217.308,4216.026,4199.103,4148.205,4212.436,4226.923,4195.385,4215.769,0,0
386,44,0,0,4200.255999999999,4202.0509999999995,4214.103,4201.026,4197.308,4192.436,4183.846,4197.564,4203.59,4161.154,4221.026,4225.385,4212.0509999999995,4217.564,0,0
387,45,0,0,4192.692,4198.59,4203.205,4200.0,4190.385,4185.0,4167.692,4180.641,4199.487,4165.255999999999,4217.0509999999995,4223.333,4210.641,4209.359,0,0
388,46,0,0,4183.59,4189.103,4198.718,4199.487,4188.333,4187.9490000000005,4178.333,4187.821,4188.077,4148.59,4202.179,4215.255999999999,4187.821,4201.795,0,0
389,47,0,0,4185.385,4188.077,4201.795,4197.564,4189.359,4190.641,4185.513,4184.359,4179.103,4135.0,4195.128,4210.897,4180.385,4200.128,0,0
390,48,0,0,4189.103,4195.385,4205.0,4197.692,4187.308,4187.692,4182.821,4177.692,4180.897,4140.641,4196.282,4215.513,4194.359,4200.513,0,0
391,49,0,0,4191.41,4202.308,4207.692,4202.436,4186.667,4187.436,4182.436,4197.564,4196.154,4157.308,4205.897,4219.615,4206.026,4204.872,0,0
392,50,0,0,4189.103,4198.333,4201.282,4200.513,4186.923,4188.333,4184.359,4206.538,4197.564,4153.59,4205.769,4209.615,4198.333,4204.872,0,0
393,51,0,0,4184.872,4189.487,4195.255999999999,4190.769,4182.9490000000005,4186.282,4184.359,4187.179,4175.897,4133.718,4191.282,4197.564,4183.59,4198.462,0,0
394,52,0,0,4186.923,4192.564,4198.846,4192.692,4183.333,4186.282,4182.564,4181.154,4170.769,4131.667,4188.205,4199.103,4183.205,4200.255999999999,0,0
395,53,0,0,4188.718,4199.487,4202.564,4200.513,4188.205,4189.103,4184.744000000001,4197.0509999999995,4189.487,4141.538,4200.769,4209.872,4188.846,4206.282,0,0
396,54,0,0,4186.667,4195.0,4201.026,4196.282,4187.564,4187.436,4187.821,4203.59,4194.615,4147.0509999999995,4205.255999999999,4220.0,4188.846,4202.9490000000005,0,0
397,55,0,0,4184.231,4187.564,4195.128,4188.462,4184.231,4184.359,4187.821,4199.872,4183.462,4146.923,4194.487,4218.077,4189.359,4197.692,0,0
398,56,0,0,4181.538,4185.255999999999,4190.641,4186.282,4183.846,4189.615,4187.9490000000005,4197.564,4183.59,4142.308,4190.0,4203.333,4188.205,4197.821,0,0
399,57,0,0,4183.462,4186.41,4197.436,4187.9490000000005,4185.385,4200.641,4202.692,4203.846,4196.154,4144.744000000001,4196.41,4201.667,4187.821,4200.128,0,0
400,58,0,0,4187.179,4188.205,4202.179,4188.846,4186.026,4199.744000000001,4210.0,4208.333,4194.231,4145.641,4194.872,4212.821,4184.231,4202.179,0,0
401,59,0,0,4179.103,4180.0,4190.255999999999,4180.385,4179.744000000001,4185.0,4179.744000000001,4187.564,4172.308,4130.128,4184.103,4207.564,4170.0,4200.385,0,0
402,60,0,0,4171.026,4174.103,4181.154,4174.487,4175.897,4178.718,4152.821,4166.923,4162.821,4123.462,4181.154,4196.41,4165.385,4194.103,0,0
403,61,0,0,4177.564,4183.333,4185.513,4182.436,4183.462,4185.0,4160.769,4175.128,4178.59,4138.59,4186.795,4198.59,4181.41,4192.692,0,0
404,62,0,0,4185.0,4190.641,4186.795,4189.231,4189.359,4189.231,4172.179,4188.718,4186.923,4146.41,4190.769,4201.795,4194.103,4198.333,0,0
405,63,0,0,4186.923,4190.0,4187.564,4191.282,4188.462,4190.0,4176.923,4196.538,4185.513,4148.462,4199.487,4201.538,4198.718,4202.9490000000005,0,0
406,64,0,2879,4183.718,4188.077,4187.564,4188.974,4186.154,4187.308,4182.564,4198.59,4189.231,4156.282,4200.641,4201.538,4202.308,4200.641,0,0
407,65,0,3242,4179.103,4183.59,4184.103,4183.333,4184.103,4186.538,4188.59,4200.128,4188.718,4152.179,4194.103,4197.564,4192.436,4197.308,0,0
408,66,0,3265,4182.0509999999995,4187.0509999999995,4191.538,4189.744000000001,4188.205,4197.179,4200.513,4212.821,4186.026,4143.59,4197.564,4200.385,4182.564,4199.359,0,0
409,67,0,3434,4188.462,4199.231,4201.154,4201.667,4190.128,4198.333,4195.641,4204.744000000001,4185.513,4143.462,4199.487,4203.462,4187.821,4201.538,0,0
410,68,0,3512,4193.205,4200.128,4199.103,4199.872,4184.872,4187.436,4177.0509999999995,4178.205,4190.128,4151.795,4203.59,4201.282,4200.0,4208.59,0,0
411,69,0,2877,4202.692,4199.744000000001,4200.385,4199.744000000001,4191.923,4199.103,4209.359,4203.205,4205.641,4168.59,4219.359,4210.513,4213.205,4215.897,0,0
412,70,0,3413,4202.436,4202.308,4201.282,4203.077,4198.205,4205.513,4229.744000000001,4226.538,4201.282,4162.436,4210.897,4208.974,4204.744000000001,4207.179,0,0
413,71,0,2958,4182.821,4190.0,4186.026,4189.359,4182.564,4178.59,4164.615,4172.564,4168.077,4135.0,4180.255999999999,4186.795,4180.641,4192.821,0,0
414,72,0,3200,4179.359,4182.436,4180.897,4182.0509999999995,4176.026,4169.359,4127.9490000000005,4143.59,4167.692,4139.103,4185.769,4187.9490000000005,4187.308,4199.359,0,0
415,73,0,3578,4194.359,4193.59,4194.615,4196.41,4187.692,4188.205,4166.667,4182.436,4198.718,4164.231,4210.769,4207.308,4211.154,4208.974,0,0
416,74,0,3420,4198.077,4200.385,4193.846,4199.872,4182.436,4189.359,4179.103,4192.692,4194.359,4157.564,4200.769,4202.564,4197.179,4201.538,0,0
417,75,0,2603,4194.487,4198.59,4185.897,4195.0,4174.615,4182.9490000000005,4170.255999999999,4180.769,4178.59,4148.077,4191.795,4195.897,4182.308,4200.255999999999,0,0
418,76,0,3406,4190.385,4195.897,4187.0509999999995,4196.667,4179.872,4187.564,4182.436,4192.564,4184.231,4155.128,4202.692,4204.103,4194.487,4206.282,0,0
419,77,0,2693,4182.308,4187.692,4185.128,4192.564,4176.282,4186.538,4180.0,4193.205,4180.641,4143.59,4196.667,4201.538,4187.821,4201.282,0,0
420,78,0,3420,4179.872,4182.692,4181.154,4183.718,4169.231,4182.821,4171.923,4177.564,4172.821,4136.538,4187.308,4194.487,4183.333,4196.923,0,0
421,79,0,2603,4188.077,4188.462,4186.538,4185.769,4171.154,4189.103,4188.718,4191.795,4183.846,4151.795,4198.59,4198.974,4199.744000000001,4202.692,0,0
422,80,0,3406,4196.795,4196.538,4195.0,4195.255999999999,4172.821,4189.231,4190.897,4212.436,4193.205,4156.795,4206.154,4203.205,4193.974,4205.128,0,0
423,81,0,2693,4197.564,4197.692,4194.615,4197.9490000000005,4170.0,4183.59,4180.0,4191.667,4185.897,4148.077,4197.9490000000005,4200.385,4184.359,4202.821,0,0
424,82,0,3420,4192.436,4190.641,4189.103,4192.0509999999995,4170.0,4187.0509999999995,4191.923,4177.564,4177.179,4144.744000000001,4191.923,4197.179,4199.231,4199.231,0,0
425,83,0,2603,4186.154,4183.718,4184.615,4183.846,4168.59,4187.308,4195.0,4203.333,4172.0509999999995,4143.077,4188.205,4196.154,4197.179,4190.128,0,0
426,84,0,3406,4183.59,4183.974,4183.59,4181.41,4166.282,4174.744000000001,4166.538,4197.821,4167.436,4136.41,4180.385,4194.744000000001,4177.692,4187.436,0,0
427,85,0,2693,4183.333,4183.718,4184.103,4180.513,4164.872,4170.641,4147.564,4161.795,4171.154,4137.564,4179.615,4196.795,4185.385,4198.846,0,0
428,86,0,3420,4186.795,4180.128,4186.026,4177.564,4161.795,4182.308,4156.667,4170.385,4178.333,4148.59,4185.769,4197.821,4197.0509999999995,4199.872,0,0
429,87,0,2603,4185.769,4179.744000000001,4184.872,4177.179,4156.923,4180.641,4159.744000000001,4190.128,4167.692,4143.205,4180.385,4189.231,4177.308,4186.667,0,0
430,88,0,3406,4184.744000000001,4183.462,4184.103,4179.103,4153.846,4172.436,4159.359,4179.744000000001,4160.897,4131.026,4172.821,4187.436,4169.103,4187.821,0,0
431,89,0,2693,4193.846,4186.667,4190.897,4184.231,4156.41,4180.641,4173.462,4181.538,4177.9490000000005,4146.667,4182.821,4201.026,4193.462,4202.564,0,0
432,90,0,3420,4195.255999999999,4187.436,4192.9490000000005,4186.923,4157.9490000000005,4187.308,4180.255999999999,4193.077,4183.59,4158.333,4188.333,4200.385,4200.385,4205.128,0,0
433,91,0,2603,4177.0509999999995,4180.513,4184.103,4180.255999999999,4154.744000000001,4182.0509999999995,4178.846,4188.077,4168.846,4137.308,4176.923,4186.026,4177.9490000000005,4193.718,0,0
434,92,0,3406,4169.103,4171.026,4181.154,4173.974,4155.769,4179.615,4177.821,4184.231,4170.255999999999,4132.564,4175.255999999999,4189.744000000001,4175.385,4191.41,0,0
435,93,0,2693,4184.615,4176.026,4196.795,4184.487,4167.308,4187.179,4185.513,4189.744000000001,4184.231,4154.872,4189.103,4205.641,4195.769,4202.692,0,0
436,94,0,3420,4187.821,4184.615,4203.718,4192.0509999999995,4169.872,4188.846,4189.872,4188.333,4174.872,4148.205,4191.538,4205.513,4183.333,4206.282,0,0
437,95,0,2603,4175.255999999999,4174.744000000001,4188.718,4179.872,4157.0509999999995,4183.59,4179.231,4189.872,4166.026,4128.846,4180.769,4197.308,4161.923,4199.359,0,0
438,96,0,3406,4178.462,4164.872,4185.128,4173.974,4154.359,4181.795,4163.333,4194.872,4182.436,4144.487,4182.9490000000005,4198.846,4185.769,4198.846,0,0
439,97,0,2693,4190.128,4176.154,4194.744000000001,4185.0,4167.179,4184.872,4168.846,4188.59,4185.385,4161.923,4194.487,4203.846,4206.282,4204.103,0,0
440,98,0,3420,4188.59,4185.0,4193.077,4191.667,4169.615,4188.59,4188.59,4188.974,4168.333,4152.0509999999995,4197.564,4203.974,4183.59,4203.974,0,0
441,99,0,2603,4181.923,4175.128,4183.59,4181.667,4158.205,4182.0509999999995,4170.641,4183.974,4167.0509999999995,4145.385,4192.179,4201.795,4171.667,4200.769,0,0
442,100,0,3406,4180.0,4168.718,4181.538,4170.897,4152.692,4170.897,4140.769,4161.026,4174.487,4150.385,4186.667,4195.769,4186.282,4196.923,0,0
443,101,0,2693,4184.103,4177.9490000000005,4188.59,4177.0509999999995,4155.128,4172.179,4149.359,4162.564,4168.974,4157.0509999999995,4191.538,4197.692,4188.974,4202.821,0,0
444,102,0,3420,4191.667,4187.692,4201.026,4188.205,4160.255999999999,4180.385,4172.564,4189.103,4169.615,4165.641,4200.255999999999,4209.487,4184.231,4212.179,0,0
445,103,0,2603,4190.128,4184.872,4203.205,4187.308,4165.513,4183.59,4183.462,4194.615,4172.179,4161.154,4192.692,4208.974,4177.821,4208.333,0,0
446,104,0,3406,4183.846,4181.795,4189.872,4182.821,4164.359,4181.026,4178.205,4187.692,4167.179,4148.718,4181.154,4196.795,4167.9490000000005,4200.897,0,0
447,105,0,2693,4183.462,4184.615,4184.872,4184.744000000001,4157.821,4176.667,4161.538,4190.513,4168.462,4152.0509999999995,4185.255999999999,4196.667,4171.282,4201.026,0,0
448,106,0,3420,4185.0,4184.744000000001,4194.231,4183.462,4153.333,4175.255999999999,4153.974,4183.846,4168.846,4153.974,4187.308,4201.154,4180.897,4200.897,0,0
449,107,0,2603,4185.385,4181.795,4197.564,4183.718,4154.615,4181.923,4172.179,4187.436,4167.564,4143.462,4182.692,4199.487,4180.641,4197.821,0,0
450,108,0,3406,4181.154,4178.333,4191.41,4182.821,4155.897,4185.128,4178.205,4193.205,4171.154,4141.154,4181.923,4200.255999999999,4182.0509999999995,4192.0509999999995,0,0
451,109,0,2693,4167.564,4171.026,4185.385,4174.744000000001,4153.205,4181.026,4165.128,4178.59,4169.487,4141.795,4173.333,4195.513,4184.103,4183.077,0,0
452,110,0,3420,4161.154,4168.077,4185.897,4176.795,4152.179,4182.692,4167.0509999999995,4190.385,4164.103,4137.179,4165.255999999999,4190.641,4173.462,4187.9490000000005,0,0
453,111,0,2603,4175.255999999999,4177.692,4193.59,4186.154,4154.487,4182.0509999999995,4173.718,4207.564,4165.897,4137.821,4171.538,4198.077,4165.128,4202.179,0,0
454,112,0,3406,4187.436,4182.9490000000005,4200.385,4185.385,4154.487,4174.487,4169.615,4177.179,4170.385,4144.231,4176.795,4203.077,4177.179,4203.205,0,0
455,113,0,2693,4183.205,4175.255999999999,4196.41,4180.897,4152.9490000000005,4174.744000000001,4165.641,4148.846,4165.897,4144.872,4174.487,4197.9490000000005,4185.897,4198.205,0,0
456,114,0,3420,4175.385,4172.436,4187.9490000000005,4183.974,4154.487,4180.513,4171.538,4165.128,4156.795,4139.103,4175.897,4197.692,4172.9490000000005,4200.769,0,0
457,115,0,2603,4175.385,4175.769,4187.9490000000005,4186.667,4157.436,4186.026,4180.128,4181.923,4155.513,4138.974,4180.641,4199.615,4169.359,4201.41,0,0
458,116,0,3406,4172.436,4171.026,4186.923,4180.769,4155.641,4181.923,4172.692,4172.179,4155.897,4139.615,4173.718,4189.359,4172.9490000000005,4190.385,0,0
459,117,0,2693,4168.462,4165.255999999999,4183.205,4177.692,4154.103,4173.205,4163.718,4167.821,4150.513,4138.718,4165.641,4181.667,4166.026,4183.333,0,0
460,118,0,3420,4179.872,4169.103,4185.0,4185.0,4161.795,4178.077,4175.513,4179.872,4155.513,4147.179,4176.026,4185.385,4173.846,4193.077,0,0
461,119,0,2603,4183.59,4173.077,4184.231,4184.615,4167.308,4186.41,4190.128,4186.667,4167.9490000000005,4156.026,4183.077,4186.41,4185.513,4198.718,0,0
462,120,0,3406,4172.9490000000005,4171.282,4180.769,4176.667,4160.255999999999,4178.462,4182.179,4178.462,4168.974,4153.205,4176.41,4184.103,4175.255999999999,4189.487,0,0
463,121,0,2693,4175.641,4171.41,4182.0509999999995,4180.0,4158.333,4170.513,4164.615,4169.359,4166.41,4153.205,4179.744000000001,4186.154,4166.282,4186.282,0,0
464,122,0,3420,4190.897,4180.641,4187.0509999999995,4187.564,4168.974,4177.9490000000005,4170.0,4183.333,4173.205,4160.255999999999,4192.564,4190.0,4173.333,4197.9490000000005,0,0
465,123,0,2603,4193.846,4190.641,4189.615,4187.821,4168.974,4178.718,4176.538,4191.667,4172.9490000000005,4156.154,4188.077,4190.0,4176.795,4201.026,0,0
466,124,0,3406,4185.385,4182.564,4185.0,4183.718,4156.538,4167.436,4145.769,4159.872,4157.692,4138.462,4169.359,4184.231,4170.769,4187.9490000000005,0,0
467,125,0,2693,4184.487,4169.872,4182.179,4182.0509999999995,4152.821,4166.667,4124.744000000001,4136.41,4157.692,4135.0,4172.436,4179.615,4174.487,4182.9490000000005,0,0
468,126,0,3420,4183.333,4172.0509999999995,4181.538,4181.41,4155.0,4174.487,4149.359,4159.744000000001,4176.282,4148.59,4186.795,4183.333,4179.231,4190.385,0,0
469,127,0,53,4171.154,4171.154,4173.077,4175.897,4150.385,4172.179,4166.026,4169.231,4165.769,4135.0,4175.641,4179.744000000001,4156.923,4184.359,0,0
470,0,0,2879,4163.59,4163.974,4172.821,4171.795,4148.077,4168.462,4166.026,4162.0509999999995,4149.872,4114.359,4160.128,4174.103,4140.0,4170.385,0,0
471,1,0,3238,4177.9490000000005,4174.103,4192.564,4181.667,4154.231,4177.692,4182.436,4189.744000000001,4182.821,4140.769,4177.0509999999995,4188.59,4169.231,4180.769,0,0
472,2,0,3260,4191.026,4183.974,4202.179,4191.026,4151.154,4178.333,4175.641,4188.077,4196.154,4158.333,4192.564,4202.308,4182.692,4200.769,0,0
473,3,0,3432,4184.359,4175.769,4193.333,4183.846,4142.436,4167.564,4146.282,4143.077,4155.641,4131.154,4182.179,4198.974,4150.769,4203.077,0,0
474,4,0,3512,4184.872,4172.692,4198.077,4181.41,4148.333,4167.821,4157.692,4152.308,4146.154,4124.872,4178.846,4201.667,4142.179,4202.821,0,0
475,5,0,2876,4195.0,4189.103,4205.641,4193.077,4161.026,4173.846,4177.821,4184.231,4173.333,4143.462,4185.513,4203.718,4162.564,4202.0509999999995,0,0
476,6,0,3407,4197.564,4202.179,4191.923,4198.077,4165.0,4172.179,4168.59,4171.026,4178.59,4146.795,4185.255999999999,4189.872,4168.462,4191.795,0,0
477,7,0,2962,4191.538,4195.897,4180.641,4192.436,4168.718,4170.128,4172.0509999999995,4167.0509999999995,4177.9490000000005,4148.59,4182.308,4181.923,4168.462,4183.846,0,0
478,8,0,3197,4186.154,4185.128,4185.128,4191.41,4171.538,4173.077,4192.436,4192.436,4192.821,4156.538,4185.897,4185.769,4171.923,4183.333,0,0
479,9,0,3569,4191.667,4190.255999999999,4188.462,4199.103,4170.641,4176.41,4189.872,4190.0,4199.487,4160.255999999999,4189.103,4186.667,4174.615,4182.9490000000005,0,0
480,10,0,3407,4198.718,4204.359,4185.255999999999,4203.59,4177.436,4180.769,4178.205,4168.333,4200.897,4168.974,4188.077,4185.513,4184.744000000001,4180.128,0,0
481,11,0,2597,4193.462,4205.255999999999,4182.9490000000005,4201.667,4186.923,4187.564,4192.436,4173.333,4202.308,4177.179,4189.359,4184.231,4191.41,4172.308,0,0
482,12,0,3396,4184.231,4194.359,4181.538,4201.026,4184.359,4184.487,4206.026,4193.333,4201.282,4172.308,4189.487,4180.641,4179.872,4166.154,0,0
483,13,0,2690,4182.436,4190.641,4181.795,4199.487,4173.59,4171.41,4180.897,4183.846,4201.538,4169.359,4187.564,4180.897,4175.513,4171.795,0,0
484,14,0,3407,4188.59,4197.9490000000005,4185.0,4198.718,4169.744000000001,4172.821,4161.923,4161.026,4200.255999999999,4179.103,4190.769,4186.923,4190.641,4182.692,0,0
485,15,0,2597,4198.974,4205.769,4187.436,4203.077,4173.333,4187.308,4184.615,4172.564,4200.769,4187.821,4194.744000000001,4190.128,4197.0509999999995,4186.538,0,0
486,16,0,0,4199.359,4198.205,4186.923,4203.718,4174.359,4184.872,4194.359,4191.154,4198.974,4176.154,4185.128,4184.231,4181.923,4177.9490000000005,0,0
487,17,0,0,4188.59,4185.769,4185.641,4199.231,4170.897,4178.718,4183.718,4180.513,4198.718,4165.128,4180.769,4181.41,4175.513,4174.615,0,0
488,18,0,0,4188.462,4187.9490000000005,4189.231,4202.692,4172.436,4192.308,4208.205,4189.231,4210.128,4181.282,4194.744000000001,4189.231,4188.077,4183.462,0,0
489,19,0,0,4191.154,4188.077,4190.0,4203.333,4174.103,4198.333,4235.897,4225.255999999999,4216.667,4188.462,4197.436,4191.667,4189.231,4181.923,0,0
490,20,0,0,4181.41,4174.231,4180.641,4188.333,4162.9490000000005,4180.769,4197.564,4205.385,4203.59,4166.154,4178.974,4183.59,4181.667,4170.641,0,0
491,21,0,0,4174.615,4165.769,4178.333,4178.974,4149.872,4165.897,4138.974,4149.872,4194.359,4148.718,4168.846,4181.154,4183.59,4171.154,0,0
492,22,0,0,4180.128,4172.436,4183.205,4185.0,4150.769,4167.179,4141.923,4153.846,4207.564,4158.205,4179.231,4185.255999999999,4189.487,4179.103,0,0
493,23,0,0,4182.0509999999995,4174.487,4176.41,4187.692,4158.718,4171.026,4169.103,4182.179,4212.564,4171.538,4185.128,4181.923,4187.9490000000005,4177.436,0,0
494,24,0,0,4174.231,4168.205,4166.923,4182.308,4159.487,4169.487,4168.59,4177.564,4206.026,4167.308,4179.744000000001,4174.103,4183.205,4170.255999999999,0,0
495,25,0,0,4168.59,4168.462,4171.282,4180.255999999999,4156.667,4169.359,4170.513,4178.846,4211.282,4167.308,4180.897,4174.231,4187.308,4167.0509999999995,0,0
496,26,0,0,4170.641,4172.692,4179.103,4185.0,4156.154,4176.538,4189.359,4193.205,4214.487,4175.385,4182.9490000000005,4180.0,4192.308,4170.255999999999,0,0
497,27,0,0,4170.897,4171.795,4174.103,4183.59,4154.231,4182.821,4188.718,4186.154,4202.0509999999995,4163.846,4170.0,4177.0509999999995,4183.846,4170.0,0,0
498,28,0,0,4169.615,4171.667,4176.026,4178.974,4153.974,4180.769,4176.154,4181.41,4196.538,4154.487,4165.128,4174.615,4179.359,4167.0509999999995,0,0
499,29,0,0,4171.282,4176.538,4183.59,4182.0509999999995,4157.9490000000005,4182.308,4191.154,4189.359,4205.0,4171.538,4175.641,4180.897,4190.897,4170.385,0,0
500,30,0,0,4169.231,4170.769,4175.513,4181.41,4157.821,4188.718,4208.59,4189.744000000001,4204.744000000001,4172.821,4170.897,4180.128,4190.0,4169.744000000001,0,0
501,31,0,0,4170.897,4165.385,4171.282,4177.564,4154.359,4182.308,4192.0509999999995,4188.077,4200.513,4159.487,4168.718,4178.205,4181.795,4173.077,0,0
502,32,0,0,4182.692,4176.923,4185.385,4182.692,4153.718,4168.077,4161.282,4181.538,4196.795,4170.255999999999,4182.564,4187.308,4189.359,4182.564,0,0
503,33,0,0,4186.282,4184.103,4187.179,4185.513,4151.538,4165.641,4156.282,4170.385,4187.9490000000005,4174.615,4182.821,4187.821,4191.667,4179.487,0,0
504,34,0,0,4175.897,4175.513,4171.026,4182.436,4148.718,4168.974,4169.231,4165.897,4181.538,4153.846,4169.231,4175.255999999999,4179.359,4169.487,0,0
505,35,0,0,4170.0,4169.615,4169.359,4182.308,4152.821,4171.154,4173.333,4170.255999999999,4183.974,4149.872,4168.333,4174.615,4175.0,4171.923,0,0
506,36,0,0,4168.205,4168.333,4172.564,4176.026,4152.564,4170.0,4164.615,4171.41,4183.333,4155.513,4166.154,4174.487,4175.0,4173.205,0,0
507,37,0,0,4163.718,4167.821,4166.795,4170.897,4146.538,4168.077,4155.385,4165.385,4182.692,4149.231,4159.872,4165.769,4172.692,4167.179,0,0
508,38,0,0,4171.795,4175.897,4172.564,4185.641,4152.179,4180.255999999999,4177.179,4168.974,4198.718,4156.667,4175.385,4179.744000000001,4188.462,4180.0,0,0
509,39,0,0,4173.59,4175.897,4175.897,4187.821,4157.179,4187.436,4192.0509999999995,4170.128,4196.154,4161.538,4178.59,4189.231,4192.308,4185.641,0,0
510,40,0,0,4160.897,4165.641,4169.231,4171.667,4150.897,4172.308,4162.692,4163.333,4174.744000000001,4147.436,4162.0509999999995,4172.436,4173.718,4171.667,0,0
511,41,0,0,4163.718,4169.872,4171.795,4175.897,4152.308,4172.0509999999995,4157.308,4172.564,4190.897,4156.923,4172.821,4174.231,4189.103,4173.846,0,0
512,42,0,0,4172.0509999999995,4174.103,4178.333,4185.769,4160.641,4188.077,4192.564,4191.795,4211.41,4177.179,4188.077,4188.205,4208.59,4181.923,0,0
513,43,0,0,4157.436,4164.231,4167.9490000000005,4173.718,4156.154,4178.462,4186.667,4177.308,4181.795,4156.282,4168.462,4175.255999999999,4173.974,4168.718,0,0
514,44,0,0,4144.487,4156.923,4150.513,4160.641,4148.333,4161.667,4150.897,4149.744000000001,4157.692,4135.769,4154.872,4161.026,4147.564,4156.41,0,0
515,45,0,0,4161.282,4170.128,4152.821,4172.821,4160.0,4175.128,4181.282,4188.718,4192.179,4173.718,4178.974,4170.385,4175.641,4166.538,0,0
516,46,0,0,4178.718,4186.026,4164.744000000001,4189.744000000001,4176.41,4188.077,4220.385,4218.205,4218.462,4211.538,4195.255999999999,4175.897,4197.179,4174.359,0,0
517,47,0,0,4168.462,4176.41,4158.974,4178.59,4166.667,4173.333,4168.333,4155.897,4188.077,4188.718,4175.255999999999,4166.923,4178.974,4164.231,0,0
518,48,0,0,4159.231,4162.564,4152.692,4164.872,4151.282,4159.744000000001,4109.487,4113.462,4164.359,4168.59,4160.0,4163.077,4173.59,4158.846,0,0
519,49,0,0,4176.282,4177.308,4170.897,4180.128,4163.718,4169.615,4147.436,4159.744000000001,4184.615,4192.692,4179.103,4174.615,4192.0509999999995,4169.615,0,0
520,50,0,0,4187.9490000000005,4192.9490000000005,4183.718,4196.282,4178.077,4177.308,4186.154,4194.359,4198.59,4198.974,4193.462,4183.718,4197.0509999999995,4178.333,0,0
521,51,0,0,4170.769,4178.846,4169.487,4183.846,4167.564,4168.077,4152.179,4158.974,4177.9490000000005,4163.205,4174.872,4170.641,4179.744000000001,4168.59,0,0
522,52,0,0,4166.795,4172.0509999999995,4164.872,4176.154,4163.077,4176.923,4168.077,4165.128,4180.385,4150.128,4170.897,4166.795,4177.308,4170.128,0,0
523,53,0,0,4187.179,4187.692,4175.769,4186.667,4173.718,4191.154,4216.026,4215.128,4214.487,4175.641,4199.744000000001,4186.795,4200.769,4188.462,0,0
524,54,0,0,4190.769,4190.641,4174.359,4187.0509999999995,4171.154,4175.255999999999,4173.205,4188.205,4208.59,4172.9490000000005,4204.231,4189.744000000001,4207.179,4185.255999999999,0,0
525,55,0,0,4180.128,4183.205,4168.077,4182.692,4164.744000000001,4160.385,4121.41,4127.564,4178.846,4147.564,4183.846,4177.0509999999995,4197.692,4166.923,0,0
526,56,0,0,4181.667,4182.308,4170.769,4185.255999999999,4175.897,4173.333,4155.255999999999,4148.205,4188.718,4158.718,4187.179,4180.513,4198.974,4169.615,0,0
527,57,0,0,4188.205,4185.769,4175.255999999999,4187.179,4184.359,4182.692,4192.308,4199.744000000001,4215.513,4188.846,4204.615,4190.769,4207.436,4182.564,0,0
528,58,0,0,4187.821,4182.436,4175.513,4185.385,4174.231,4174.103,4176.154,4184.615,4209.103,4186.795,4205.128,4188.59,4207.308,4177.821,0,0
529,59,0,0,4182.821,4174.487,4174.487,4183.462,4165.513,4172.0509999999995,4167.9490000000005,4165.0,4193.333,4171.154,4195.385,4184.103,4196.026,4171.41,0,0
530,60,0,0,4176.538,4170.255999999999,4173.718,4179.103,4169.615,4176.795,4180.641,4180.769,4199.231,4175.0,4193.333,4186.538,4190.769,4176.667,0,0
531,61,0,0,4164.487,4167.821,4168.718,4170.769,4169.615,4176.41,4181.923,4183.718,4199.487,4175.255999999999,4184.872,4185.513,4188.333,4173.077,0,0
532,62,0,0,4158.205,4165.513,4166.154,4167.9490000000005,4165.897,4171.667,4172.9490000000005,4180.641,4188.974,4166.538,4176.667,4180.769,4183.205,4166.026,0,0
533,63,0,0,4163.462,4165.0,4168.077,4169.359,4167.0509999999995,4168.846,4168.462,4179.744000000001,4185.513,4168.59,4183.077,4181.154,4182.564,4167.692,0,0
534,64,0,2881,4169.231,4166.795,4167.9490000000005,4167.692,4164.231,4169.231,4171.538,4173.974,4185.769,4169.231,4180.641,4182.0509999999995,4180.128,4170.0,0,0
535,65,0,3240,4177.0509999999995,4174.231,4173.462,4172.9490000000005,4162.564,4170.641,4171.923,4169.744000000001,4184.103,4166.41,4173.462,4183.205,4175.897,4177.179,0,0
536,66,0,3266,4188.59,4184.744000000001,4185.128,4185.513,4168.718,4172.692,4173.846,4177.179,4183.846,4175.255999999999,4182.0509999999995,4191.795,4179.872,4188.077,0,0
537,67,0,3437,4191.41,4186.154,4188.333,4187.9490000000005,4169.615,4171.154,4171.795,4185.641,4185.897,4186.026,4191.41,4199.872,4188.462,4193.333,0,0
538,68,0,3513,4185.897,4182.9490000000005,4186.538,4183.974,4166.026,4174.103,4176.538,4197.821,4191.923,4187.692,4193.462,4202.436,4187.0509999999995,4194.487,0,0
539,69,0,2877,4189.487,4185.769,4194.359,4187.564,4171.538,4186.154,4211.923,4215.769,4203.846,4193.59,4199.744000000001,4208.205,4185.513,4195.641,0,0
540,70,0,3420,4183.59,4178.462,4189.872,4180.641,4168.205,4184.872,4207.179,4188.974,4204.872,4194.231,4194.487,4202.436,4191.026,4192.179,0,0
541,71,0,2955,4155.513,4156.154,4165.641,4156.795,4149.231,4167.564,4140.0,4138.59,4186.282,4176.282,4169.231,4177.821,4183.333,4178.462,0,0
542,72,0,3204,4148.59,4147.0509999999995,4160.385,4149.872,4146.282,4162.436,4117.692,4143.718,4171.026,4165.641,4160.641,4172.9490000000005,4168.462,4170.641,0,0
543,73,0,3587,4164.103,4153.462,4172.564,4157.9490000000005,4157.692,4173.59,4156.667,4183.974,4170.897,4166.026,4169.615,4185.255999999999,4162.0509999999995,4173.59,0,0
544,74,0,3432,4160.0,4150.897,4167.692,4155.255999999999,4157.308,4174.103,4166.282,4187.692,4169.487,4151.795,4164.103,4176.538,4149.615,4170.255999999999,0,0
545,75,0,2605,4152.436,4151.923,4161.667,4156.923,4156.026,4163.59,4148.718,4169.872,4167.308,4146.923,4159.744000000001,4168.333,4149.872,4170.513,0,0
546,76,0,3417,4168.205,4167.436,4175.0,4171.41,4167.308,4161.795,4151.538,4169.359,4176.282,4168.205,4170.255999999999,4182.308,4175.769,4181.795,0,0
547,77,0,2698,4174.487,4170.897,4175.513,4173.462,4172.436,4166.154,4153.846,4171.667,4182.692,4174.231,4173.974,4183.205,4180.769,4179.872,0,0
548,78,0,3432,4165.0,4164.103,4168.333,4167.9490000000005,4168.846,4168.59,4157.436,4173.077,4179.359,4164.487,4171.538,4173.205,4165.0,4166.538,0,0
549,79,0,2605,4172.179,4171.923,4181.154,4178.462,4171.41,4175.0,4176.154,4184.872,4188.077,4177.0509999999995,4184.487,4182.308,4181.538,4171.795,0,0
550,80,0,3417,4176.667,4176.538,4181.923,4183.462,4173.205,4176.154,4185.769,4192.179,4197.0509999999995,4186.923,4189.487,4187.436,4195.641,4176.795,0,0
551,81,0,2698,4168.077,4170.769,4167.9490000000005,4176.282,4168.846,4170.128,4181.538,4186.795,4187.821,4176.538,4179.872,4179.487,4177.0509999999995,4171.026,0,0
552,82,0,3432,4176.795,4178.974,4174.103,4181.923,4168.59,4175.513,4180.255999999999,4189.359,4190.0,4182.308,4194.103,4185.255999999999,4182.564,4176.026,0,0
553,83,0,2605,4184.359,4183.846,4183.077,4185.769,4171.667,4183.077,4187.692,4205.769,4206.026,4195.0,4209.359,4193.462,4202.692,4178.205,0,0
554,84,0,3417,4170.641,4171.282,4171.667,4175.128,4170.255999999999,4175.0,4188.846,4203.59,4201.667,4184.872,4195.0,4184.487,4186.795,4168.205,0,0
555,85,0,2698,4162.9490000000005,4165.897,4164.872,4167.692,4168.205,4167.436,4176.667,4171.538,4185.641,4171.667,4180.0,4179.744000000001,4170.255999999999,4166.923,0,0
556,86,0,3432,4167.692,4168.974,4173.462,4170.513,4166.026,4171.667,4162.692,4163.59,4180.385,4169.744000000001,4182.436,4188.077,4177.179,4175.897,0,0
557,87,0,2605,4171.538,4170.513,4185.255999999999,4178.718,4168.205,4180.513,4190.255999999999,4213.462,4192.308,4175.128,4196.923,4199.359,4181.282,4187.9490000000005,0,0
558,88,0,3417,4177.692,4176.923,4191.154,4187.179,4177.436,4191.41,4235.641,4228.59,4211.795,4187.564,4206.282,4207.436,4188.333,4191.41,0,0
559,89,0,2698,4168.462,4169.872,4178.846,4177.9490000000005,4172.692,4186.41,4192.821,4156.538,4196.923,4177.0509999999995,4186.667,4194.103,4192.436,4174.487,0,0
560,90,0,3432,4148.333,4152.692,4163.974,4161.41,4158.205,4166.795,4116.923,4118.462,4158.846,4146.282,4158.846,4173.077,4172.308,4159.744000000001,0,0
561,91,0,2605,4158.462,4160.513,4167.436,4167.564,4163.718,4167.436,4139.103,4171.026,4158.59,4144.872,4166.795,4177.692,4168.59,4169.231,0,0
562,92,0,3417,4172.0509999999995,4169.744000000001,4173.59,4175.385,4172.436,4176.667,4181.923,4196.154,4176.923,4161.795,4181.667,4189.487,4186.282,4174.872,0,0
563,93,0,2698,4159.359,4161.538,4169.615,4167.0509999999995,4160.128,4168.718,4161.41,4168.205,4169.359,4152.564,4171.282,4183.462,4179.615,4166.154,0,0
564,94,0,3432,4158.718,4163.077,4166.41,4165.641,4151.667,4163.718,4152.436,4168.718,4161.026,4135.769,4170.513,4180.641,4163.205,4167.564,0,0
565,95,0,2605,4169.872,4171.282,4170.769,4172.0509999999995,4156.41,4169.872,4175.769,4190.641,4169.359,4142.692,4180.641,4187.9490000000005,4168.718,4174.487,0,0
566,96,0,3417,4162.0509999999995,4163.974,4172.564,4169.487,4152.308,4172.0509999999995,4184.744000000001,4192.179,4172.436,4153.718,4175.641,4186.154,4175.255999999999,4172.564,0,0
567,97,0,2698,4157.692,4154.231,4169.487,4165.769,4142.564,4171.026,4186.026,4184.359,4170.641,4153.077,4167.308,4182.436,4172.692,4170.641,0,0
568,98,0,3432,4170.385,4160.255999999999,4172.9490000000005,4169.744000000001,4140.897,4172.692,4177.436,4186.538,4169.872,4151.41,4169.872,4185.513,4170.897,4170.897,0,0
569,99,0,2605,4170.385,4168.205,4180.385,4171.154,4143.462,4172.9490000000005,4166.026,4188.333,4167.692,4151.667,4171.41,4186.923,4167.0509999999995,4171.282,0,0
570,100,0,3417,4162.436,4167.179,4183.205,4169.359,4144.744000000001,4174.744000000001,4172.821,4178.077,4168.462,4153.205,4167.692,4186.154,4171.923,4172.692,0,0
571,101,0,2698,4164.615,4160.385,4179.615,4169.615,4140.385,4172.821,4174.615,4168.205,4171.282,4158.462,4167.0509999999995,4185.897,4179.487,4171.026,0,0
572,102,0,3432,4167.436,4158.974,4177.0509999999995,4168.718,4134.615,4167.692,4168.462,4176.667,4170.769,4166.667,4168.462,4188.333,4172.821,4171.667,0,0
573,103,0,2605,4167.308,4161.41,4182.179,4169.231,4140.128,4176.282,4180.385,4187.179,4166.923,4169.744000000001,4171.41,4194.615,4167.692,4179.487,0,0
574,104,0,3417,4170.513,4164.615,4187.9490000000005,4173.718,4149.103,4184.359,4192.692,4190.0,4172.436,4169.487,4177.692,4200.128,4173.59,4184.615,0,0
575,105,0,2698,4177.0509999999995,4172.564,4188.205,4176.41,4146.795,4177.0509999999995,4186.538,4187.692,4185.897,4178.333,4186.667,4202.179,4176.667,4187.436,0,0
576,106,0,3432,4170.255999999999,4167.436,4181.667,4171.41,4138.718,4170.769,4175.641,4188.205,4184.615,4180.513,4184.487,4198.205,4168.846,4183.333,0,0
577,107,0,2605,4159.231,4154.872,4175.128,4167.9490000000005,4138.077,4173.205,4172.0509999999995,4196.026,4173.974,4171.026,4176.923,4192.9490000000005,4164.615,4176.795,0,0
578,108,0,3417,4160.513,4156.41,4172.0509999999995,4170.897,4142.821,4174.615,4183.205,4180.128,4165.128,4169.359,4181.026,4188.718,4169.359,4177.9490000000005,0,0
579,109,0,2698,4160.641,4157.9490000000005,4170.255999999999,4167.692,4142.179,4167.436,4179.231,4147.9490000000005,4159.231,4173.077,4180.769,4184.359,4172.564,4178.205,0,0
580,110,0,3432,4152.436,4151.923,4167.0509999999995,4157.692,4136.795,4157.179,4138.59,4151.923,4158.974,4169.231,4169.231,4182.564,4171.026,4171.538,0,0
581,111,0,2605,4149.487,4151.282,4165.513,4154.359,4133.59,4151.923,4112.308,4175.769,4162.436,4167.436,4168.333,4184.615,4164.487,4174.103,0,0
582,112,0,3417,4156.538,4156.154,4173.974,4158.59,4136.282,4154.359,4131.795,4176.154,4162.692,4171.538,4172.692,4187.9490000000005,4162.821,4185.513,0,0
583,113,0,2698,4157.564,4152.564,4177.436,4156.154,4135.769,4155.513,4149.359,4168.205,4154.872,4158.59,4157.821,4188.077,4154.872,4185.641,0,0
584,114,0,3432,4152.564,4149.359,4175.255999999999,4154.487,4133.205,4158.462,4149.103,4171.795,4151.026,4142.179,4149.103,4190.255999999999,4137.692,4184.487,0,0
585,115,0,2605,4155.128,4154.872,4178.974,4163.205,4139.615,4167.436,4160.255999999999,4177.9490000000005,4160.769,4153.333,4165.255999999999,4199.231,4145.769,4189.615,0,0
586,116,0,3417,4166.667,4163.59,4185.769,4170.769,4151.41,4173.333,4175.513,4187.821,4172.692,4172.821,4177.308,4203.718,4167.821,4192.436,0,0
587,117,0,2698,4168.333,4169.872,4186.154,4172.692,4162.308,4175.385,4187.179,4189.872,4173.077,4167.0509999999995,4172.179,4193.846,4164.487,4187.821,0,0
588,118,0,3432,4157.179,4169.487,4176.795,4172.308,4168.59,4174.359,4187.821,4183.974,4171.026,4155.0,4168.077,4184.103,4157.821,4173.718,0,0
589,119,0,2605,4158.974,4169.231,4171.41,4172.179,4168.59,4169.872,4168.974,4180.385,4176.923,4163.077,4176.154,4186.154,4170.769,4168.846,0,0
590,120,0,3417,4171.41,4173.718,4175.513,4175.385,4170.128,4170.0,4167.436,4189.103,4184.487,4173.718,4187.179,4188.205,4176.923,4176.154,0,0
591,121,0,2698,4171.282,4175.385,4177.9490000000005,4177.179,4170.385,4174.231,4185.128,4190.769,4187.436,4170.128,4189.487,4188.077,4170.0,4176.538,0,0
592,122,0,3432,4157.564,4165.513,4169.103,4172.179,4161.026,4169.359,4176.282,4170.0,4176.795,4155.128,4179.359,4183.333,4161.41,4168.333,0,0
593,123,0,2605,4148.59,4152.692,4157.308,4162.179,4149.872,4157.308,4143.462,4155.0,4164.231,4143.077,4165.513,4172.692,4152.308,4162.0509999999995,0,0
594,124,0,3417,4149.231,4152.308,4156.154,4156.41,4146.923,4152.436,4131.282,4153.974,4165.255999999999,4142.692,4161.923,4167.692,4153.077,4159.615,0,0
595,125,0,2698,4149.744000000001,4154.744000000001,4159.487,4155.385,4148.462,4160.128,4146.282,4155.513,4167.9490000000005,4143.59,4162.564,4171.923,4158.846,4163.205,0,0
596,126,0,3432,4145.769,4151.667,4156.538,4154.872,4148.974,4167.821,4159.103,4157.0509999999995,4164.872,4137.821,4157.692,4171.538,4155.641,4163.718,0,0
597,127,0,53,4148.718,4156.667,4155.641,4158.718,4150.0,4164.359,4147.9490000000005,4151.026,4164.744000000001,4140.897,4157.436,4167.308,4152.821,4160.897,0,0
598,0,0,2881,4163.718,4173.077,4169.103,4170.255999999999,4156.795,4165.513,4149.615,4145.513,4167.9490000000005,4153.846,4170.255999999999,4173.077,4157.692,4166.538,0,0
599,1,0,3240,4172.308,4178.974,4169.744000000001,4177.564,4167.179,4172.436,4172.436,4156.667,4168.077,4156.923,4174.744000000001,4173.205,4157.821,4166.026,0,0
600,2,0,3265,4168.333,4173.59,4150.769,4173.077,4169.615,4166.41,4162.436,4162.436,4167.564,4151.282,4169.359,4159.231,4156.923,4150.513,0,0
601,3,0,3436,4166.154,4176.41,4150.513,4171.667,4168.59,4160.128,4140.0,4153.846,4170.385,4152.9490000000005,4176.282,4157.821,4165.255999999999,4146.538,0,0
602,4,0,3511,4171.667,4182.308,4168.333,4175.769,4172.179,4169.615,4156.154,4156.923,4174.359,4161.026,4184.103,4172.9490000000005,4170.255999999999,4156.538,0,0
603,5,0,2885,4169.231,4177.179,4171.282,4174.744000000001,4166.538,4175.0,4177.436,4166.41,4170.513,4155.385,4174.359,4175.255999999999,4159.487,4158.462,0,0
604,6,0,3436,4157.821,4163.205,4160.513,4165.641,4151.923,4164.231,4165.769,4166.154,4160.513,4140.769,4160.128,4167.308,4145.513,4155.255999999999,0,0
605,7,0,2940,4152.692,4157.564,4160.255999999999,4159.359,4146.667,4158.718,4155.128,4156.026,4154.103,4134.103,4152.564,4167.308,4137.0509999999995,4153.974,0,0
606,8,0,3197,4154.615,4163.333,4167.179,4163.718,4150.385,4159.103,4155.513,4150.897,4154.487,4131.923,4150.385,4169.359,4134.231,4158.462,0,0
607,9,0,3579,4162.9490000000005,4169.359,4170.385,4172.436,4154.487,4162.0509999999995,4157.308,4159.872,4156.026,4138.718,4155.385,4177.308,4145.128,4169.615,0,0
608,10,0,3423,4164.615,4168.462,4168.462,4170.769,4155.0,4165.769,4161.026,4153.077,4149.359,4147.564,4157.692,4182.0509999999995,4149.872,4168.205,0,0
609,11,0,2606,4153.974,4163.205,4163.462,4158.974,4152.692,4159.872,4143.974,4135.513,4138.718,4147.308,4156.667,4174.231,4139.231,4158.718,0,0
610,12,0,3414,4151.538,4162.821,4164.231,4159.872,4154.103,4152.821,4129.615,4144.872,4136.282,4148.59,4164.487,4172.821,4138.846,4158.59,0,0
611,13,0,2696,4157.564,4160.897,4168.077,4171.41,4159.744000000001,4155.769,4143.718,4159.103,4140.385,4150.385,4164.103,4177.436,4143.718,4160.641,0,0
612,14,0,3423,4153.974,4156.026,4164.359,4166.667,4158.718,4161.154,4155.641,4152.436,4142.308,4141.795,4150.897,4171.41,4137.0509999999995,4155.897,0,0
613,15,0,2606,4150.0,4154.103,4159.872,4152.821,4154.359,4158.718,4146.538,4152.0509999999995,4141.795,4136.41,4147.564,4168.205,4133.846,4152.564,0,0
614,16,0,0,4155.128,4155.897,4168.077,4157.0509999999995,4156.282,4154.872,4135.513,4161.538,4142.564,4142.692,4154.615,4175.385,4142.308,4157.564,0,0
615,17,0,0,4157.564,4161.154,4172.179,4166.795,4153.974,4154.487,4135.128,4153.718,4137.179,4141.923,4154.103,4174.487,4142.564,4164.872,0,0
616,18,0,0,4162.308,4167.308,4167.9490000000005,4167.692,4151.026,4158.718,4143.333,4145.385,4130.255999999999,4142.179,4156.154,4174.744000000001,4139.231,4170.0,0,0
617,19,0,0,4170.513,4171.282,4176.923,4171.282,4162.692,4161.026,4155.385,4161.41,4132.564,4152.692,4167.821,4184.231,4138.205,4170.641,0,0
618,20,0,0,4170.128,4170.128,4186.282,4173.077,4172.436,4161.154,4158.333,4175.769,4139.872,4155.897,4169.615,4188.718,4138.333,4169.615,0,0
619,21,0,0,4167.436,4169.103,4176.41,4171.026,4169.359,4167.821,4150.0,4159.615,4137.308,4154.615,4166.538,4185.769,4147.564,4172.564,0,0
620,22,0,0,4168.077,4168.077,4166.923,4171.026,4166.154,4165.255999999999,4136.41,4137.436,4127.436,4151.795,4168.205,4178.846,4146.282,4171.41,0,0
621,23,0,0,4167.821,4168.718,4177.308,4170.513,4165.385,4155.641,4135.385,4146.154,4129.487,4152.0509999999995,4170.513,4177.821,4137.0509999999995,4168.59,0,0
622,24,0,0,4169.103,4171.026,4182.9490000000005,4169.359,4164.744000000001,4160.513,4151.282,4169.231,4143.077,4161.923,4170.897,4181.795,4147.436,4171.667,0,0
623,25,0,0,4167.564,4169.359,4170.255999999999,4170.385,4163.205,4170.513,4160.128,4173.462,4146.667,4163.462,4168.205,4176.923,4153.333,4171.282,0,0
624,26,0,0,4165.641,4172.821,4168.077,4171.026,4162.0509999999995,4168.333,4158.718,4164.231,4138.846,4151.538,4168.462,4171.41,4138.333,4169.359,0,0
625,27,0,0,4177.821,4186.538,4182.9490000000005,4177.692,4164.744000000001,4167.0509999999995,4166.923,4171.026,4143.077,4161.026,4185.385,4187.308,4139.231,4183.333,0,0
626,28,0,0,4199.744000000001,4202.308,4194.615,4190.128,4169.103,4171.538,4172.821,4179.872,4152.9490000000005,4182.9490000000005,4210.769,4201.667,4156.41,4201.154,0,0
627,29,0,0,4218.333,4223.718,4198.974,4202.692,4167.436,4169.359,4168.205,4172.179,4150.769,4186.795,4224.744000000001,4198.846,4161.923,4210.641,0,0
628,30,0,0,4232.821,4245.513,4204.103,4213.718,4167.821,4168.846,4172.821,4175.769,4156.154,4191.923,4230.769,4204.744000000001,4165.897,4222.436,0,0
629,31,0,0,4242.308,4248.462,4207.179,4217.308,4175.255999999999,4174.744000000001,4186.667,4184.872,4165.641,4203.59,4238.077,4215.897,4170.128,4235.0,0,0
630,32,0,0,4246.667,4245.0,4212.179,4217.179,4179.487,4178.077,4189.359,4183.718,4160.641,4203.333,4245.0,4217.179,4166.795,4243.462,0,0
631,33,0,0,4256.795,4255.128,4217.9490000000005,4220.385,4181.026,4173.077,4174.615,4180.255999999999,4154.615,4201.923,4248.974,4216.538,4166.538,4249.231,0,0
632,34,0,0,4265.128,4262.308,4212.821,4220.513,4180.897,4167.308,4158.333,4169.487,4151.923,4200.385,4243.205,4213.077,4163.59,4247.179,0,0
633,35,0,0,4267.564,4262.821,4215.385,4225.128,4183.077,4175.255999999999,4166.795,4167.308,4157.308,4202.179,4246.154,4216.282,4170.0,4251.538,0,0
634,36,0,0,4268.974,4264.231,4228.333,4234.231,4188.846,4185.0,4186.667,4188.59,4176.026,4214.615,4263.462,4233.077,4188.718,4264.231,0,0
635,37,0,0,4259.615,4256.154,4228.205,4229.615,4188.846,4183.333,4187.692,4199.615,4182.692,4215.897,4257.308,4235.769,4183.718,4257.179,0,0
636,38,0,0,4243.333,4237.308,4215.0,4214.359,4182.0509999999995,4182.0509999999995,4179.103,4184.487,4165.255999999999,4198.718,4231.538,4219.103,4165.385,4239.231,0,0
637,39,0,0,4234.103,4221.923,4204.615,4205.128,4176.026,4183.718,4184.487,4177.0509999999995,4155.641,4189.231,4224.615,4212.0509999999995,4165.255999999999,4233.718,0,0
638,40,0,0,4227.9490000000005,4217.179,4201.026,4201.026,4173.205,4177.821,4192.821,4179.487,4165.255999999999,4193.59,4227.9490000000005,4215.128,4174.615,4232.821,0,0
639,41,0,0,4219.872,4212.9490000000005,4200.513,4199.103,4169.744000000001,4170.128,4187.436,4183.846,4170.385,4200.769,4221.923,4214.103,4173.718,4230.769,0,0
640,42,0,0,4215.128,4203.846,4201.154,4196.41,4170.897,4173.333,4178.974,4187.821,4166.795,4203.205,4213.974,4210.255999999999,4168.974,4227.0509999999995,0,0
641,43,0,0,4210.769,4195.385,4201.282,4191.923,4175.128,4177.436,4185.641,4182.821,4165.897,4194.744000000001,4205.641,4204.872,4168.974,4219.487,0,0
642,44,0,0,4202.436,4189.872,4199.615,4185.641,4173.846,4173.846,4192.564,4185.255999999999,4165.0,4186.282,4195.513,4200.128,4170.513,4211.282,0,0
643,45,0,0,4192.9490000000005,4182.564,4192.821,4176.154,4167.9490000000005,4167.436,4170.0,4186.026,4157.692,4186.795,4189.744000000001,4199.615,4170.897,4203.974,0,0
644,46,0,0,4184.487,4172.308,4183.59,4166.923,4162.308,4165.128,4146.026,4169.103,4156.795,4185.0,4185.128,4197.308,4166.41,4196.282,0,0
645,47,0,0,4183.333,4170.385,4185.255999999999,4168.077,4158.205,4169.103,4160.769,4171.667,4167.821,4182.308,4183.718,4196.538,4168.718,4195.897,0,0
646,48,0,0,4189.103,4179.615,4190.0,4179.872,4160.385,4172.436,4180.897,4190.641,4172.821,4187.179,4188.718,4199.359,4180.897,4201.41,0,0
647,49,0,0,4191.667,4182.821,4188.205,4186.154,4170.255999999999,4172.179,4176.538,4177.179,4170.255999999999,4189.872,4186.026,4195.0,4184.103,4197.564,0,0
648,50,0,0,4181.667,4173.59,4185.385,4177.564,4160.255999999999,4170.641,4166.538,4154.487,4168.205,4185.0,4173.846,4185.897,4172.436,4187.0509999999995,0,0
649,51,0,0,4169.744000000001,4167.436,4184.359,4168.205,4133.846,4168.333,4166.923,4165.128,4165.128,4184.487,4169.231,4185.128,4166.667,4184.231,0,0
650,52,0,0,4169.487,4169.231,4183.974,4169.872,4142.564,4168.974,4170.385,4179.487,4161.923,4189.359,4173.718,4188.59,4172.9490000000005,4187.564,0,0
651,53,0,0,4171.795,4168.077,4183.718,4171.282,4169.231,4170.385,4163.846,4169.744000000001,4156.538,4188.077,4172.564,4185.897,4173.718,4186.282,0,0
652,54,0,0,4168.077,4165.0,4181.538,4166.026,4163.333,4169.615,4154.359,4162.0509999999995,4151.923,4184.359,4166.795,4181.795,4174.487,4183.205,0,0
653,55,0,0,4167.9490000000005,4167.0509999999995,4181.41,4166.026,4151.282,4170.385,4164.487,4174.744000000001,4159.103,4190.513,4168.333,4186.282,4183.462,4185.255999999999,0,0
654,56,0,0,4168.333,4167.821,4183.59,4168.718,4158.846,4172.564,4177.821,4189.615,4172.564,4201.667,4174.487,4192.436,4188.974,4182.564,0,0
655,57,0,0,4156.41,4163.846,4178.59,4168.333,4158.846,4170.0,4171.41,4184.615,4176.282,4204.744000000001,4170.128,4189.872,4187.308,4173.333,0,0
656,58,0,0,4150.128,4163.205,4168.846,4168.462,4154.231,4172.564,4171.667,4172.9490000000005,4170.0,4198.974,4157.9490000000005,4182.179,4185.897,4166.538,0,0
657,59,0,0,4160.128,4167.179,4168.462,4171.282,4159.615,4177.436,4182.9490000000005,4178.974,4167.564,4196.282,4158.333,4177.564,4188.205,4168.718,0,0
658,60,0,0,4166.923,4168.718,4174.872,4172.564,4161.538,4175.128,4186.41,4190.897,4175.513,4203.718,4172.0509999999995,4181.667,4194.103,4177.564,0,0
659,61,0,0,4162.0509999999995,4167.308,4175.641,4171.282,4157.436,4173.333,4184.615,4187.9490000000005,4175.128,4204.359,4168.846,4189.103,4190.897,4179.744000000001,0,0
660,62,0,0,4154.487,4163.974,4171.282,4169.744000000001,4161.282,4176.538,4183.333,4173.077,4154.615,4187.564,4146.026,4181.795,4171.795,4170.641,0,0
661,63,0,0,4157.179,4161.41,4170.255999999999,4167.9490000000005,4163.077,4178.077,4189.231,4167.436,4143.077,4179.359,4138.59,4168.333,4162.436,4162.0509999999995,0,0
662,64,0,2884,4166.41,4165.385,4176.795,4167.564,4147.179,4172.436,4184.615,4177.821,4159.872,4194.359,4152.821,4174.359,4175.513,4169.872,0,0
663,65,0,3243,4171.923,4170.255999999999,4184.615,4168.846,4145.897,4167.308,4165.641,4186.154,4175.128,4206.41,4166.667,4189.744000000001,4188.333,4183.077,0,0
664,66,0,3268,4169.231,4168.462,4183.846,4169.872,4168.846,4166.795,4158.462,4180.385,4165.128,4199.615,4167.692,4188.462,4183.718,4179.744000000001,0,0
665,67,0,3441,4171.538,4171.41,4186.154,4175.255999999999,4177.308,4169.487,4171.154,4181.923,4160.769,4197.436,4170.128,4187.564,4181.538,4177.179,0,0
666,68,0,3528,4174.744000000001,4170.641,4189.487,4177.0509999999995,4167.821,4172.308,4175.385,4189.615,4174.103,4205.128,4172.564,4190.769,4187.9490000000005,4179.231,0,0
667,69,0,2889,4163.59,4159.487,4178.077,4168.974,4168.077,4172.308,4168.846,4180.897,4172.9490000000005,4198.846,4160.513,4178.462,4183.205,4170.385,0,0
668,70,0,3439,4161.538,4159.103,4171.923,4165.255999999999,4170.128,4172.179,4170.897,4168.718,4155.255999999999,4186.538,4153.077,4173.077,4173.205,4163.974,0,0
669,71,0,2955,4166.538,4161.795,4178.718,4169.231,4159.359,4170.513,4170.897,4166.026,4147.564,4183.077,4156.026,4181.282,4172.692,4170.641,0,0
670,72,0,3203,4160.769,4157.308,4175.897,4170.641,4155.769,4171.026,4167.436,4167.9490000000005,4159.359,4188.077,4157.0509999999995,4178.462,4180.128,4172.692,0,0
671,73,0,3582,4154.872,4162.436,4167.9490000000005,4169.103,4155.897,4170.255999999999,4167.179,4171.41,4167.436,4198.333,4159.615,4171.538,4187.821,4168.077,0,0
672,74,0,3429,4157.692,4169.487,4170.128,4168.846,4154.231,4170.128,4165.769,4169.872,4160.0,4200.897,4167.692,4174.103,4185.128,4170.0,0,0
673,75,0,2610,4156.538,4162.564,4169.615,4167.9490000000005,4152.179,4172.0509999999995,4167.308,4168.846,4151.026,4189.103,4165.128,4174.487,4173.59,4169.103,0,0
674,76,0,3413,4153.846,4156.282,4170.897,4167.564,4152.308,4171.282,4171.795,4182.692,4154.359,4185.385,4158.205,4176.41,4176.026,4168.59,0,0
675,77,0,2695,4156.41,4156.538,4177.692,4168.333,4156.154,4170.128,4174.231,4183.462,4157.436,4191.667,4158.077,4181.026,4180.769,4166.795,0,0
676,78,0,3429,4153.59,4160.255999999999,4174.487,4167.692,4157.0509999999995,4172.0509999999995,4175.128,4156.154,4147.179,4183.718,4152.179,4172.9490000000005,4173.718,4156.795,0,0
677,79,0,2610,4151.538,4169.359,4168.718,4168.59,4159.231,4173.59,4178.205,4147.308,4139.359,4172.179,4144.359,4165.769,4164.615,4153.462,0,0
678,80,0,3413,4150.513,4169.872,4162.564,4167.692,4156.667,4170.385,4165.0,4154.872,4132.308,4165.641,4139.103,4162.9490000000005,4154.103,4152.179,0,0
679,81,0,2695,4148.59,4164.487,4158.846,4166.538,4155.0,4168.333,4146.795,4152.436,4138.462,4173.846,4142.308,4161.41,4160.897,4153.462,0,0
680,82,0,3429,4151.923,4166.41,4164.744000000001,4168.846,4163.205,4169.487,4155.641,4158.333,4157.179,4192.821,4151.538,4170.0,4174.615,4163.077,0,0
681,83,0,2610,4155.385,4170.255999999999,4171.538,4170.385,4167.692,4172.0509999999995,4171.923,4173.077,4151.538,4189.615,4154.615,4174.615,4164.615,4164.359,0,0
682,84,0,3413,4154.872,4169.744000000001,4169.359,4169.103,4159.231,4172.0509999999995,4174.231,4172.564,4129.615,4174.359,4153.205,4168.718,4153.205,4159.231,0,0
683,85,0,2695,4153.333,4165.897,4169.872,4169.231,4153.205,4168.974,4180.255999999999,4174.615,4133.077,4180.513,4152.9490000000005,4172.564,4164.359,4165.641,0,0
684,86,0,3429,4154.872,4163.59,4179.744000000001,4171.538,4158.462,4175.513,4189.615,4183.974,4150.897,4190.897,4154.615,4185.513,4172.692,4173.462,0,0
685,87,0,2610,4155.255999999999,4166.154,4179.359,4169.615,4160.513,4182.9490000000005,4184.744000000001,4179.744000000001,4146.667,4186.154,4157.179,4187.564,4169.231,4169.359,0,0
686,88,0,3413,4154.872,4168.718,4170.897,4166.923,4157.0509999999995,4176.667,4181.538,4184.359,4143.077,4185.641,4158.205,4180.769,4167.9490000000005,4167.9490000000005,0,0
687,89,0,2695,4155.385,4165.641,4167.821,4168.974,4155.769,4170.897,4190.385,4190.0,4149.359,4185.513,4149.615,4172.9490000000005,4162.179,4166.154,0,0
688,90,0,3429,4149.359,4160.0,4168.205,4166.795,4157.179,4172.564,4177.9490000000005,4166.154,4137.436,4170.641,4139.231,4167.692,4153.462,4155.641,0,0
689,91,0,2610,4138.846,4154.103,4165.128,4157.308,4150.769,4169.744000000001,4152.0509999999995,4147.692,4122.0509999999995,4155.769,4136.154,4167.0509999999995,4143.59,4151.282,0,0
690,92,0,3413,4138.205,4151.795,4164.615,4153.59,4142.0509999999995,4166.41,4153.077,4162.179,4128.077,4157.692,4136.41,4169.231,4136.154,4155.769,0,0
691,93,0,2695,4143.718,4154.359,4169.359,4157.0509999999995,4144.103,4170.385,4171.026,4172.9490000000005,4140.897,4170.641,4138.333,4170.513,4140.897,4158.333,0,0
692,94,0,3429,4141.795,4155.0,4169.231,4156.667,4133.333,4172.821,4170.897,4164.231,4138.077,4172.436,4137.308,4168.462,4142.179,4154.103,0,0
693,95,0,2610,4138.333,4155.513,4167.308,4153.462,4124.487,4170.0,4162.0509999999995,4164.487,4134.487,4166.282,4134.744000000001,4166.41,4136.923,4153.59,0,0
694,96,0,3413,4143.718,4157.821,4167.9490000000005,4155.897,4144.359,4168.718,4173.846,4173.077,4135.641,4166.41,4136.41,4170.128,4135.897,4157.179,0,0
695,97,0,2695,4152.821,4163.59,4171.538,4164.615,4161.026,4169.487,4186.795,4176.154,4137.9490000000005,4169.103,4142.821,4174.103,4138.974,4157.9490000000005,0,0
696,98,0,3429,4152.564,4166.795,4168.333,4167.821,4150.513,4167.179,4173.59,4166.41,4137.308,4171.923,4143.077,4168.974,4140.255999999999,4156.154,0,0
697,99,0,2610,4141.795,4158.846,4156.41,4158.205,4140.255999999999,4162.436,4150.641,4150.641,4127.436,4171.41,4136.667,4157.308,4137.9490000000005,4152.821,0,0
698,100,0,3413,4133.333,4151.538,4151.154,4149.359,4140.255999999999,4161.667,4146.026,4151.282,4119.872,4161.026,4132.821,4152.179,4136.41,4149.359,0,0
699,101,0,2695,4133.077,4153.462,4154.359,4151.923,4137.308,4164.359,4157.308,4162.821,4127.0509999999995,4158.077,4136.538,4159.359,4134.744000000001,4150.513,0,0
700,102,0,3429,4137.308,4155.641,4157.564,4155.769,4136.923,4165.0,4166.667,4168.462,4136.667,4168.846,4142.564,4168.077,4135.769,4155.255999999999,0,0
701,103,0,2610,4140.769,4154.103,4162.179,4155.769,4137.308,4167.821,4174.103,4170.0,4139.231,4175.897,4146.026,4169.359,4146.538,4155.769,0,0
702,104,0,3413,4138.462,4151.795,4167.9490000000005,4153.205,4135.769,4169.231,4173.077,4168.077,4137.821,4175.128,4148.59,4165.769,4150.0,4154.231,0,0
703,105,0,2695,4136.923,4149.359,4170.769,4153.205,4134.615,4165.897,4166.282,4168.846,4137.0509999999995,4176.41,4151.41,4166.923,4142.179,4156.41,0,0
704,106,0,3429,4143.718,4155.0,4168.718,4162.692,4137.0509999999995,4167.564,4173.077,4174.231,4142.9490000000005,4178.333,4151.154,4172.0509999999995,4141.154,4158.846,0,0
705,107,0,2610,4142.0509999999995,4156.923,4158.59,4161.154,4140.255999999999,4166.282,4175.769,4165.385,4139.487,4170.128,4141.538,4165.0,4139.744000000001,4155.128,0,0
706,108,0,3413,4133.846,4149.744000000001,4150.513,4151.154,4137.0509999999995,4161.026,4156.923,4150.897,4131.026,4165.641,4133.333,4151.923,4140.513,4151.154,0,0
707,109,0,2695,4143.718,4157.179,4160.641,4163.077,4138.59,4163.846,4152.564,4161.667,4147.436,4180.385,4143.718,4156.282,4157.564,4154.487,0,0
708,110,0,3429,4156.538,4170.513,4169.231,4178.59,4144.872,4170.0,4171.923,4181.923,4162.308,4194.359,4157.692,4171.538,4164.231,4160.0,0,0
709,111,0,2610,4148.718,4165.128,4161.026,4166.795,4142.821,4166.667,4164.615,4172.564,4146.923,4184.872,4154.359,4170.128,4146.795,4159.359,0,0
710,112,0,3413,4133.59,4148.974,4151.538,4151.41,4138.077,4164.231,4145.513,4152.564,4135.897,4167.179,4141.538,4155.641,4136.154,4148.846,0,0
711,113,0,2695,4127.564,4140.128,4148.59,4149.487,4138.718,4168.974,4162.308,4150.897,4135.641,4158.718,4132.308,4150.128,4133.462,4137.0509999999995,0,0
712,114,0,3429,4123.846,4134.231,4143.846,4143.205,4137.179,4168.077,4173.333,4153.462,4124.231,4150.255999999999,4122.692,4150.641,4128.333,4135.128,0,0
713,115,0,2610,4119.487,4130.128,4139.744000000001,4137.692,4134.359,4166.538,4158.718,4149.359,4124.231,4148.205,4119.103,4148.718,4131.282,4138.718,0,0
714,116,0,3413,4118.077,4128.462,4140.513,4140.0,4134.615,4168.846,4160.128,4151.667,4142.436,4159.872,4128.205,4149.872,4143.077,4139.744000000001,0,0
715,117,0,2695,4120.897,4126.026,4140.128,4140.769,4135.769,4168.59,4172.308,4163.59,4159.103,4172.436,4138.205,4154.487,4163.205,4140.897,0,0
716,118,0,3429,4123.077,4130.385,4139.872,4140.385,4137.564,4169.615,4172.436,4162.0509999999995,4161.282,4176.538,4139.487,4154.872,4179.487,4142.308,0,0
717,119,0,2610,4117.9490000000005,4130.897,4138.59,4139.359,4137.564,4167.821,4161.154,4144.359,4143.846,4168.077,4132.692,4150.128,4165.897,4140.385,0,0
718,120,0,3413,4119.487,4128.462,4139.359,4140.385,4139.487,4161.538,4156.667,4143.718,4140.385,4170.897,4135.128,4153.077,4156.538,4143.205,0,0
719,121,0,2695,4123.974,4125.897,4143.462,4137.436,4140.128,4159.615,4160.128,4159.103,4153.846,4183.333,4141.667,4156.154,4170.0,4145.255999999999,0,0
720,122,0,3429,4114.744000000001,4114.744000000001,4136.795,4127.179,4128.59,4157.692,4153.462,4156.026,4143.59,4170.769,4130.255999999999,4145.255999999999,4167.179,4136.154,0,0
721,123,0,2610,4103.333,4106.026,4123.974,4120.641,4116.41,4150.128,4137.692,4141.795,4127.564,4151.154,4119.359,4134.744000000001,4158.59,4126.667,0,0
722,124,0,3413,4096.282,4101.795,4121.154,4116.923,4120.0,4148.333,4136.795,4141.154,4137.308,4152.0509999999995,4120.128,4137.9490000000005,4164.487,4124.359,0,0
723,125,0,2695,4084.487,4094.103,4124.103,4109.487,4110.641,4153.718,4149.359,4144.359,4141.923,4151.282,4113.077,4137.179,4161.795,4122.179,0,0
724,126,0,3429,4074.615,4087.4359999999997,4117.821,4106.154,4090.897,4153.846,4153.718,4142.821,4129.615,4137.308,4102.436,4124.231,4151.41,4117.9490000000005,0,0
725,127,0,53,4079.8720000000003,4090.0,4110.128,4109.359,4101.154,4152.179,4153.718,4142.0509999999995,4127.9490000000005,4135.0,4103.333,4119.872,4156.282,4118.462,0,0
726,0,0,2882,4086.41,4094.3590000000004,4109.487,4109.744000000001,4121.41,4153.333,4151.667,4141.923,4136.667,4141.154,4107.179,4126.154,4162.436,4123.59,0,0
727,1,0,3241,4080.385,4093.59,4110.769,4108.59,4114.103,4154.231,4144.231,4144.359,4140.385,4142.692,4109.872,4126.667,4162.0509999999995,4121.154,0,0
728,2,0,3267,4067.308,4081.538,4105.513,4099.231,4094.487,4148.205,4140.385,4143.974,4128.59,4138.59,4103.718,4121.026,4158.333,4110.128,0,0
729,3,0,3436,4068.333,4075.385,4102.179,4088.462,4096.41,4143.462,4146.154,4138.846,4122.564,4138.333,4096.282,4120.385,4156.154,4111.282,0,0
730,4,0,3518,4082.4359999999997,4086.41,4109.487,4096.026,4108.718,4151.667,4149.231,4140.255999999999,4134.487,4150.128,4107.436,4126.667,4166.154,4125.128,0,0
731,5,0,2888,4080.6409999999996,4083.974,4108.462,4101.795,4105.0,4151.923,4137.0509999999995,4142.692,4136.282,4150.641,4113.462,4126.923,4173.846,4126.41,0,0
732,6,1,2962,4080.6409999999996,4083.974,4108.974,4102.308,4103.333,4150.385,4137.308,4140.0,4133.974,4149.231,4112.0509999999995,4126.923,4173.077,4125.128,0,0
733,7,1,3036,4080.6409999999996,4083.974,4109.487,4102.821,4101.667,4148.846,4137.564,4137.308,4131.667,4147.821,4110.641,4126.923,4172.308,4123.846,0,0
734,8,1,3110,4080.6409999999996,4083.974,4110.0,4103.333,4100.0,4147.308,4137.821,4134.615,4129.359,4146.41,4109.231,4126.923,4171.538,4122.564,0,0
735,9,1,3184,4080.6409999999996,4083.974,4110.513,4103.846,4098.333,4145.769,4138.077,4131.923,4127.0509999999995,4145.0,4107.821,4126.923,4170.769,4121.282,0,0
736,10,1,3258,4080.6409999999996,4083.974,4111.026,4104.359,4096.667,4144.231,4138.333,4129.231,4124.744000000001,4143.59,4106.41,4126.923,4170.0,4120.0,0,0
737,11,1,3332,4080.6409999999996,4083.974,4111.538,4104.872,4095.0,4142.692,4138.59,4126.538,4122.436,4142.179,4105.0,4126.923,4169.231,4118.718,0,0
738,12,0,3412,4080.7690000000002,4083.333,4112.0509999999995,4105.513,4093.333,4140.897,4139.359,4123.846,4120.128,4140.0,4103.462,4126.282,4168.333,4117.179,0,0
739,13,0,2695,4076.282,4080.513,4108.462,4096.026,4091.41,4139.103,4137.436,4127.436,4117.692,4136.282,4094.2309999999998,4122.308,4158.974,4109.103,0,0
740,14,0,3418,4076.795,4080.256,4105.513,4092.4359999999997,4090.7690000000002,4141.154,4137.0509999999995,4132.179,4114.103,4136.026,4090.256,4118.718,4151.923,4107.564,0,0
741,15,0,2610,4072.051,4078.8459999999995,4101.026,4095.0,4092.4359999999997,4140.513,4141.538,4134.615,4112.821,4134.615,4086.282,4112.821,4153.974,4107.821,0,0
742,16,0,0,4062.308,4074.8720000000003,4095.385,4093.8459999999995,4092.308,4139.231,4145.513,4140.769,4116.026,4131.923,4084.3590000000004,4104.231,4154.615,4098.462,0,0
743,17,0,0,4058.205,4074.487,4092.4359999999997,4090.513,4089.3590000000004,4139.744000000001,4141.538,4133.333,4116.923,4130.128,4085.897,4096.538,4154.103,4091.923,0,0
744,18,0,0,4061.1540000000005,4077.4359999999997,4092.308,4091.795,4085.897,4138.846,4126.154,4120.385,4117.308,4132.564,4089.2309999999998,4099.359,4158.333,4096.154,0,0
745,19,0,0,4061.1540000000005,4076.41,4091.923,4091.923,4081.1540000000005,4135.385,4111.282,4123.974,4116.795,4131.026,4086.923,4102.9490000000005,4155.897,4096.154,0,0
746,20,0,0,4060.6409999999996,4073.718,4091.026,4091.1540000000005,4078.333,4136.538,4116.795,4128.462,4120.897,4125.641,4082.308,4098.974,4153.077,4091.538,0,0
747,21,0,0,4062.051,4071.923,4091.1540000000005,4092.179,4078.205,4138.462,4124.615,4120.769,4123.077,4123.718,4077.5640000000003,4096.667,4154.872,4096.795,0,0
748,22,0,0,4061.667,4067.949,4092.821,4088.718,4076.282,4136.667,4121.667,4119.744000000001,4112.9490000000005,4124.615,4075.7690000000002,4102.821,4147.821,4105.385,0,0
749,23,0,0,4061.41,4067.4359999999997,4094.615,4085.897,4074.2309999999998,4138.205,4127.564,4124.231,4102.9490000000005,4129.487,4081.1540000000005,4105.0,4137.821,4105.385,0,0
750,24,0,0,4067.5640000000003,4074.615,4097.179,4090.6409999999996,4075.513,4140.128,4136.795,4128.974,4107.821,4139.872,4086.667,4106.795,4144.103,4106.923,0,0
751,25,0,0,4070.1279999999997,4078.205,4098.974,4096.154,4076.795,4137.692,4130.769,4135.641,4119.615,4142.436,4086.282,4111.41,4153.333,4110.128,0,0
752,26,0,0,4059.2309999999998,4071.282,4094.3590000000004,4092.308,4072.5640000000003,4135.769,4120.641,4125.897,4116.538,4133.462,4074.8720000000003,4101.41,4150.128,4100.641,0,0
753,27,0,0,4058.333,4075.0,4091.1540000000005,4089.103,4068.205,4137.0509999999995,4126.41,4135.128,4120.897,4142.821,4074.8720000000003,4095.0,4151.538,4095.897,0,0
754,28,0,0,4067.821,4086.1540000000005,4092.308,4092.308,4067.308,4137.564,4133.846,4150.641,4135.641,4156.923,4085.6409999999996,4103.462,4155.641,4105.641,0,0
755,29,0,0,4067.5640000000003,4081.923,4091.1540000000005,4094.487,4065.6409999999996,4137.308,4129.231,4118.077,4125.0,4145.513,4084.615,4107.821,4147.564,4108.205,0,0
756,30,0,0,4067.4359999999997,4078.974,4094.744,4096.795,4063.205,4138.462,4123.462,4092.692,4103.718,4134.615,4083.59,4103.462,4139.487,4103.718,0,0
757,31,0,0,4075.256,4091.1540000000005,4105.769,4103.077,4062.308,4139.231,4123.974,4119.487,4104.487,4142.9490000000005,4091.41,4104.872,4147.9490000000005,4108.333,0,0
758,32,0,0,4079.103,4092.821,4109.487,4105.897,4063.077,4138.333,4127.179,4134.359,4110.897,4145.513,4090.7690000000002,4108.59,4156.667,4113.462,0,0
759,33,0,0,4072.821,4082.051,4097.692,4100.255999999999,4061.282,4135.513,4122.9490000000005,4116.026,4103.974,4134.744000000001,4079.487,4104.615,4147.692,4107.9490000000005,0,0
760,34,0,0,4069.487,4086.282,4089.8720000000003,4100.641,4060.0,4136.154,4122.9490000000005,4120.128,4108.718,4138.718,4082.5640000000003,4103.205,4136.667,4104.231,0,0
761,35,0,0,4077.4359999999997,4094.487,4099.487,4106.282,4066.667,4138.974,4133.077,4133.974,4118.462,4151.41,4092.692,4103.59,4140.641,4110.0,0,0
762,36,0,0,4088.462,4093.59,4111.795,4108.718,4074.615,4140.513,4141.282,4140.769,4122.821,4157.692,4096.282,4110.513,4154.487,4119.872,0,0
763,37,0,0,4091.282,4097.9490000000005,4111.667,4113.974,4075.256,4141.026,4140.897,4147.564,4134.744000000001,4161.538,4100.128,4119.872,4155.128,4123.462,0,0
764,38,0,0,4089.744,4102.692,4107.179,4116.026,4072.5640000000003,4139.103,4136.795,4138.205,4134.487,4160.897,4101.282,4113.59,4141.538,4121.923,0,0
765,39,0,0,4092.051,4100.513,4107.821,4110.0,4073.205,4136.154,4136.538,4128.718,4126.282,4163.462,4102.0509999999995,4104.872,4143.974,4124.103,0,0
766,40,0,0,4088.8459999999995,4099.615,4106.795,4109.615,4074.103,4137.0509999999995,4136.026,4129.615,4128.974,4168.974,4101.795,4109.744000000001,4155.769,4123.974,0,0
767,41,0,0,4083.59,4100.513,4105.513,4113.846,4078.8459999999995,4139.872,4129.359,4127.692,4122.0509999999995,4163.333,4097.9490000000005,4114.872,4147.436,4121.667,0,0
768,42,0,0,4081.026,4095.897,4106.282,4109.359,4082.4359999999997,4137.821,4120.255999999999,4119.359,4107.564,4153.974,4094.487,4110.0,4135.897,4119.359,0,0
769,43,0,0,4075.6409999999996,4091.667,4100.513,4104.103,4077.692,4136.667,4125.0,4120.255999999999,4115.641,4158.462,4093.8459999999995,4105.385,4140.385,4111.923,0,0
770,44,0,0,4074.744,4092.308,4093.974,4107.308,4079.2309999999998,4139.231,4138.462,4129.103,4126.282,4165.769,4097.308,4105.897,4138.59,4109.744000000001,0,0
