,COUNTER, INTERPOLATED, RAW_CQ, AF3, F7, F3, FC5, T7, P7, O1, O2, P8, T8, FC6, F4, F8, AF4, MARKER_HARDWARE, MARKER
0,113,0,2085,4182.308,4185.255999999999,4169.359,4184.744000000001,4178.59,4184.487,4187.564,4196.538,4184.359,4188.846,4176.923,4162.436,4188.333,4171.923,0,0
1,114,0,3186,4172.308,4172.692,4160.513,4171.795,4169.744000000001,4170.513,4178.462,4173.205,4173.974,4178.462,4166.026,4157.436,4182.436,4162.692,0,0
2,115,0,3230,4171.538,4172.308,4162.692,4170.255999999999,4170.255999999999,4172.9490000000005,4185.385,4176.026,4167.436,4169.487,4153.333,4157.308,4172.692,4155.641,0,0
3,116,0,3291,4178.462,4179.872,4171.923,4174.872,4177.308,4184.231,4187.821,4191.795,4176.026,4175.641,4156.154,4158.333,4180.385,4159.872,0,0
4,117,0,2085,4170.0,4172.692,4163.846,4171.538,4173.718,4176.41,4171.282,4162.821,4171.795,4176.282,4155.769,4152.9490000000005,4186.538,4155.0,0,0
5,118,0,3186,4156.41,4165.641,4151.282,4166.282,4170.128,4168.077,4163.462,4137.821,4156.923,4164.359,4142.9490000000005,4145.897,4172.564,4141.282,0,0
6,119,0,3230,4158.846,4170.0,4155.769,4167.564,4174.231,4180.128,4180.769,4174.359,4167.692,4167.9490000000005,4143.974,4149.231,4170.641,4143.462,0,0
7,120,0,3291,4170.0,4173.333,4166.154,4173.333,4177.0509999999995,4188.59,4194.744000000001,4207.821,4193.205,4190.513,4164.487,4161.026,4193.205,4159.359,0,0
8,121,0,2085,4170.128,4168.846,4160.641,4170.897,4171.538,4176.667,4176.154,4182.0509999999995,4186.667,4189.359,4161.923,4157.308,4189.872,4157.0509999999995,0,0
9,122,0,3186,4163.333,4164.103,4151.282,4163.846,4165.769,4164.615,4162.0509999999995,4161.538,4166.282,4167.308,4144.872,4146.41,4168.462,4144.231,0,0
10,123,0,3230,4167.9490000000005,4168.077,4162.821,4167.692,4171.154,4171.795,4184.103,4184.487,4177.9490000000005,4174.615,4157.692,4155.769,4177.692,4149.487,0,0
11,124,0,3291,4173.59,4172.179,4170.0,4174.487,4177.179,4181.667,4192.0509999999995,4196.282,4195.128,4192.692,4171.795,4166.026,4194.231,4159.359,0,0
12,125,0,2085,4167.179,4167.692,4159.872,4170.641,4173.718,4175.385,4170.897,4179.744000000001,4182.692,4180.385,4158.718,4155.641,4187.692,4154.359,0,0
13,126,0,3186,4165.0,4169.231,4160.0,4171.41,4175.897,4170.897,4165.255999999999,4180.513,4172.179,4169.231,4153.333,4151.282,4181.282,4150.769,0,0
14,127,0,52,4169.231,4172.179,4166.667,4176.41,4185.513,4178.846,4172.0509999999995,4181.538,4176.667,4176.538,4165.769,4161.41,4185.513,4157.179,0,0
15,0,0,2682,4167.308,4169.103,4165.0,4172.9490000000005,4184.744000000001,4183.59,4173.59,4166.538,4172.179,4173.974,4168.205,4162.821,4184.487,4156.795,0,0
16,1,0,3085,4167.821,4173.205,4167.0509999999995,4175.0,4180.0,4175.897,4180.897,4171.282,4168.462,4166.538,4166.154,4158.077,4179.487,4154.359,0,0
17,2,0,3245,4176.282,4184.103,4171.282,4184.487,4185.128,4171.154,4187.9490000000005,4190.0,4178.205,4175.0,4171.026,4161.923,4182.308,4163.846,0,0
18,3,0,3056,4177.564,4185.128,4164.872,4185.769,4186.538,4178.077,4181.026,4193.333,4185.128,4183.59,4172.179,4163.077,4185.128,4168.974,0,0
19,4,0,3569,4178.974,4182.436,4164.487,4183.205,4183.974,4185.0,4181.538,4187.308,4185.769,4185.128,4171.41,4159.359,4188.718,4167.436,0,0
20,5,0,3377,4186.282,4187.179,4170.897,4186.538,4191.026,4189.615,4195.385,4187.436,4184.615,4184.359,4172.9490000000005,4157.179,4188.718,4170.0,0,0
21,6,0,3368,4181.026,4183.718,4170.0,4187.308,4194.103,4191.026,4189.359,4181.923,4177.179,4175.255999999999,4169.744000000001,4153.974,4176.154,4169.744000000001,0,0
22,7,0,3306,4168.59,4172.821,4165.641,4181.41,4184.359,4180.128,4167.9490000000005,4170.513,4168.333,4164.615,4165.513,4151.282,4166.026,4162.0509999999995,0,0
23,8,0,3355,4175.897,4174.872,4167.564,4181.795,4180.128,4172.179,4169.615,4174.744000000001,4173.333,4173.077,4173.718,4158.333,4176.538,4166.282,0,0
24,9,0,3249,4190.385,4187.821,4173.974,4188.462,4187.179,4180.641,4179.872,4187.692,4187.0509999999995,4190.385,4187.9490000000005,4166.795,4192.0509999999995,4181.667,0,0
25,10,0,3179,4187.308,4188.974,4175.385,4189.231,4187.564,4184.744000000001,4170.385,4183.718,4188.846,4184.615,4185.641,4163.59,4187.564,4181.282,0,0
26,11,0,3234,4179.487,4178.59,4173.846,4183.59,4184.487,4182.179,4172.0509999999995,4174.872,4181.282,4171.282,4175.769,4163.974,4179.359,4169.231,0,0
27,12,0,3290,4181.923,4180.513,4176.026,4186.282,4193.077,4186.923,4189.231,4183.205,4183.205,4182.179,4182.9490000000005,4174.231,4188.846,4172.0509999999995,0,0
28,13,0,2082,4190.255999999999,4189.231,4181.026,4193.333,4199.359,4190.0,4190.255999999999,4195.897,4197.0509999999995,4202.9490000000005,4204.103,4180.385,4205.385,4191.667,0,0
29,14,0,3179,4194.744000000001,4182.9490000000005,4183.077,4191.923,4192.9490000000005,4187.436,4188.718,4203.974,4205.641,4206.026,4212.821,4178.59,4208.846,4204.744000000001,0,0
30,15,0,3234,4185.769,4163.205,4178.205,4181.795,4184.744000000001,4185.255999999999,4190.641,4205.513,4202.9490000000005,4197.436,4205.513,4177.308,4195.513,4195.897,0,0
31,16,0,0,4172.0509999999995,4151.538,4172.308,4172.436,4186.282,4186.282,4183.974,4199.359,4198.974,4197.308,4202.564,4178.59,4190.128,4187.0509999999995,0,0
32,17,0,0,4170.641,4153.59,4171.41,4171.795,4188.59,4189.103,4181.154,4203.333,4204.103,4205.0,4207.564,4179.872,4200.641,4194.615,0,0
33,18,0,0,4175.0,4154.487,4170.897,4171.923,4185.255999999999,4187.436,4186.282,4208.974,4209.615,4206.923,4205.641,4177.179,4206.538,4195.385,0,0
34,19,0,0,4168.077,4152.0509999999995,4167.179,4168.333,4181.795,4180.513,4185.769,4203.333,4202.9490000000005,4199.744000000001,4196.41,4176.154,4196.795,4182.692,0,0
35,20,0,0,4167.0509999999995,4153.462,4168.205,4169.744000000001,4181.795,4182.0509999999995,4183.59,4203.077,4199.487,4199.872,4196.667,4180.513,4192.692,4188.333,0,0
36,21,0,0,4180.513,4157.436,4174.487,4174.103,4185.513,4185.769,4185.0,4197.0509999999995,4203.205,4205.513,4203.462,4182.692,4202.564,4201.795,0,0
37,22,0,0,4180.128,4155.769,4172.436,4172.692,4185.769,4182.179,4182.692,4186.795,4200.128,4201.154,4200.641,4176.795,4198.846,4192.179,0,0
38,23,0,0,4169.103,4153.205,4168.718,4168.974,4183.333,4182.308,4184.487,4197.9490000000005,4196.667,4196.667,4198.718,4175.641,4186.41,4181.795,0,0
39,24,0,0,4169.615,4156.667,4171.795,4170.769,4184.103,4186.282,4188.205,4212.821,4200.513,4201.026,4202.692,4177.821,4184.744000000001,4187.564,0,0
40,25,0,0,4174.231,4160.255999999999,4173.974,4177.564,4187.9490000000005,4187.821,4183.846,4204.359,4200.385,4201.667,4201.154,4176.154,4190.385,4188.846,0,0
41,26,0,0,4172.179,4159.487,4174.231,4185.385,4189.744000000001,4189.103,4189.744000000001,4194.359,4194.615,4197.564,4197.308,4174.615,4190.769,4184.615,0,0
42,27,0,0,4171.026,4157.564,4173.077,4183.718,4187.564,4190.0,4200.0,4198.59,4194.359,4199.487,4202.436,4175.641,4190.0,4185.641,0,0
43,28,0,0,4169.487,4157.436,4170.255999999999,4174.359,4185.641,4185.769,4190.255999999999,4197.821,4196.667,4201.41,4200.255999999999,4172.9490000000005,4192.179,4183.077,0,0
44,29,0,0,4165.385,4157.0509999999995,4168.846,4169.615,4185.897,4184.231,4182.821,4198.077,4196.923,4195.513,4185.897,4166.795,4186.667,4172.821,0,0
45,30,0,0,4169.744000000001,4157.692,4172.0509999999995,4173.718,4189.103,4195.128,4195.513,4208.462,4198.846,4196.154,4189.615,4168.846,4185.897,4168.718,0,0
46,31,0,0,4166.795,4156.41,4170.385,4172.692,4189.103,4198.974,4195.0,4217.9490000000005,4202.436,4203.974,4202.821,4174.103,4194.231,4170.255999999999,0,0
47,32,0,0,4154.744000000001,4154.231,4168.077,4167.179,4185.897,4193.333,4181.795,4213.205,4201.795,4198.974,4196.667,4173.718,4192.564,4168.077,0,0
48,33,0,0,4159.231,4162.179,4178.205,4175.513,4187.308,4196.538,4189.359,4203.846,4198.974,4191.41,4189.744000000001,4172.564,4189.487,4167.308,0,0
49,34,0,0,4172.308,4170.0,4187.9490000000005,4187.564,4188.846,4201.282,4201.282,4207.308,4200.513,4196.667,4198.974,4176.026,4199.103,4170.128,0,0
50,35,0,0,4170.641,4166.154,4186.923,4184.872,4185.897,4196.923,4197.692,4213.718,4201.667,4202.692,4200.385,4179.103,4203.333,4171.282,0,0
51,36,0,0,4166.923,4165.641,4183.974,4183.462,4187.692,4198.846,4197.9490000000005,4220.897,4202.0509999999995,4197.436,4189.487,4177.9490000000005,4193.077,4171.538,0,0
52,37,0,0,4168.974,4167.821,4180.769,4185.0,4191.154,4205.0,4202.9490000000005,4217.0509999999995,4201.026,4189.487,4186.795,4171.154,4188.718,4166.282,0,0
53,38,0,0,4162.308,4157.564,4172.179,4174.487,4184.487,4194.872,4193.077,4192.0509999999995,4186.154,4185.255999999999,4181.923,4163.205,4184.359,4157.436,0,0
54,39,0,0,4155.513,4147.564,4163.077,4165.385,4173.333,4182.564,4181.538,4175.897,4168.333,4178.974,4171.282,4160.385,4169.872,4153.718,0,0
55,40,0,0,4161.667,4150.897,4163.974,4167.436,4168.59,4183.077,4182.9490000000005,4184.615,4172.436,4173.462,4173.718,4161.026,4167.179,4158.59,0,0
56,41,0,0,4169.231,4153.718,4166.538,4168.462,4172.179,4186.795,4181.667,4192.436,4183.846,4175.769,4182.436,4160.641,4176.667,4165.513,0,0
57,42,0,0,4171.538,4156.923,4170.769,4173.846,4178.846,4186.923,4183.205,4192.436,4184.231,4183.718,4184.872,4161.667,4182.0509999999995,4170.128,0,0
58,43,0,0,4171.667,4161.538,4176.41,4181.923,4185.128,4186.795,4186.923,4190.513,4183.974,4186.282,4186.026,4163.462,4183.077,4170.769,0,0
59,44,0,0,4172.308,4159.487,4177.436,4177.9490000000005,4185.641,4187.692,4174.231,4183.077,4185.897,4184.103,4188.718,4162.564,4186.667,4172.0509999999995,0,0
60,45,0,0,4170.769,4154.487,4173.718,4170.255999999999,4178.077,4185.255999999999,4162.308,4180.385,4184.103,4185.513,4186.923,4165.513,4187.9490000000005,4174.487,0,0
61,46,0,0,4172.179,4154.744000000001,4176.923,4176.538,4175.769,4183.205,4174.744000000001,4186.667,4182.436,4185.897,4183.974,4171.538,4183.462,4173.333,0,0
62,47,0,0,4177.821,4161.923,4187.0509999999995,4185.513,4183.462,4184.615,4187.0509999999995,4185.513,4182.564,4183.077,4183.462,4173.846,4181.795,4172.9490000000005,0,0
63,48,0,0,4176.282,4168.974,4183.846,4185.255999999999,4186.41,4186.282,4182.564,4182.436,4182.0509999999995,4181.282,4183.718,4168.59,4184.872,4174.359,0,0
64,49,0,0,4169.872,4167.0509999999995,4173.974,4183.974,4183.077,4185.128,4183.718,4192.179,4182.821,4186.41,4187.9490000000005,4165.128,4183.333,4175.385,0,0
65,50,0,0,4169.231,4158.59,4170.385,4183.718,4181.282,4183.462,4191.538,4195.769,4177.564,4184.359,4183.974,4159.615,4175.0,4173.205,0,0
66,51,0,0,4170.0,4153.974,4169.744000000001,4180.897,4179.487,4185.0,4184.487,4180.897,4166.923,4169.872,4172.564,4149.615,4168.846,4168.205,0,0
67,52,0,0,4168.974,4158.077,4167.436,4181.923,4181.154,4183.59,4173.205,4184.615,4172.692,4173.077,4175.769,4147.308,4170.513,4168.974,0,0
68,53,0,0,4170.128,4162.179,4164.487,4183.718,4181.795,4176.923,4177.308,4210.255999999999,4185.897,4188.462,4185.769,4149.359,4172.436,4171.538,0,0
69,54,0,0,4165.769,4158.333,4156.795,4176.667,4173.59,4173.462,4180.641,4200.769,4176.923,4182.0509999999995,4175.641,4138.974,4170.255999999999,4159.744000000001,0,0
70,55,0,0,4149.744000000001,4152.692,4141.282,4168.333,4167.692,4171.538,4166.795,4150.897,4156.667,4165.385,4156.026,4125.385,4168.846,4140.255999999999,0,0
71,56,0,0,4136.41,4149.231,4132.692,4161.026,4168.718,4171.667,4164.103,4126.538,4151.026,4164.744000000001,4149.103,4123.59,4167.436,4134.103,0,0
72,57,0,0,4136.41,4144.231,4139.103,4152.308,4167.436,4181.282,4171.538,4140.0,4155.513,4167.179,4149.231,4128.077,4165.769,4135.385,0,0
73,58,0,0,4147.179,4145.641,4149.103,4157.179,4166.667,4184.744000000001,4162.564,4155.513,4161.538,4165.385,4156.795,4138.077,4167.692,4137.821,0,0
74,59,0,0,4156.667,4156.282,4157.308,4171.154,4169.487,4173.205,4154.872,4163.077,4169.231,4170.385,4168.59,4153.718,4171.154,4146.667,0,0
75,60,0,0,4157.179,4158.59,4162.0509999999995,4173.718,4169.744000000001,4167.9490000000005,4164.872,4167.692,4171.923,4173.462,4170.0,4161.41,4171.923,4154.615,0,0
76,61,0,0,4154.487,4151.667,4162.0509999999995,4166.538,4167.308,4173.205,4172.0509999999995,4174.103,4169.615,4169.231,4165.385,4158.974,4169.359,4153.205,0,0
77,62,0,0,4156.026,4153.846,4163.974,4167.9490000000005,4166.026,4173.846,4168.974,4182.9490000000005,4171.795,4169.744000000001,4168.462,4163.718,4171.538,4153.718,0,0
78,63,0,0,4157.179,4153.462,4167.179,4171.154,4166.41,4173.974,4171.795,4183.718,4174.231,4171.923,4172.821,4170.897,4171.667,4158.846,0,0
79,64,0,2686,4152.692,4142.308,4160.385,4163.205,4166.282,4174.744000000001,4172.308,4175.897,4170.255999999999,4160.769,4163.333,4164.615,4163.462,4155.385,0,0
80,65,0,3089,4151.795,4142.179,4154.359,4159.744000000001,4167.564,4174.487,4163.718,4164.359,4163.333,4154.103,4151.795,4157.0509999999995,4161.026,4148.59,0,0
81,66,0,3253,4161.538,4154.487,4163.333,4169.359,4171.282,4179.103,4170.641,4168.077,4165.255999999999,4165.769,4157.0509999999995,4161.795,4171.282,4153.974,0,0
82,67,0,3058,4171.026,4157.308,4173.462,4176.026,4172.564,4184.744000000001,4185.128,4191.154,4177.436,4175.255999999999,4170.897,4165.513,4181.795,4163.077,0,0
83,68,0,3569,4170.897,4153.205,4171.538,4170.769,4171.41,4186.41,4180.128,4185.255999999999,4177.9490000000005,4172.0509999999995,4172.9490000000005,4162.821,4181.154,4160.897,0,0
84,69,0,3378,4161.795,4152.0509999999995,4165.255999999999,4165.641,4166.41,4178.462,4166.026,4156.154,4165.769,4165.897,4165.255999999999,4157.692,4173.205,4154.231,0,0
85,70,0,3364,4154.872,4147.308,4165.769,4167.179,4157.564,4167.0509999999995,4170.641,4184.231,4170.385,4166.41,4162.308,4152.821,4167.0509999999995,4153.205,0,0
86,71,0,3300,4154.744000000001,4143.846,4166.667,4165.255999999999,4154.231,4166.538,4174.872,4208.205,4179.487,4168.718,4162.0509999999995,4150.385,4168.333,4153.59,0,0
87,72,0,3357,4155.897,4148.462,4159.615,4159.487,4158.59,4169.872,4162.0509999999995,4158.718,4166.667,4166.667,4156.41,4148.59,4171.026,4152.308,0,0
88,73,0,3249,4154.359,4151.026,4153.718,4156.667,4159.744000000001,4168.59,4162.308,4139.359,4158.59,4166.282,4151.795,4145.641,4168.077,4152.564,0,0
89,74,0,3188,4155.641,4150.769,4154.359,4161.795,4155.513,4167.308,4173.077,4177.564,4168.718,4168.846,4158.333,4145.897,4166.538,4151.795,0,0
90,75,0,3240,4162.436,4148.333,4160.385,4166.154,4152.9490000000005,4167.564,4170.0,4181.026,4171.667,4170.513,4167.821,4153.462,4168.462,4151.923,0,0
91,76,0,3294,4169.487,4147.9490000000005,4169.487,4167.436,4156.667,4169.103,4168.077,4164.487,4168.205,4178.718,4170.0,4160.128,4170.769,4161.538,0,0
92,77,0,2091,4173.333,4160.128,4172.308,4171.154,4163.846,4173.333,4177.692,4173.462,4171.795,4187.564,4172.821,4161.795,4172.0509999999995,4168.205,0,0
93,78,1,2262,4172.436,4164.103,4169.744000000001,4171.154,4163.077,4171.282,4175.769,4171.923,4169.872,4183.462,4168.333,4161.026,4170.0,4164.231,0,0
94,79,1,2433,4171.538,4168.077,4167.179,4171.154,4162.308,4169.231,4173.846,4170.385,4167.9490000000005,4179.359,4163.846,4160.255999999999,4167.9490000000005,4160.255999999999,0,0
95,80,1,2604,4170.641,4172.0509999999995,4164.615,4171.154,4161.538,4167.179,4171.923,4168.846,4166.026,4175.255999999999,4159.359,4159.487,4165.897,4156.282,0,0
96,81,1,2775,4169.744000000001,4176.026,4162.0509999999995,4171.154,4160.769,4165.128,4170.0,4167.308,4164.103,4171.154,4154.872,4158.718,4163.846,4152.308,0,0
97,82,1,2946,4168.846,4180.0,4159.487,4171.154,4160.0,4163.077,4168.077,4165.769,4162.179,4167.0509999999995,4150.385,4157.9490000000005,4161.795,4148.333,0,0
98,83,1,3117,4167.9490000000005,4183.974,4156.923,4171.154,4159.231,4161.026,4166.154,4164.231,4160.255999999999,4162.9490000000005,4145.897,4157.179,4159.744000000001,4144.359,0,0
99,84,0,3294,4167.0509999999995,4188.077,4154.359,4171.667,4158.077,4158.974,4163.846,4161.923,4158.333,4158.846,4141.282,4156.41,4157.179,4140.0,0,0
100,85,0,2091,4157.308,4177.564,4152.564,4168.462,4154.359,4154.359,4154.872,4152.0509999999995,4151.41,4148.462,4136.026,4151.154,4147.436,4136.154,0,0
101,86,0,3188,4155.128,4172.179,4153.205,4165.0,4154.487,4152.9490000000005,4150.513,4146.667,4143.718,4143.333,4135.385,4146.41,4144.487,4135.641,0,0
102,87,0,3240,4163.846,4180.255999999999,4155.641,4167.821,4162.436,4161.538,4161.795,4155.641,4151.667,4154.359,4139.487,4148.59,4156.538,4139.615,0,0
103,88,0,3294,4167.821,4184.359,4154.359,4171.026,4170.0,4169.231,4162.821,4156.667,4157.692,4156.41,4136.667,4149.872,4159.872,4138.59,0,0
104,89,0,2091,4168.205,4181.923,4158.846,4169.231,4170.385,4166.923,4159.615,4154.615,4156.154,4149.872,4135.255999999999,4147.692,4154.744000000001,4136.026,0,0
105,90,0,3188,4171.154,4181.282,4165.769,4172.564,4169.231,4164.615,4169.872,4160.641,4155.385,4150.897,4135.513,4147.9490000000005,4154.359,4139.231,0,0
106,91,0,3240,4171.538,4184.744000000001,4165.769,4181.026,4171.795,4170.128,4175.128,4162.692,4156.41,4152.9490000000005,4135.255999999999,4147.564,4156.282,4140.128,0,0
107,92,0,3294,4169.615,4181.923,4161.154,4176.154,4171.154,4168.718,4158.462,4148.077,4151.795,4148.974,4136.282,4147.9490000000005,4154.744000000001,4137.9490000000005,0,0
108,93,0,2091,4168.59,4173.974,4157.821,4164.615,4165.255999999999,4162.9490000000005,4153.333,4148.846,4150.641,4147.179,4132.564,4150.897,4153.077,4135.641,0,0
109,94,0,3188,4164.103,4170.897,4154.872,4167.0509999999995,4165.513,4165.769,4165.897,4165.0,4159.872,4145.513,4126.026,4152.436,4151.41,4128.718,0,0
110,95,0,3240,4155.255999999999,4173.462,4152.9490000000005,4170.385,4167.821,4167.9490000000005,4161.667,4145.769,4155.385,4140.897,4123.974,4147.9490000000005,4154.487,4121.026,0,0
111,96,0,3294,4150.255999999999,4168.462,4151.41,4159.103,4158.59,4159.231,4146.282,4120.513,4136.282,4135.513,4122.564,4144.615,4152.0509999999995,4120.513,0,0
112,97,0,2091,4158.59,4168.077,4153.718,4159.359,4154.487,4153.846,4159.872,4147.308,4141.026,4134.744000000001,4124.744000000001,4146.41,4146.923,4129.487,0,0
113,98,0,3188,4169.103,4178.333,4162.436,4173.333,4165.513,4160.513,4175.385,4170.0,4153.462,4139.359,4133.59,4147.821,4146.282,4136.795,0,0
114,99,0,3240,4167.692,4180.513,4166.41,4171.41,4170.513,4166.923,4163.59,4147.692,4140.769,4138.462,4137.0509999999995,4147.692,4143.205,4136.795,0,0
115,100,0,3294,4164.615,4181.026,4167.308,4167.436,4167.564,4168.718,4162.308,4141.41,4137.179,4136.795,4134.359,4153.462,4144.615,4141.923,0,0
116,101,0,2091,4174.744000000001,4187.692,4172.821,4178.974,4169.744000000001,4170.255999999999,4169.872,4161.282,4156.282,4147.9490000000005,4144.872,4160.769,4156.282,4154.872,0,0
117,102,0,3188,4185.128,4188.718,4176.41,4185.128,4171.667,4172.308,4161.795,4160.0,4159.103,4157.308,4158.077,4164.744000000001,4158.974,4161.026,0,0
118,103,0,3240,4185.0,4183.974,4174.615,4177.821,4168.59,4167.0509999999995,4150.897,4151.795,4150.769,4148.846,4153.333,4165.385,4152.308,4157.564,0,0
119,104,0,3294,4183.718,4183.205,4171.026,4174.103,4167.821,4158.974,4157.0509999999995,4155.255999999999,4150.128,4137.9490000000005,4140.769,4163.077,4153.333,4156.282,0,0
120,105,0,2091,4181.667,4184.231,4169.872,4173.718,4165.769,4157.436,4162.179,4156.795,4146.538,4137.436,4138.846,4159.615,4151.026,4155.385,0,0
121,106,0,3188,4178.974,4183.974,4171.154,4173.077,4160.641,4157.308,4157.692,4155.513,4143.333,4141.795,4149.872,4160.0,4146.538,4155.255999999999,0,0
122,107,0,3240,4178.462,4182.436,4166.667,4171.282,4155.513,4153.974,4153.59,4155.769,4143.59,4141.795,4151.795,4160.897,4146.282,4154.103,0,0
123,108,0,3294,4177.436,4182.0509999999995,4159.872,4168.462,4153.205,4152.821,4155.513,4158.333,4139.487,4136.538,4141.667,4156.667,4142.9490000000005,4150.0,0,0
124,109,0,2091,4185.513,4191.154,4166.667,4177.179,4157.308,4155.769,4169.487,4169.359,4146.282,4143.846,4145.897,4159.103,4143.718,4157.436,0,0
125,110,0,3188,4204.231,4204.615,4174.744000000001,4187.436,4159.487,4155.385,4169.872,4166.026,4152.564,4155.385,4157.564,4163.846,4145.769,4170.897,0,0
126,111,0,3240,4213.846,4213.462,4169.872,4186.154,4154.103,4151.154,4146.538,4135.255999999999,4135.513,4143.718,4151.538,4159.872,4140.128,4174.872,0,0
127,112,0,3294,4225.0,4223.974,4173.59,4190.128,4154.103,4149.872,4139.744000000001,4130.513,4125.0,4131.538,4149.231,4158.205,4134.359,4186.41,0,0
128,113,0,2091,4255.255999999999,4240.897,4187.436,4204.744000000001,4164.103,4154.872,4162.308,4152.308,4135.897,4143.59,4167.179,4168.077,4135.641,4216.795,0,0
129,114,0,3188,4277.692,4252.179,4190.641,4208.59,4168.974,4157.821,4168.59,4140.513,4137.179,4154.103,4179.231,4174.487,4142.436,4241.667,0,0
130,115,0,3240,4284.487,4250.0,4192.0509999999995,4202.179,4167.692,4158.077,4152.692,4130.513,4137.564,4159.359,4189.231,4175.897,4152.436,4254.872,0,0
131,116,0,3294,4294.487,4241.282,4194.359,4203.462,4169.615,4163.718,4154.231,4161.026,4154.487,4176.026,4208.846,4178.077,4157.436,4271.538,0,0
132,117,0,2091,4295.641,4225.128,4187.308,4203.846,4168.718,4168.462,4166.667,4164.615,4162.692,4188.718,4221.154,4178.462,4160.513,4284.103,0,0
133,118,0,3188,4280.385,4205.385,4183.974,4194.487,4165.255999999999,4168.205,4168.462,4142.821,4160.128,4193.974,4228.077,4179.487,4170.385,4282.0509999999995,0,0
134,119,0,3240,4270.255999999999,4195.769,4188.846,4186.923,4167.692,4168.462,4170.513,4166.923,4171.282,4203.846,4233.974,4182.308,4172.308,4274.231,0,0
135,120,0,3294,4262.308,4193.974,4187.821,4186.667,4167.564,4169.103,4173.205,4185.255999999999,4176.538,4203.205,4225.769,4179.744000000001,4168.333,4264.744000000001,0,0
136,121,0,2091,4243.462,4186.538,4183.59,4185.128,4158.974,4166.282,4169.103,4157.821,4163.205,4188.333,4210.897,4170.641,4168.205,4247.179,0,0
137,122,0,3188,4230.128,4175.641,4182.692,4182.9490000000005,4156.795,4165.128,4174.103,4146.41,4157.9490000000005,4188.333,4211.154,4165.255999999999,4170.513,4232.564,0,0
138,123,0,3240,4226.282,4170.0,4181.667,4182.308,4161.667,4168.718,4181.795,4165.769,4169.487,4202.692,4215.128,4167.0509999999995,4180.0,4233.333,0,0
139,124,0,3294,4217.179,4165.897,4177.821,4175.641,4163.59,4170.128,4177.308,4173.718,4173.846,4200.255999999999,4207.308,4172.692,4182.9490000000005,4229.615,0,0
140,125,0,2091,4211.282,4165.769,4177.436,4174.359,4165.128,4168.718,4175.897,4164.231,4167.436,4189.487,4200.641,4173.974,4175.255999999999,4216.41,0,0
141,126,0,3188,4212.179,4169.744000000001,4183.333,4180.641,4168.718,4169.231,4185.897,4168.077,4169.872,4197.0509999999995,4203.333,4172.179,4176.923,4214.744000000001,0,0
142,127,0,52,4205.769,4166.795,4183.333,4176.41,4167.564,4170.385,4187.308,4181.154,4173.846,4202.0509999999995,4203.974,4171.282,4180.897,4213.59,0,0
143,0,0,2683,4198.205,4159.103,4178.333,4169.103,4165.513,4170.255999999999,4183.462,4179.103,4170.513,4191.795,4198.59,4169.744000000001,4177.9490000000005,4203.333,0,0
144,1,0,3090,4201.538,4158.333,4178.333,4171.795,4169.744000000001,4172.0509999999995,4185.769,4170.641,4172.0509999999995,4192.0509999999995,4196.923,4167.821,4180.0,4205.0,0,0
145,2,0,3245,4202.179,4162.436,4180.769,4173.59,4171.795,4173.205,4183.846,4165.513,4174.231,4200.128,4200.385,4167.692,4185.513,4211.667,0,0
146,3,0,3058,4200.897,4160.769,4182.692,4172.692,4169.487,4173.077,4189.231,4161.538,4171.538,4201.538,4200.769,4171.795,4186.795,4206.538,0,0
147,4,0,3569,4201.667,4159.359,4187.308,4175.897,4170.897,4173.846,4195.128,4160.255999999999,4170.641,4196.795,4193.462,4174.744000000001,4183.718,4203.59,0,0
148,5,0,3378,4192.308,4155.513,4181.538,4170.897,4166.923,4169.744000000001,4174.872,4163.462,4169.359,4189.231,4183.846,4166.795,4175.641,4199.359,0,0
149,6,0,3356,4181.154,4146.026,4169.744000000001,4160.769,4157.821,4165.513,4162.0509999999995,4167.564,4168.077,4186.154,4182.308,4158.846,4175.385,4186.154,0,0
150,7,0,3297,4181.41,4145.897,4169.872,4159.744000000001,4159.487,4168.718,4177.821,4170.0,4172.436,4189.359,4183.974,4161.923,4181.41,4182.0509999999995,0,0
151,8,0,3353,4178.974,4148.846,4170.513,4164.744000000001,4166.41,4168.974,4181.923,4166.667,4176.795,4187.436,4181.026,4164.615,4178.333,4184.744000000001,0,0
152,9,0,3244,4170.897,4145.897,4166.41,4167.179,4167.0509999999995,4169.615,4174.487,4171.026,4180.385,4188.077,4180.641,4162.564,4178.59,4182.179,0,0
153,10,0,3184,4176.795,4148.333,4172.0509999999995,4168.077,4169.744000000001,4181.41,4185.255999999999,4189.744000000001,4188.077,4200.255999999999,4188.846,4165.385,4187.564,4183.718,0,0
154,11,0,3236,4186.282,4154.487,4178.077,4169.615,4173.077,4183.333,4190.513,4190.513,4189.103,4205.255999999999,4190.641,4169.231,4189.872,4188.205,0,0
155,12,0,3291,4183.974,4151.282,4172.821,4170.385,4169.359,4172.436,4185.255999999999,4184.487,4187.692,4198.462,4185.255999999999,4167.0509999999995,4185.255999999999,4186.282,0,0
156,13,0,2083,4182.179,4147.9490000000005,4173.077,4170.897,4169.359,4174.231,4185.769,4195.128,4194.744000000001,4199.359,4190.128,4166.923,4186.795,4183.462,0,0
157,14,0,3184,4186.154,4155.513,4183.205,4171.923,4174.359,4184.615,4190.0,4206.923,4203.974,4212.308,4202.564,4173.718,4193.846,4189.487,0,0
158,15,0,3236,4188.462,4161.667,4186.923,4174.744000000001,4174.231,4183.59,4197.564,4212.179,4204.359,4215.255999999999,4201.282,4176.282,4194.615,4196.667,0,0
159,16,0,0,4188.077,4158.718,4183.333,4174.872,4171.923,4179.872,4204.744000000001,4208.077,4194.103,4202.692,4189.359,4169.103,4186.538,4190.897,0,0
160,17,0,0,4185.897,4153.077,4179.615,4171.538,4172.308,4182.692,4206.41,4200.897,4187.692,4200.128,4187.436,4168.846,4184.359,4183.205,0,0
161,18,0,0,4180.769,4152.564,4175.128,4171.923,4173.205,4185.385,4198.718,4188.974,4188.205,4207.821,4190.897,4171.795,4189.615,4187.692,0,0
162,19,0,0,4173.974,4152.564,4168.846,4169.231,4171.026,4181.923,4178.846,4164.231,4180.897,4200.385,4184.872,4166.795,4187.692,4185.385,0,0
163,20,0,0,4165.385,4145.0,4161.154,4156.026,4166.795,4173.718,4161.538,4146.795,4167.179,4185.0,4171.667,4161.026,4175.385,4170.513,0,0
164,21,0,0,4160.128,4137.308,4157.692,4149.359,4165.128,4168.846,4164.615,4159.359,4162.564,4176.41,4163.333,4159.615,4161.538,4162.9490000000005,0,0
165,22,0,0,4163.718,4141.795,4161.667,4160.0,4167.436,4171.667,4179.231,4180.385,4168.846,4175.769,4170.769,4159.359,4160.769,4169.615,0,0
166,23,0,0,4175.0,4153.59,4167.821,4169.359,4172.308,4177.436,4184.615,4183.462,4176.795,4188.077,4184.615,4164.103,4175.0,4180.641,0,0
167,24,0,0,4186.154,4159.615,4174.231,4170.897,4174.103,4183.077,4188.59,4183.59,4183.077,4202.308,4189.103,4170.0,4185.385,4187.692,0,0
168,25,0,0,4187.179,4156.795,4179.744000000001,4171.154,4172.9490000000005,4185.255999999999,4193.205,4193.974,4185.513,4201.538,4190.0,4166.41,4181.923,4191.026,0,0
169,26,0,0,4182.821,4155.385,4181.41,4170.0,4175.255999999999,4180.769,4190.897,4200.385,4188.462,4200.513,4197.692,4166.41,4183.077,4196.667,0,0
170,27,0,0,4186.154,4164.231,4182.436,4175.641,4183.59,4181.795,4190.0,4189.615,4190.385,4208.59,4202.436,4170.897,4195.0,4203.718,0,0
171,28,0,0,4191.538,4172.308,4186.667,4185.769,4189.615,4188.205,4188.205,4184.231,4190.0,4210.769,4202.9490000000005,4171.026,4196.154,4202.179,0,0
172,29,0,0,4188.077,4165.385,4186.026,4181.282,4181.923,4181.026,4176.154,4183.205,4186.538,4201.282,4199.103,4169.487,4185.897,4191.026,0,0
173,30,0,0,4185.513,4161.923,4183.333,4170.0,4175.255999999999,4175.769,4175.0,4178.846,4186.41,4200.641,4191.795,4170.128,4185.0,4184.615,0,0
174,31,0,0,4187.564,4169.359,4184.103,4173.59,4181.026,4180.385,4188.205,4189.487,4194.231,4212.0509999999995,4193.846,4166.795,4189.359,4187.692,0,0
175,32,0,0,4185.769,4169.487,4184.487,4183.718,4185.641,4180.513,4183.462,4198.077,4197.9490000000005,4213.846,4198.077,4161.795,4187.9490000000005,4183.974,0,0
176,33,0,0,4178.718,4165.769,4179.359,4183.59,4184.872,4177.436,4170.128,4180.255999999999,4191.154,4204.872,4191.538,4160.769,4187.564,4171.282,0,0
177,34,0,0,4176.282,4167.821,4172.308,4173.846,4181.538,4173.846,4169.615,4167.436,4186.538,4200.769,4184.487,4160.897,4188.077,4170.128,0,0
178,35,0,0,4181.923,4167.179,4170.897,4169.487,4180.0,4171.538,4171.923,4173.205,4186.923,4201.538,4187.0509999999995,4159.615,4184.103,4181.41,0,0
179,36,0,0,4185.128,4164.103,4175.128,4178.462,4181.154,4174.103,4171.538,4169.872,4184.615,4201.026,4193.718,4161.282,4182.308,4191.154,0,0
180,37,0,0,4185.513,4167.308,4182.9490000000005,4185.769,4184.615,4177.564,4176.538,4169.615,4184.103,4201.154,4199.359,4162.821,4184.744000000001,4192.821,0,0
181,38,0,0,4186.667,4171.41,4192.821,4185.769,4185.641,4178.846,4187.436,4191.538,4187.436,4202.564,4201.538,4165.0,4185.897,4194.487,0,0
182,39,0,0,4186.282,4171.538,4194.103,4187.179,4185.769,4181.923,4188.462,4203.846,4187.9490000000005,4202.436,4199.744000000001,4168.333,4184.744000000001,4196.282,0,0
183,40,0,0,4188.718,4171.667,4190.128,4186.923,4186.41,4178.462,4175.641,4183.846,4185.769,4201.795,4198.718,4172.821,4184.872,4195.769,0,0
184,41,0,0,4196.538,4171.282,4194.103,4184.487,4180.641,4168.974,4169.744000000001,4164.872,4181.795,4199.744000000001,4200.641,4177.308,4185.513,4196.41,0,0
185,42,0,0,4200.385,4172.9490000000005,4202.692,4184.872,4174.359,4169.615,4168.974,4166.026,4181.923,4200.255999999999,4198.333,4177.308,4186.795,4194.359,0,0
186,43,0,0,4198.077,4175.769,4202.692,4187.692,4174.615,4176.667,4175.513,4175.128,4183.462,4199.103,4189.231,4173.718,4185.897,4186.923,0,0
187,44,0,0,4202.564,4183.974,4204.231,4195.0,4183.846,4185.641,4203.718,4199.744000000001,4188.333,4199.744000000001,4192.0509999999995,4176.154,4182.308,4189.487,0,0
188,45,0,0,4204.103,4185.255999999999,4207.564,4197.436,4189.231,4185.385,4203.205,4198.59,4187.9490000000005,4199.872,4200.128,4178.59,4183.974,4198.077,0,0
189,46,0,0,4191.154,4173.462,4196.282,4186.667,4176.795,4171.667,4161.923,4160.255999999999,4173.59,4188.333,4187.692,4165.641,4187.179,4187.692,0,0
190,47,0,0,4188.077,4172.9490000000005,4189.359,4180.769,4169.231,4172.308,4163.59,4155.513,4171.795,4182.692,4179.359,4160.128,4185.255999999999,4177.692,0,0
191,48,0,0,4200.897,4183.333,4193.718,4187.9490000000005,4179.872,4185.0,4198.59,4189.744000000001,4188.718,4195.128,4195.128,4172.179,4187.436,4190.0,0,0
192,49,0,0,4204.615,4187.179,4196.795,4192.179,4188.462,4185.513,4194.872,4201.667,4198.077,4206.41,4204.872,4176.538,4196.154,4201.923,0,0
193,50,0,0,4196.282,4180.0,4197.692,4189.103,4185.513,4181.667,4176.154,4193.077,4195.897,4202.436,4199.872,4171.026,4198.846,4195.641,0,0
194,51,0,0,4194.359,4171.538,4201.154,4186.026,4182.179,4182.9490000000005,4182.564,4196.41,4199.103,4198.462,4199.487,4173.462,4197.564,4188.205,0,0
195,52,0,0,4200.128,4177.308,4203.333,4190.385,4185.769,4185.897,4195.255999999999,4201.154,4203.462,4207.564,4203.333,4177.0509999999995,4200.897,4195.385,0,0
196,53,0,0,4203.974,4182.692,4203.462,4199.872,4194.615,4196.282,4203.462,4208.205,4206.667,4215.255999999999,4206.154,4176.154,4203.846,4206.026,0,0
197,54,0,0,4199.872,4171.154,4204.487,4195.385,4197.564,4202.564,4203.718,4209.103,4206.667,4207.821,4204.103,4173.718,4200.0,4202.436,0,0
198,55,0,0,4194.103,4172.0509999999995,4200.0,4188.205,4191.795,4191.538,4196.282,4199.615,4200.513,4198.59,4198.333,4169.615,4195.255999999999,4193.974,0,0
199,56,0,0,4206.026,4203.462,4201.026,4202.179,4195.385,4191.41,4207.564,4211.026,4207.0509999999995,4204.487,4197.436,4169.359,4197.308,4199.487,0,0
200,57,0,0,4220.641,4225.385,4205.255999999999,4218.59,4207.179,4206.538,4222.436,4220.897,4212.564,4205.897,4191.795,4169.103,4198.974,4200.769,0,0
201,58,0,0,4215.897,4227.692,4200.769,4216.795,4205.0,4197.9490000000005,4198.205,4193.718,4192.0509999999995,4190.0,4173.462,4161.538,4187.564,4185.897,0,0
202,59,0,0,4212.308,4233.718,4197.179,4212.564,4199.744000000001,4183.462,4173.077,4173.462,4175.641,4178.333,4161.795,4157.308,4173.205,4179.487,0,0
203,60,0,0,4220.513,4236.923,4201.282,4216.667,4206.154,4191.282,4189.487,4192.564,4185.385,4176.667,4160.255999999999,4161.026,4168.59,4182.692,0,0
204,61,0,0,4214.744000000001,4231.538,4199.359,4216.154,4205.385,4193.462,4202.308,4186.026,4183.077,4172.436,4154.487,4161.026,4168.59,4174.487,0,0
205,62,0,0,4200.641,4228.333,4191.026,4212.308,4200.769,4187.0509999999995,4185.769,4150.255999999999,4167.436,4171.538,4154.231,4159.103,4172.692,4166.026,0,0
206,63,0,0,4206.41,4230.641,4193.846,4213.718,4209.103,4194.872,4180.513,4155.255999999999,4175.385,4182.179,4166.282,4159.487,4181.41,4171.667,0,0
207,64,0,2678,4217.9490000000005,4235.641,4200.128,4217.308,4220.513,4200.513,4196.026,4180.385,4189.231,4188.718,4173.077,4162.0509999999995,4187.821,4176.667,0,0
208,65,0,3090,4211.41,4231.538,4195.128,4214.744000000001,4214.487,4190.128,4198.205,4185.513,4185.0,4183.205,4167.821,4163.59,4182.179,4172.821,0,0
209,66,0,3245,4204.231,4220.769,4194.359,4211.667,4202.692,4184.231,4189.231,4191.154,4184.359,4183.462,4166.667,4163.974,4173.077,4172.9490000000005,0,0
210,67,0,3051,4206.538,4216.538,4198.333,4210.255999999999,4201.026,4186.923,4184.872,4187.692,4189.103,4184.487,4169.103,4164.744000000001,4174.103,4176.026,0,0
211,68,0,3569,4202.564,4216.538,4194.744000000001,4206.154,4203.59,4188.077,4186.154,4173.462,4184.615,4173.974,4166.282,4167.692,4175.641,4172.821,0,0
212,69,0,3378,4200.128,4217.692,4195.385,4204.744000000001,4205.769,4188.974,4196.026,4181.667,4182.308,4168.974,4167.692,4172.9490000000005,4170.769,4172.436,0,0
213,70,0,3358,4200.897,4215.513,4201.923,4205.385,4205.641,4186.795,4197.436,4187.0509999999995,4178.59,4171.154,4166.667,4172.308,4166.026,4174.487,0,0
214,71,0,3304,4190.385,4205.385,4195.0,4201.923,4201.538,4185.255999999999,4188.59,4166.026,4170.513,4167.9490000000005,4156.154,4164.744000000001,4165.128,4165.255999999999,0,0
215,72,0,3353,4181.795,4201.282,4188.205,4200.128,4201.923,4188.205,4189.103,4172.821,4177.179,4171.667,4156.282,4161.538,4167.0509999999995,4159.359,0,0
216,73,0,3244,4187.308,4208.718,4195.641,4204.103,4211.026,4196.923,4204.231,4205.255999999999,4191.154,4185.385,4169.744000000001,4166.41,4173.077,4167.9490000000005,0,0
217,74,0,3184,4188.974,4208.462,4191.538,4203.205,4211.154,4198.333,4207.0509999999995,4193.462,4188.333,4187.179,4171.667,4164.615,4174.872,4170.897,0,0
218,75,0,3236,4185.513,4201.795,4181.154,4199.359,4203.333,4190.513,4191.923,4175.0,4184.103,4183.462,4165.641,4160.385,4171.41,4168.205,0,0
219,76,0,3291,4185.897,4202.821,4185.641,4200.513,4207.0509999999995,4191.923,4182.179,4185.128,4187.436,4182.564,4167.564,4162.308,4170.769,4167.9490000000005,0,0
220,77,0,2084,4182.9490000000005,4202.692,4188.846,4202.436,4214.359,4199.231,4186.923,4184.487,4183.846,4176.154,4167.9490000000005,4161.795,4171.282,4161.538,0,0
221,78,0,3184,4181.538,4201.41,4183.974,4202.0509999999995,4214.872,4200.255999999999,4204.744000000001,4190.769,4185.255999999999,4177.436,4167.9490000000005,4158.846,4174.487,4155.385,0,0
222,79,0,3236,4186.282,4203.462,4184.231,4200.769,4215.128,4200.513,4206.154,4200.769,4190.0,4187.0509999999995,4166.923,4163.333,4175.641,4156.282,0,0
223,80,0,3291,4181.923,4202.436,4182.564,4199.872,4212.9490000000005,4198.974,4188.462,4175.128,4182.564,4181.282,4162.179,4162.308,4170.769,4155.128,0,0
224,81,0,2084,4172.179,4200.641,4177.564,4198.462,4207.179,4191.795,4186.538,4168.718,4177.692,4170.897,4163.205,4150.255999999999,4170.128,4152.308,0,0
225,82,0,3184,4176.41,4203.59,4183.077,4200.641,4208.846,4194.231,4202.9490000000005,4206.795,4186.282,4177.9490000000005,4168.333,4148.718,4172.0509999999995,4152.821,0,0
226,83,0,3236,4185.385,4202.308,4192.564,4202.821,4212.821,4203.59,4206.538,4199.744000000001,4189.103,4186.667,4168.077,4157.821,4169.615,4153.59,0,0
227,84,0,3291,4186.923,4201.026,4192.436,4201.795,4213.846,4201.923,4190.641,4166.026,4184.231,4183.846,4168.462,4161.538,4173.462,4156.923,0,0
228,85,0,2084,4190.0,4208.462,4192.308,4205.769,4216.538,4199.103,4185.641,4181.282,4186.538,4182.436,4175.255999999999,4166.41,4182.0509999999995,4165.255999999999,0,0
229,86,0,3184,4199.615,4215.641,4197.821,4212.179,4217.179,4202.9490000000005,4201.795,4202.179,4193.846,4191.282,4186.538,4175.641,4182.179,4176.026,0,0
230,87,0,3236,4212.0509999999995,4219.103,4204.615,4215.385,4216.923,4205.385,4219.359,4204.359,4201.41,4201.667,4196.154,4178.462,4181.282,4184.231,0,0
231,88,0,3291,4215.128,4214.872,4208.205,4214.487,4216.923,4204.103,4214.487,4207.564,4204.231,4201.923,4194.359,4175.385,4186.538,4186.026,0,0
232,89,0,2084,4206.026,4206.154,4205.0,4208.974,4209.231,4201.026,4197.308,4199.103,4200.513,4197.436,4187.179,4168.59,4187.564,4183.333,0,0
233,90,0,3184,4198.59,4208.974,4199.744000000001,4202.9490000000005,4200.897,4199.359,4195.769,4188.974,4196.923,4197.0509999999995,4187.0509999999995,4163.974,4185.641,4180.0,0,0
234,91,0,3236,4200.769,4217.564,4200.641,4202.821,4204.103,4200.513,4203.974,4204.231,4202.821,4200.897,4189.359,4170.255999999999,4188.59,4184.103,0,0
235,92,0,3291,4201.667,4210.641,4199.872,4204.487,4205.769,4200.769,4203.974,4206.795,4203.718,4199.872,4186.667,4175.513,4188.718,4185.769,0,0
236,93,0,2084,4196.538,4198.718,4189.359,4198.974,4200.769,4196.41,4200.0,4185.641,4189.231,4192.308,4181.667,4167.564,4183.333,4176.538,0,0
237,94,0,3184,4197.179,4204.744000000001,4190.769,4197.692,4201.154,4195.0,4199.744000000001,4190.128,4187.436,4186.282,4181.795,4166.667,4180.897,4171.667,0,0
238,95,0,3236,4203.205,4217.821,4203.205,4208.333,4205.641,4200.769,4203.205,4205.128,4199.744000000001,4186.923,4186.154,4176.154,4182.564,4178.846,0,0
239,96,0,3291,4205.769,4216.667,4203.718,4212.9490000000005,4203.974,4199.359,4204.487,4191.41,4196.026,4189.872,4183.846,4177.821,4183.59,4182.692,0,0
240,97,0,2084,4202.821,4207.9490000000005,4198.59,4205.255999999999,4199.615,4188.718,4190.513,4180.0,4183.462,4188.718,4174.615,4168.846,4183.718,4175.641,0,0
241,98,0,3184,4200.255999999999,4207.179,4200.769,4200.128,4198.077,4188.462,4182.0509999999995,4195.641,4184.872,4185.385,4177.564,4167.0509999999995,4181.667,4168.846,0,0
242,99,0,3236,4200.255999999999,4212.436,4203.333,4203.718,4200.897,4199.103,4197.179,4203.205,4195.513,4188.077,4185.513,4175.385,4181.154,4169.615,0,0
243,100,0,3291,4200.0,4214.615,4201.026,4204.359,4199.359,4197.692,4200.385,4190.641,4197.821,4192.308,4178.077,4175.385,4186.282,4171.41,0,0
244,101,0,2084,4196.795,4210.128,4199.872,4200.128,4191.154,4185.769,4182.9490000000005,4178.077,4188.59,4188.205,4166.41,4165.897,4184.872,4163.974,0,0
245,102,0,3184,4193.974,4203.718,4199.103,4198.205,4190.897,4185.255999999999,4186.538,4183.718,4182.0509999999995,4182.436,4167.0509999999995,4165.897,4174.487,4159.744000000001,0,0
246,103,0,3236,4197.436,4205.513,4199.872,4199.487,4198.846,4194.487,4205.0,4200.641,4188.974,4183.718,4170.641,4176.282,4174.359,4167.0509999999995,0,0
247,104,0,3291,4201.795,4215.255999999999,4203.462,4203.205,4203.077,4201.154,4204.872,4187.179,4189.487,4186.538,4169.872,4176.667,4184.744000000001,4171.667,0,0
248,105,0,2084,4201.538,4216.154,4202.308,4203.205,4202.308,4198.205,4195.0,4163.718,4181.923,4184.487,4169.615,4168.846,4186.282,4170.513,0,0
249,106,0,3184,4199.872,4205.255999999999,4193.333,4200.769,4200.513,4189.615,4183.462,4171.41,4183.974,4182.0509999999995,4169.103,4162.564,4181.154,4166.282,0,0
250,107,0,3236,4192.0509999999995,4200.0,4184.615,4198.462,4200.128,4184.615,4170.385,4174.487,4184.231,4183.462,4166.41,4159.744000000001,4181.154,4163.077,0,0
251,108,0,3291,4185.0,4199.615,4182.821,4193.59,4199.231,4186.41,4168.974,4154.744000000001,4175.897,4181.538,4164.103,4159.744000000001,4183.846,4162.436,0,0
252,109,0,2084,4193.333,4200.255999999999,4187.0509999999995,4193.974,4201.026,4194.359,4185.385,4166.538,4179.744000000001,4183.205,4170.897,4164.487,4184.359,4166.667,0,0
253,110,0,3184,4203.846,4208.205,4195.0,4201.538,4207.564,4203.077,4203.718,4201.795,4196.538,4193.974,4183.462,4172.821,4184.487,4175.641,0,0
254,111,0,3236,4201.667,4212.692,4195.513,4203.077,4209.231,4202.692,4204.359,4193.077,4195.641,4193.974,4184.487,4177.308,4185.255999999999,4180.128,0,0
255,112,0,3291,4199.231,4207.564,4189.744000000001,4196.795,4203.077,4197.179,4197.821,4170.513,4183.846,4185.513,4175.0,4173.846,4187.564,4175.897,0,0
256,113,0,2084,4200.641,4202.9490000000005,4191.026,4198.077,4203.077,4199.487,4196.923,4180.0,4188.077,4187.0509999999995,4172.821,4167.308,4187.821,4170.385,0,0
257,114,0,3184,4197.308,4202.0509999999995,4194.872,4201.923,4207.564,4202.308,4192.9490000000005,4188.974,4194.359,4189.615,4177.436,4165.255999999999,4183.974,4171.282,0,0
258,115,0,3236,4197.308,4206.667,4197.692,4201.795,4209.615,4200.128,4190.769,4186.923,4196.923,4192.9490000000005,4182.9490000000005,4172.564,4185.385,4180.385,0,0
259,116,0,3291,4205.255999999999,4213.205,4200.0,4203.846,4213.974,4203.718,4201.667,4201.282,4203.974,4200.769,4186.282,4176.667,4190.513,4186.667,0,0
260,117,0,2084,4199.231,4207.436,4196.026,4203.462,4216.154,4205.897,4203.462,4197.179,4194.487,4192.692,4175.769,4166.923,4183.974,4175.128,0,0
261,118,0,3184,4189.231,4199.872,4195.897,4201.667,4214.487,4202.179,4193.718,4176.795,4181.282,4179.872,4164.744000000001,4163.718,4176.154,4164.487,0,0
262,119,0,3236,4193.718,4205.0,4203.59,4202.821,4212.179,4203.974,4195.0,4190.0,4193.333,4185.128,4168.205,4173.974,4180.641,4171.154,0,0
263,120,0,3291,4194.487,4204.103,4197.308,4200.385,4203.333,4199.359,4190.385,4189.359,4195.128,4188.077,4171.282,4172.821,4184.872,4171.795,0,0
264,121,0,2084,4186.41,4200.128,4189.103,4198.462,4195.897,4187.0509999999995,4180.128,4162.0509999999995,4178.974,4182.9490000000005,4167.564,4162.564,4182.179,4166.923,0,0
265,122,0,3184,4184.744000000001,4200.513,4198.462,4198.462,4200.128,4189.744000000001,4188.59,4172.821,4186.282,4186.154,4167.821,4168.333,4182.692,4167.692,0,0
266,123,0,3236,4185.897,4191.41,4195.897,4191.41,4197.9490000000005,4195.385,4195.255999999999,4196.154,4200.128,4191.026,4175.128,4174.615,4185.0,4169.872,0,0
267,124,0,3291,4184.487,4183.718,4182.179,4182.308,4185.641,4185.513,4185.255999999999,4186.795,4190.641,4194.615,4184.231,4169.487,4184.744000000001,4178.59,0,0
268,125,0,2084,4185.0,4179.487,4182.436,4177.821,4179.744000000001,4183.333,4187.179,4182.179,4185.128,4196.282,4191.41,4167.692,4181.154,4185.769,0,0
269,126,0,3184,4183.462,4168.974,4186.154,4176.41,4183.462,4196.923,4203.077,4188.333,4194.744000000001,4198.718,4198.462,4173.462,4182.436,4188.59,0,0
270,127,0,52,4183.333,4166.923,4184.744000000001,4181.41,4194.103,4203.718,4201.923,4183.718,4202.0509999999995,4211.538,4211.026,4175.769,4196.538,4199.615,0,0
271,0,0,2678,4188.846,4170.128,4192.436,4187.308,4201.154,4198.974,4191.282,4187.0509999999995,4202.9490000000005,4221.795,4218.205,4176.667,4205.385,4207.9490000000005,0,0
272,1,0,3090,4187.821,4168.59,4199.231,4184.872,4200.0,4200.385,4198.462,4196.282,4199.872,4217.179,4213.462,4177.308,4197.0509999999995,4199.615,0,0
273,2,0,3245,4191.41,4175.128,4199.744000000001,4188.846,4206.667,4214.487,4220.385,4212.436,4205.385,4213.077,4212.821,4178.077,4193.974,4201.41,0,0
274,3,0,3051,4200.897,4183.333,4204.231,4201.923,4214.872,4219.103,4222.436,4224.103,4217.436,4220.255999999999,4218.333,4183.462,4201.154,4213.205,0,0
275,4,0,3569,4201.795,4180.0,4205.255999999999,4201.154,4207.179,4204.103,4200.385,4201.923,4216.41,4225.385,4220.128,4184.744000000001,4206.667,4209.872,0,0
276,5,0,3377,4196.923,4180.0,4202.179,4190.641,4199.615,4196.154,4192.179,4176.538,4205.513,4222.308,4218.846,4178.462,4209.872,4204.103,0,0
277,6,0,3354,4197.436,4182.9490000000005,4202.692,4188.333,4204.487,4202.564,4201.667,4189.103,4202.436,4218.333,4219.103,4176.538,4206.154,4205.769,0,0
278,7,0,3302,4201.667,4181.923,4204.231,4191.795,4206.154,4204.231,4205.385,4205.641,4204.487,4217.436,4219.103,4177.436,4197.308,4204.487,0,0
279,8,0,3351,4194.487,4181.538,4200.897,4188.205,4202.564,4201.154,4202.564,4196.154,4199.359,4216.026,4215.0,4173.974,4196.41,4199.744000000001,0,0
280,9,0,3242,4187.564,4180.128,4197.821,4185.385,4200.897,4203.205,4204.872,4197.0509999999995,4198.077,4214.359,4212.692,4175.128,4200.255999999999,4205.385,0,0
281,10,0,3180,4196.923,4179.615,4202.692,4193.333,4201.154,4204.103,4213.59,4213.974,4210.128,4222.0509999999995,4220.769,4180.385,4202.9490000000005,4216.154,0,0
282,11,0,3236,4205.0,4183.205,4206.795,4199.615,4201.795,4198.846,4212.692,4213.974,4218.846,4228.462,4230.385,4181.282,4203.333,4218.333,0,0
283,12,0,3287,4204.103,4185.0,4206.923,4198.846,4201.282,4199.103,4213.718,4215.769,4216.154,4226.667,4232.436,4181.154,4200.641,4216.923,0,0
284,13,0,2081,4212.821,4184.872,4209.872,4200.769,4203.205,4208.974,4231.154,4226.667,4216.538,4230.255999999999,4232.179,4184.231,4207.9490000000005,4220.0,0,0
285,14,0,3180,4218.974,4185.128,4211.026,4199.744000000001,4206.41,4210.128,4227.821,4218.462,4222.9490000000005,4235.769,4233.974,4183.974,4215.385,4219.487,0,0
286,15,0,3236,4203.462,4180.641,4203.846,4188.718,4202.564,4197.9490000000005,4197.564,4205.385,4221.154,4230.128,4229.615,4180.897,4206.923,4208.333,0,0
287,16,0,0,4196.923,4176.41,4200.128,4183.205,4198.205,4198.205,4197.0509999999995,4212.0509999999995,4216.538,4225.769,4220.0,4179.359,4205.385,4200.513,0,0
288,17,0,0,4202.821,4178.846,4203.846,4187.821,4200.0,4212.564,4220.255999999999,4219.487,4219.103,4227.564,4218.077,4181.41,4214.872,4200.385,0,0
289,18,0,0,4191.282,4176.154,4199.231,4186.026,4197.9490000000005,4218.846,4222.308,4216.154,4218.462,4220.255999999999,4217.308,4178.077,4207.821,4199.231,0,0
290,19,0,0,4185.255999999999,4170.769,4193.974,4182.821,4190.513,4214.231,4219.744000000001,4219.615,4216.41,4218.718,4217.9490000000005,4173.205,4197.9490000000005,4198.462,0,0
291,20,0,0,4198.462,4172.436,4201.282,4186.41,4187.564,4203.974,4215.385,4223.974,4218.59,4230.0,4226.795,4179.359,4208.205,4203.077,0,0
292,21,0,0,4203.077,4173.333,4206.026,4187.692,4192.436,4200.641,4204.744000000001,4217.308,4218.333,4228.974,4228.718,4184.872,4213.077,4206.026,0,0
293,22,0,0,4196.538,4168.333,4199.359,4184.103,4198.462,4207.692,4212.564,4216.282,4216.154,4216.282,4217.436,4179.359,4202.179,4202.179,0,0
294,23,0,0,4197.564,4173.462,4196.41,4184.231,4199.744000000001,4207.0509999999995,4219.487,4223.462,4215.897,4215.385,4216.667,4177.564,4199.231,4202.0509999999995,0,0
295,24,0,0,4202.179,4181.41,4198.974,4187.0509999999995,4200.255999999999,4202.0509999999995,4208.205,4216.026,4209.359,4218.59,4223.077,4181.667,4202.564,4206.538,0,0
296,25,0,0,4200.897,4174.487,4195.128,4185.513,4195.513,4202.0509999999995,4199.231,4187.308,4197.0509999999995,4212.436,4214.615,4177.179,4200.128,4203.59,0,0
297,26,0,0,4192.692,4167.821,4189.872,4182.0509999999995,4188.718,4201.923,4198.59,4173.59,4195.255999999999,4210.513,4206.667,4174.231,4200.513,4194.744000000001,0,0
298,27,0,0,4187.821,4172.308,4193.333,4182.308,4193.333,4208.077,4208.333,4192.0509999999995,4201.026,4213.59,4211.154,4178.205,4203.974,4193.846,0,0
299,28,0,0,4194.872,4172.821,4194.615,4184.744000000001,4202.0509999999995,4216.282,4224.487,4206.026,4201.154,4212.9490000000005,4212.821,4177.692,4199.615,4198.205,0,0
300,29,0,0,4196.667,4170.128,4189.359,4185.897,4200.255999999999,4208.59,4219.744000000001,4200.385,4198.462,4212.436,4210.513,4173.333,4197.9490000000005,4199.872,0,0
301,30,0,0,4192.564,4178.718,4193.205,4187.0509999999995,4197.308,4199.231,4200.255999999999,4198.974,4202.692,4215.385,4212.692,4174.487,4204.744000000001,4200.641,0,0
302,31,0,0,4198.205,4183.205,4201.667,4188.077,4200.255999999999,4200.128,4193.974,4210.513,4214.615,4219.615,4218.59,4177.308,4208.333,4203.974,0,0
303,32,0,0,4203.59,4177.692,4202.692,4187.564,4198.462,4203.077,4202.821,4217.9490000000005,4219.744000000001,4223.333,4221.795,4178.846,4205.385,4209.359,0,0
304,33,0,0,4201.026,4178.974,4199.872,4187.564,4197.9490000000005,4209.744000000001,4220.641,4219.744000000001,4217.821,4225.769,4222.0509999999995,4181.538,4203.462,4210.769,0,0
305,34,0,0,4199.872,4179.615,4199.231,4186.667,4200.128,4210.128,4219.103,4214.103,4213.718,4222.179,4219.872,4182.0509999999995,4202.821,4205.128,0,0
306,35,0,0,4199.744000000001,4172.436,4200.513,4184.615,4193.333,4197.0509999999995,4196.154,4196.154,4206.282,4216.538,4216.923,4179.872,4200.897,4200.513,0,0
307,36,0,0,4200.641,4175.641,4203.846,4186.026,4193.333,4198.333,4205.0,4207.821,4209.872,4218.205,4217.821,4180.385,4198.718,4207.692,0,0
308,37,0,0,4202.9490000000005,4182.564,4204.615,4188.974,4198.205,4207.564,4221.667,4222.564,4215.385,4219.359,4217.179,4180.513,4198.077,4211.282,0,0
309,38,0,0,4199.744000000001,4174.231,4199.872,4187.179,4190.897,4195.769,4199.103,4192.692,4202.0509999999995,4214.103,4212.692,4176.154,4200.0,4201.538,0,0
310,39,0,0,4197.179,4166.795,4195.513,4182.179,4182.9490000000005,4183.846,4181.923,4181.154,4192.821,4214.231,4216.41,4177.564,4202.821,4200.897,0,0
311,40,0,0,4197.0509999999995,4169.872,4189.615,4181.923,4184.231,4184.487,4189.744000000001,4199.487,4197.821,4212.179,4216.282,4175.897,4197.436,4202.692,0,0
312,41,0,0,4198.205,4176.795,4190.385,4185.897,4186.154,4186.026,4194.615,4190.769,4196.154,4203.59,4205.128,4171.282,4192.0509999999995,4193.59,0,0
313,42,0,0,4199.615,4183.205,4199.359,4187.9490000000005,4190.513,4191.795,4195.255999999999,4183.718,4194.744000000001,4202.0509999999995,4199.359,4171.538,4195.385,4192.0509999999995,0,0
314,43,0,0,4199.744000000001,4185.513,4200.385,4191.41,4196.667,4200.385,4197.436,4197.0509999999995,4198.205,4204.615,4201.154,4170.385,4198.846,4197.692,0,0
315,44,0,0,4205.769,4187.179,4197.564,4197.564,4194.615,4200.641,4206.41,4201.795,4197.436,4205.897,4206.41,4168.462,4198.59,4198.974,0,0
316,45,0,0,4217.564,4193.974,4205.769,4201.282,4196.282,4199.103,4219.103,4225.769,4211.667,4215.769,4217.9490000000005,4177.564,4202.564,4209.744000000001,0,0
317,46,0,0,4219.615,4194.359,4211.667,4200.128,4198.846,4200.128,4204.744000000001,4229.615,4221.026,4224.615,4223.718,4181.923,4208.59,4220.641,0,0
318,47,0,0,4215.897,4188.718,4212.821,4198.846,4189.103,4193.718,4192.308,4195.513,4204.615,4217.436,4219.359,4175.641,4203.718,4214.615,0,0
319,48,0,0,4221.41,4188.718,4215.897,4202.821,4185.897,4189.615,4213.205,4198.718,4197.9490000000005,4214.103,4222.436,4179.231,4196.923,4214.359,0,0
320,49,0,0,4222.821,4188.205,4210.0,4201.282,4187.308,4188.462,4199.103,4193.718,4200.385,4216.154,4224.231,4185.0,4201.41,4219.487,0,0
321,50,0,0,4212.308,4183.59,4198.462,4188.333,4175.897,4178.846,4152.179,4145.641,4185.513,4208.974,4215.128,4178.077,4202.692,4210.128,0,0
322,51,0,0,4210.513,4181.667,4197.308,4180.641,4170.769,4174.744000000001,4155.769,4151.923,4177.436,4205.385,4215.385,4176.282,4192.9490000000005,4207.9490000000005,0,0
323,52,0,0,4214.615,4184.487,4201.154,4186.667,4182.436,4183.205,4185.128,4199.615,4191.795,4207.436,4220.769,4181.41,4188.846,4214.103,0,0
324,53,0,0,4208.59,4185.513,4197.692,4189.872,4181.154,4186.026,4179.359,4194.744000000001,4195.0,4203.846,4212.692,4180.641,4190.897,4207.179,0,0
325,54,0,0,4199.359,4181.41,4193.333,4183.974,4168.974,4180.255999999999,4171.026,4178.846,4185.385,4197.564,4202.821,4176.923,4184.359,4198.077,0,0
326,55,0,0,4202.436,4179.231,4195.769,4182.179,4174.615,4184.359,4190.255999999999,4193.718,4189.103,4199.615,4208.846,4176.538,4188.846,4202.0509999999995,0,0
327,56,0,0,4213.59,4183.077,4199.744000000001,4188.462,4186.923,4191.154,4205.897,4203.205,4199.103,4203.333,4217.821,4179.359,4199.872,4210.385,0,0
328,57,0,0,4216.795,4187.0509999999995,4199.615,4196.538,4185.255999999999,4185.255999999999,4198.846,4204.103,4198.333,4201.795,4216.923,4180.513,4190.0,4213.333,0,0
329,58,0,0,4215.769,4192.0509999999995,4203.462,4199.615,4182.179,4188.077,4198.205,4197.9490000000005,4190.513,4201.026,4215.0,4181.154,4181.026,4215.897,0,0
330,59,0,0,4223.846,4199.872,4213.462,4201.923,4191.282,4201.41,4214.103,4192.9490000000005,4187.821,4201.795,4215.0,4178.718,4186.795,4217.821,0,0
331,60,0,0,4229.872,4203.462,4215.0,4207.9490000000005,4199.359,4197.9490000000005,4204.487,4193.974,4185.641,4197.821,4208.974,4175.769,4182.692,4212.9490000000005,0,0
332,61,0,0,4230.0,4206.41,4210.769,4212.179,4197.179,4189.359,4182.436,4188.846,4185.769,4196.667,4207.564,4177.821,4179.359,4212.821,0,0
333,62,0,0,4241.538,4215.128,4219.872,4214.615,4197.436,4199.103,4187.0509999999995,4177.308,4194.103,4210.385,4223.333,4188.077,4192.821,4225.385,0,0
334,63,0,0,4252.564,4221.026,4230.769,4219.487,4207.179,4204.231,4195.641,4174.487,4198.59,4219.872,4234.103,4193.462,4194.231,4235.128,0,0
335,64,0,2680,4249.359,4224.103,4231.026,4224.231,4213.333,4199.231,4193.59,4186.538,4196.795,4215.128,4228.205,4189.487,4182.692,4234.744000000001,0,0
336,65,0,3090,4256.41,4236.154,4234.872,4231.923,4216.923,4208.077,4208.974,4204.487,4204.744000000001,4222.179,4233.974,4194.103,4191.795,4244.231,0,0
337,66,0,3244,4276.282,4248.718,4244.487,4242.436,4226.923,4218.205,4224.359,4216.282,4217.308,4240.128,4254.103,4205.897,4206.923,4261.282,0,0
338,67,0,3053,4282.308,4250.0,4248.59,4246.795,4232.9490000000005,4217.308,4219.487,4218.333,4219.487,4245.897,4261.538,4206.41,4204.744000000001,4267.692,0,0
339,68,0,3569,4279.615,4248.077,4248.462,4246.538,4230.0,4215.769,4219.872,4223.077,4220.641,4248.077,4261.154,4198.59,4201.41,4267.692,0,0
340,69,0,3378,4279.615,4249.359,4243.462,4246.282,4220.897,4207.179,4214.231,4217.692,4220.641,4248.077,4260.255999999999,4195.641,4200.641,4266.923,0,0
341,70,0,3358,4277.692,4248.205,4240.641,4244.231,4217.308,4197.821,4206.667,4213.718,4213.718,4237.179,4253.077,4197.308,4191.41,4264.744000000001,0,0
342,71,0,3299,4277.0509999999995,4246.538,4244.231,4244.615,4225.513,4207.436,4220.897,4228.59,4215.255999999999,4232.179,4252.821,4202.564,4189.359,4264.615,0,0
343,72,0,3347,4276.923,4247.564,4242.179,4247.308,4227.308,4215.128,4218.974,4212.436,4214.103,4236.923,4260.513,4206.026,4201.795,4266.923,0,0
344,73,0,3241,4274.231,4247.692,4236.795,4245.513,4217.821,4207.308,4195.385,4176.282,4201.154,4235.255999999999,4260.385,4202.9490000000005,4204.615,4265.0,0,0
345,74,0,3179,4273.718,4248.205,4242.308,4242.9490000000005,4220.255999999999,4207.308,4202.0509999999995,4194.231,4204.487,4234.359,4256.923,4202.0509999999995,4196.41,4262.821,0,0
346,75,0,3232,4280.0,4251.538,4251.923,4247.9490000000005,4234.487,4214.487,4221.41,4239.744000000001,4222.0509999999995,4245.0,4263.718,4210.128,4197.9490000000005,4271.538,0,0
347,76,0,3288,4278.205,4250.513,4251.667,4250.513,4230.0,4212.308,4209.487,4232.179,4219.744000000001,4245.128,4264.615,4210.513,4202.564,4274.744000000001,0,0
348,77,0,2085,4266.154,4243.333,4247.436,4244.615,4218.59,4205.513,4195.641,4197.821,4206.923,4233.462,4251.026,4202.179,4199.103,4263.462,0,0
349,78,0,3179,4264.615,4242.179,4247.564,4243.974,4223.718,4204.615,4203.718,4198.462,4210.769,4236.282,4249.359,4202.179,4199.487,4260.897,0,0
350,79,0,3232,4269.359,4244.231,4249.872,4245.513,4225.641,4204.487,4210.769,4217.436,4219.487,4243.718,4258.974,4206.282,4203.333,4266.923,0,0
351,80,0,3288,4265.0,4238.718,4246.41,4238.846,4215.255999999999,4202.692,4211.154,4218.077,4213.974,4234.744000000001,4253.718,4201.41,4194.103,4259.872,0,0
352,81,0,2085,4260.897,4232.692,4242.9490000000005,4239.487,4212.564,4202.179,4215.641,4210.0,4209.231,4229.359,4244.103,4196.795,4191.026,4255.897,0,0
353,82,0,3179,4264.872,4233.59,4242.692,4242.9490000000005,4219.231,4204.231,4218.077,4220.897,4216.667,4237.0509999999995,4249.487,4197.9490000000005,4198.846,4260.385,0,0
354,83,0,3232,4264.359,4236.795,4240.255999999999,4237.0509999999995,4218.333,4202.9490000000005,4206.538,4219.487,4215.385,4234.359,4250.385,4193.974,4193.846,4255.385,0,0
355,84,0,3288,4260.513,4238.205,4236.538,4236.667,4216.41,4200.385,4197.308,4206.923,4207.436,4227.308,4243.846,4194.487,4188.333,4249.103,0,0
356,85,0,2085,4262.179,4241.538,4237.692,4242.9490000000005,4223.333,4208.462,4211.282,4221.667,4213.462,4232.0509999999995,4245.769,4203.077,4197.179,4253.462,0,0
357,86,0,3179,4263.59,4245.0,4240.0,4244.231,4229.744000000001,4213.205,4225.641,4231.026,4222.564,4235.513,4249.615,4202.821,4203.59,4255.255999999999,0,0
358,87,0,3232,4265.897,4248.333,4238.846,4242.9490000000005,4228.59,4205.128,4215.0,4208.846,4216.026,4234.487,4248.846,4196.41,4202.692,4250.769,0,0
359,88,0,3288,4266.667,4247.821,4235.385,4239.615,4220.641,4201.41,4196.41,4190.641,4205.897,4235.641,4242.821,4195.769,4203.846,4249.487,0,0
360,89,0,2085,4256.026,4241.282,4230.769,4230.385,4214.872,4197.436,4183.59,4189.359,4199.744000000001,4227.692,4233.59,4193.718,4200.897,4245.0,0,0
361,90,0,3179,4247.692,4238.462,4228.462,4228.846,4215.255999999999,4188.077,4177.179,4181.41,4189.872,4216.923,4230.769,4190.0,4196.795,4241.41,0,0
362,91,0,3232,4257.821,4242.564,4231.795,4234.103,4215.255999999999,4190.385,4185.385,4175.255999999999,4184.744000000001,4221.282,4234.359,4191.026,4198.718,4245.128,0,0
363,92,0,3288,4267.9490000000005,4244.872,4237.9490000000005,4235.897,4217.308,4202.821,4198.205,4187.308,4192.179,4230.513,4235.385,4195.128,4199.359,4248.077,0,0
364,93,0,2085,4258.077,4239.103,4238.077,4235.897,4223.718,4208.846,4204.103,4200.385,4202.692,4233.077,4235.385,4195.385,4201.795,4249.359,0,0
365,94,0,3179,4246.795,4232.436,4232.564,4231.667,4223.718,4211.795,4209.615,4201.282,4200.769,4229.103,4234.872,4191.282,4202.308,4246.538,0,0
366,95,0,3232,4244.487,4230.255999999999,4229.359,4229.231,4218.59,4214.872,4217.179,4198.077,4195.769,4221.538,4231.667,4186.154,4199.872,4238.333,0,0
367,96,0,3288,4238.077,4233.59,4224.744000000001,4232.692,4219.103,4216.923,4218.205,4201.41,4200.641,4216.026,4225.0,4188.59,4196.154,4231.282,0,0
368,97,0,2085,4231.538,4231.795,4218.974,4228.205,4220.0,4219.231,4216.41,4204.744000000001,4199.744000000001,4216.154,4219.615,4192.179,4189.231,4231.154,0,0
369,98,0,3179,4230.513,4219.872,4215.897,4217.821,4214.615,4213.462,4218.59,4200.0,4188.462,4215.128,4217.821,4189.359,4182.564,4228.974,0,0
370,99,0,3232,4228.205,4217.9490000000005,4216.923,4218.846,4212.564,4206.667,4215.255999999999,4200.513,4187.564,4214.615,4218.205,4188.59,4183.718,4227.9490000000005,0,0
371,100,0,3288,4232.0509999999995,4226.667,4217.436,4228.718,4220.128,4212.821,4209.615,4205.255999999999,4200.513,4222.564,4224.615,4191.026,4193.974,4236.282,0,0
372,101,0,2085,4245.385,4234.359,4217.179,4232.436,4227.0509999999995,4218.462,4218.718,4216.667,4207.0509999999995,4232.0509999999995,4233.718,4190.769,4200.513,4245.385,0,0
373,102,0,3179,4250.385,4236.923,4217.436,4232.564,4230.255999999999,4215.641,4230.0,4235.128,4208.205,4233.718,4239.744000000001,4192.179,4200.128,4251.41,0,0
374,103,0,3232,4240.255999999999,4225.513,4216.41,4229.872,4225.769,4217.821,4218.846,4218.333,4204.487,4223.077,4232.308,4193.205,4199.744000000001,4249.744000000001,0,0
375,104,0,3288,4238.974,4221.026,4217.0509999999995,4228.846,4219.744000000001,4221.41,4195.641,4177.308,4192.308,4212.179,4219.615,4189.487,4200.641,4245.0,0,0
376,105,0,2085,4261.026,4253.077,4226.667,4241.923,4224.231,4215.0,4192.9490000000005,4188.462,4191.795,4214.487,4224.359,4195.385,4202.179,4254.359,0,0
377,106,0,3179,4280.513,4287.0509999999995,4236.538,4253.974,4232.179,4209.487,4210.255999999999,4226.667,4201.923,4217.179,4232.821,4201.282,4203.462,4263.846,0,0
378,107,0,3232,4276.795,4285.641,4238.205,4252.0509999999995,4232.9490000000005,4214.487,4218.205,4212.308,4200.513,4210.385,4220.897,4194.872,4201.667,4254.615,0,0
379,108,0,3288,4271.154,4276.923,4241.923,4253.462,4230.255999999999,4218.333,4211.41,4191.667,4194.872,4207.9490000000005,4209.744000000001,4194.744000000001,4198.077,4244.615,0,0
380,109,0,2085,4280.255999999999,4286.026,4250.769,4262.9490000000005,4233.846,4215.897,4208.974,4211.026,4201.41,4215.513,4225.255999999999,4207.436,4202.0509999999995,4255.641,0,0
381,110,0,3179,4287.0509999999995,4293.974,4253.718,4267.564,4242.0509999999995,4222.821,4225.513,4223.205,4211.795,4220.128,4238.974,4210.0,4207.0509999999995,4266.795,0,0
382,111,0,3232,4278.462,4286.538,4249.872,4264.231,4244.487,4231.538,4245.0,4223.846,4212.179,4218.462,4232.0509999999995,4203.077,4203.59,4258.59,0,0
383,112,0,3288,4267.9490000000005,4275.255999999999,4245.128,4260.255999999999,4236.538,4223.59,4235.513,4224.359,4206.154,4217.692,4228.205,4204.487,4199.231,4248.846,0,0
384,113,0,2085,4266.795,4272.692,4245.255999999999,4262.821,4233.333,4214.744000000001,4209.615,4210.255999999999,4202.9490000000005,4216.923,4234.231,4207.308,4199.615,4251.795,0,0
385,114,0,3179,4264.359,4267.436,4242.308,4262.0509999999995,4237.0509999999995,4218.846,4202.436,4193.462,4200.385,4213.846,4230.0,4198.205,4200.641,4253.077,0,0
386,115,0,3232,4255.128,4257.564,4235.897,4249.487,4228.59,4219.872,4213.59,4204.487,4197.821,4212.692,4220.0,4190.769,4199.487,4244.872,0,0
387,116,0,3288,4257.821,4260.385,4236.923,4244.103,4224.231,4214.615,4220.769,4235.128,4211.282,4218.846,4229.103,4199.615,4202.9490000000005,4246.282,0,0
388,117,0,2085,4264.103,4265.128,4238.077,4251.282,4228.462,4216.795,4217.821,4238.974,4220.641,4221.795,4236.538,4205.0,4206.538,4252.9490000000005,0,0
389,118,0,3179,4254.487,4261.795,4231.026,4249.359,4220.897,4214.231,4213.846,4213.205,4203.462,4208.718,4222.0509999999995,4193.59,4202.436,4245.385,0,0
390,119,0,3232,4246.41,4258.462,4228.59,4237.564,4213.077,4204.231,4216.154,4210.0,4193.59,4196.923,4211.795,4187.9490000000005,4198.333,4234.359,0,0
391,120,0,3288,4250.513,4252.564,4231.154,4230.641,4211.41,4200.255999999999,4216.795,4223.846,4201.154,4200.255999999999,4213.205,4193.974,4198.846,4232.0509999999995,0,0
392,121,0,2085,4248.205,4244.872,4227.308,4230.897,4204.744000000001,4201.026,4207.179,4203.077,4195.0,4201.41,4212.0509999999995,4193.59,4200.0,4231.538,0,0
393,122,0,3179,4237.9490000000005,4246.282,4226.154,4233.462,4199.103,4202.0509999999995,4202.179,4182.0509999999995,4187.9490000000005,4195.641,4211.026,4192.692,4203.333,4231.538,0,0
394,123,0,3232,4232.308,4244.872,4224.615,4232.0509999999995,4199.103,4199.231,4202.9490000000005,4194.359,4192.179,4194.744000000001,4205.385,4193.718,4202.821,4229.872,0,0
395,124,0,3288,4239.103,4238.333,4222.9490000000005,4229.615,4196.795,4197.436,4201.026,4203.077,4191.154,4199.359,4201.154,4196.282,4200.0,4228.205,0,0
396,125,0,2085,4245.769,4241.282,4227.0509999999995,4233.974,4199.872,4205.769,4206.795,4200.513,4190.513,4200.255999999999,4211.41,4200.255999999999,4202.179,4231.282,0,0
397,126,0,3179,4236.923,4247.179,4228.462,4233.462,4202.0509999999995,4212.692,4214.103,4200.385,4194.359,4200.128,4218.077,4199.359,4203.333,4231.667,0,0
398,127,0,52,4233.974,4246.667,4226.795,4226.923,4199.231,4209.872,4217.9490000000005,4216.795,4204.231,4210.128,4215.513,4196.41,4206.667,4230.255999999999,0,0
399,0,0,2679,4248.462,4249.872,4231.923,4234.487,4209.615,4212.436,4225.897,4237.0509999999995,4216.538,4222.564,4219.359,4196.026,4217.821,4236.154,0,0
400,1,0,3085,4250.385,4252.179,4233.462,4242.9490000000005,4216.923,4217.9490000000005,4223.718,4215.513,4207.9490000000005,4216.667,4218.846,4197.179,4213.974,4237.179,0,0
401,2,0,3241,4240.128,4243.59,4230.385,4234.231,4207.308,4214.359,4212.308,4190.897,4198.718,4211.154,4217.308,4203.077,4205.0,4235.385,0,0
402,3,0,3052,4245.255999999999,4237.9490000000005,4238.205,4229.231,4201.538,4213.333,4215.255999999999,4224.872,4218.462,4228.077,4233.59,4211.282,4221.026,4245.897,0,0
403,4,0,3567,4249.487,4238.462,4240.513,4236.026,4203.718,4212.821,4217.821,4236.41,4229.744000000001,4238.333,4243.974,4210.641,4237.692,4249.615,0,0
404,5,0,3374,4236.026,4233.333,4230.255999999999,4231.538,4202.0509999999995,4203.974,4202.436,4191.154,4213.333,4229.615,4232.821,4205.255999999999,4232.9490000000005,4239.615,0,0
405,6,0,3352,4232.308,4231.026,4226.795,4221.282,4199.615,4202.0509999999995,4198.974,4192.692,4212.692,4230.897,4227.0509999999995,4201.923,4231.026,4241.154,0,0
406,7,0,3290,4247.0509999999995,4241.923,4233.462,4228.333,4202.821,4206.795,4209.615,4223.077,4221.795,4237.308,4233.718,4203.205,4234.615,4245.513,0,0
407,8,0,3346,4251.41,4248.718,4236.282,4237.179,4206.923,4204.872,4205.641,4205.769,4216.41,4231.538,4230.641,4204.487,4232.821,4237.9490000000005,0,0
408,9,0,3241,4238.59,4237.821,4230.255999999999,4227.9490000000005,4202.436,4201.923,4200.769,4197.564,4215.641,4229.487,4221.154,4199.872,4234.615,4234.231,0,0
409,10,0,3176,4226.538,4226.026,4220.128,4217.564,4192.692,4203.59,4208.077,4217.564,4220.641,4235.255999999999,4216.538,4193.077,4239.487,4230.128,0,0
410,11,0,3224,4214.487,4215.769,4208.462,4214.744000000001,4186.538,4198.462,4204.872,4206.154,4211.538,4222.9490000000005,4209.487,4188.718,4231.282,4213.333,0,0
411,12,0,3282,4197.0509999999995,4202.0509999999995,4201.795,4199.744000000001,4177.436,4187.564,4189.487,4181.026,4193.462,4191.41,4194.359,4182.564,4214.872,4195.128,0,0
412,13,0,2081,4190.0,4195.128,4199.744000000001,4185.255999999999,4170.769,4184.615,4187.308,4182.9490000000005,4191.41,4180.769,4184.103,4180.769,4210.385,4188.077,0,0
413,14,0,3176,4195.255999999999,4202.308,4198.077,4195.769,4178.077,4189.744000000001,4194.744000000001,4191.282,4200.255999999999,4194.615,4183.718,4182.9490000000005,4219.744000000001,4188.718,0,0
414,15,0,3224,4193.59,4200.255999999999,4198.718,4199.872,4177.179,4188.846,4187.821,4185.385,4195.385,4192.564,4178.205,4178.077,4220.0,4185.897,0,0
415,16,0,0,4173.462,4179.487,4190.255999999999,4174.103,4158.077,4175.255999999999,4172.436,4169.231,4177.179,4169.487,4160.897,4172.0509999999995,4205.513,4171.154,0,0
416,17,0,0,4152.0509999999995,4167.436,4174.231,4159.872,4148.718,4163.077,4166.154,4165.128,4167.564,4154.744000000001,4145.641,4172.821,4197.0509999999995,4153.718,0,0
417,18,0,0,4149.744000000001,4170.641,4175.641,4164.615,4154.744000000001,4171.538,4171.026,4178.462,4170.641,4154.359,4142.0509999999995,4174.744000000001,4197.179,4151.026,0,0
418,19,0,0,4152.9490000000005,4169.744000000001,4188.974,4159.231,4154.359,4181.026,4173.333,4162.9490000000005,4168.718,4154.359,4138.205,4173.718,4198.077,4150.255999999999,0,0
419,20,0,0,4144.103,4165.897,4181.795,4153.333,4147.692,4167.564,4167.436,4146.154,4165.0,4151.667,4135.897,4170.897,4197.436,4142.0509999999995,0,0
420,21,0,0,4138.974,4170.255999999999,4172.308,4159.103,4151.667,4160.255999999999,4169.231,4176.026,4170.385,4150.769,4140.641,4168.333,4193.59,4139.359,0,0
421,22,0,0,4142.564,4170.513,4178.59,4159.487,4154.231,4170.255999999999,4170.513,4183.333,4170.513,4149.103,4132.0509999999995,4166.154,4186.667,4141.538,0,0
422,23,0,0,4141.282,4165.128,4177.179,4157.179,4141.795,4169.487,4161.154,4151.154,4160.513,4141.923,4119.744000000001,4164.359,4185.769,4141.923,0,0
423,24,0,0,4138.974,4167.692,4169.231,4163.462,4140.128,4163.333,4157.9490000000005,4140.769,4156.154,4134.487,4124.744000000001,4164.359,4190.0,4140.769,0,0
424,25,0,0,4140.641,4167.821,4169.615,4161.026,4154.872,4167.9490000000005,4160.769,4139.872,4155.255999999999,4135.385,4130.513,4163.205,4186.923,4138.974,0,0
425,26,0,0,4145.897,4158.59,4175.0,4153.59,4150.769,4169.744000000001,4155.769,4129.359,4152.179,4142.308,4133.205,4166.154,4183.59,4143.205,0,0
426,27,0,0,4150.897,4157.436,4176.154,4154.231,4138.333,4166.026,4156.41,4142.9490000000005,4154.359,4148.718,4138.333,4171.667,4186.282,4152.564,0,0
427,28,0,0,4153.077,4166.923,4180.128,4155.385,4146.795,4167.0509999999995,4165.255999999999,4155.255999999999,4156.923,4141.026,4132.436,4176.282,4184.359,4153.718,0,0
428,29,0,0,4157.308,4170.641,4190.641,4159.487,4157.692,4168.846,4168.59,4153.59,4161.923,4134.615,4134.359,4178.462,4185.255999999999,4153.077,0,0
429,30,0,0,4160.385,4169.872,4192.9490000000005,4169.359,4158.59,4173.846,4171.795,4169.744000000001,4172.179,4149.359,4152.179,4180.255999999999,4193.59,4164.359,0,0
430,31,0,0,4156.923,4170.769,4183.59,4173.205,4156.795,4176.667,4175.513,4175.128,4173.846,4159.487,4155.0,4179.615,4193.077,4166.923,0,0
431,32,0,0,4156.026,4170.0,4187.821,4169.487,4154.359,4173.974,4177.692,4169.487,4168.462,4151.923,4147.692,4178.077,4189.231,4159.615,0,0
432,33,0,0,4159.487,4171.667,4198.333,4168.974,4156.282,4176.923,4184.359,4178.333,4171.923,4151.026,4154.487,4177.9490000000005,4197.0509999999995,4160.385,0,0
433,34,0,0,4156.538,4172.0509999999995,4191.538,4170.128,4159.487,4177.692,4182.692,4178.974,4179.872,4160.513,4159.487,4176.795,4203.077,4160.385,0,0
434,35,0,0,4155.255999999999,4169.359,4186.41,4170.769,4158.077,4171.667,4175.385,4173.077,4182.692,4165.769,4155.769,4176.538,4199.487,4157.436,0,0
435,36,0,0,4162.692,4175.0,4198.462,4172.821,4162.821,4174.872,4186.538,4193.59,4186.923,4169.231,4159.744000000001,4181.026,4199.359,4168.59,0,0
436,37,0,0,4168.846,4183.333,4203.846,4171.026,4170.385,4184.231,4188.205,4194.744000000001,4189.103,4170.641,4169.872,4186.795,4203.462,4183.205,0,0
437,38,0,0,4169.487,4185.641,4195.385,4172.0509999999995,4169.231,4184.872,4172.436,4165.513,4185.641,4169.359,4174.103,4182.564,4204.615,4178.462,0,0
438,39,0,0,4165.769,4182.821,4187.436,4176.41,4167.821,4182.436,4175.128,4169.744000000001,4183.974,4171.282,4169.231,4176.154,4203.846,4167.821,0,0
439,40,0,0,4165.255999999999,4175.128,4188.333,4177.179,4168.846,4183.59,4186.923,4182.436,4185.897,4172.308,4168.718,4179.744000000001,4203.077,4172.9490000000005,0,0
440,41,0,0,4169.615,4173.205,4195.513,4175.769,4167.179,4183.718,4183.333,4168.59,4182.436,4170.385,4174.872,4190.255999999999,4204.744000000001,4181.026,0,0
441,42,0,0,4165.769,4181.923,4201.282,4175.385,4165.897,4185.0,4182.9490000000005,4173.333,4175.255999999999,4166.538,4170.0,4194.103,4199.744000000001,4180.128,0,0
442,43,0,0,4155.897,4180.0,4199.487,4172.9490000000005,4166.538,4186.667,4190.255999999999,4190.0,4170.385,4157.436,4156.795,4185.897,4187.692,4168.205,0,0
443,44,0,0,4152.564,4169.103,4193.205,4170.769,4166.282,4184.103,4184.487,4178.59,4167.821,4148.205,4152.308,4177.9490000000005,4185.128,4158.59,0,0
444,45,0,0,4158.718,4171.667,4190.897,4174.103,4170.0,4185.0,4190.255999999999,4178.59,4176.923,4151.923,4158.846,4181.282,4195.513,4163.846,0,0
445,46,0,0,4157.821,4176.538,4192.436,4175.641,4171.538,4184.872,4202.692,4197.0509999999995,4189.231,4159.103,4162.308,4180.513,4203.077,4167.692,0,0
446,47,0,0,4143.718,4170.513,4186.667,4166.154,4162.821,4176.795,4183.974,4182.308,4178.462,4153.333,4150.769,4169.359,4197.9490000000005,4152.179,0,0
447,48,0,0,4134.615,4162.692,4176.667,4158.333,4153.333,4170.769,4163.333,4161.282,4163.462,4147.436,4136.667,4167.9490000000005,4196.538,4139.615,0,0
448,49,0,0,4139.744000000001,4158.462,4175.513,4156.538,4153.462,4173.846,4180.513,4181.154,4175.769,4152.0509999999995,4142.0509999999995,4176.154,4200.897,4146.923,0,0
449,50,0,0,4140.513,4156.41,4176.923,4155.897,4156.923,4173.718,4193.205,4197.564,4185.385,4150.641,4149.359,4173.077,4194.103,4148.846,0,0
450,51,0,0,4127.308,4153.974,4171.795,4155.128,4148.333,4166.41,4166.538,4168.077,4171.538,4145.128,4140.255999999999,4166.154,4189.615,4137.0509999999995,0,0
451,52,0,0,4118.59,4147.692,4165.0,4147.821,4139.744000000001,4164.872,4145.513,4146.154,4166.41,4149.615,4134.744000000001,4167.564,4197.564,4133.59,0,0
452,53,0,0,4122.0509999999995,4143.59,4162.692,4138.462,4145.769,4169.231,4156.026,4158.846,4172.9490000000005,4154.487,4137.821,4168.846,4202.0509999999995,4138.718,0,0
453,54,0,0,4126.026,4150.128,4167.436,4145.385,4150.0,4170.769,4169.231,4160.255999999999,4169.744000000001,4151.282,4137.564,4167.308,4197.179,4141.154,0,0
454,55,0,0,4126.795,4156.41,4170.641,4151.154,4146.923,4169.872,4169.744000000001,4149.872,4165.769,4151.667,4139.872,4168.59,4196.282,4141.282,0,0
455,56,0,0,4126.41,4152.692,4170.641,4143.59,4149.744000000001,4171.538,4168.462,4151.538,4169.615,4156.923,4145.897,4172.179,4200.513,4143.077,0,0
456,57,0,0,4124.872,4148.59,4168.077,4145.641,4153.974,4172.9490000000005,4169.103,4154.615,4169.103,4155.128,4141.795,4172.9490000000005,4195.769,4141.026,0,0
457,58,0,0,4128.077,4153.59,4168.462,4154.615,4151.538,4169.487,4169.487,4162.308,4166.282,4151.41,4137.436,4175.897,4186.667,4141.154,0,0
458,59,0,0,4136.154,4156.923,4169.744000000001,4150.769,4150.385,4167.0509999999995,4172.9490000000005,4169.487,4167.9490000000005,4153.846,4140.0,4173.846,4187.436,4142.9490000000005,0,0
459,60,0,0,4137.436,4155.128,4168.846,4148.333,4151.282,4168.077,4173.718,4162.9490000000005,4170.255999999999,4157.9490000000005,4140.255999999999,4164.487,4199.744000000001,4140.641,0,0
460,61,0,0,4133.077,4155.128,4168.462,4151.795,4150.897,4167.821,4169.103,4166.41,4172.0509999999995,4160.128,4141.538,4164.359,4200.513,4141.282,0,0
461,62,0,0,4136.41,4157.692,4169.103,4149.872,4153.077,4166.923,4167.0509999999995,4179.231,4176.538,4162.821,4148.077,4174.872,4188.846,4151.154,0,0
462,63,0,0,4141.795,4158.846,4171.538,4150.255999999999,4154.487,4171.923,4169.872,4168.462,4181.795,4167.821,4155.897,4176.41,4193.333,4159.744000000001,0,0
463,64,0,2673,4132.692,4155.128,4169.615,4154.103,4154.487,4175.385,4172.0509999999995,4146.538,4179.103,4169.872,4153.077,4167.436,4202.564,4151.154,0,0
464,65,0,3097,4123.333,4150.897,4164.744000000001,4151.667,4153.846,4172.564,4170.769,4151.538,4173.718,4169.872,4144.872,4164.231,4197.436,4137.9490000000005,0,0
465,66,0,3241,4123.846,4151.154,4163.846,4143.077,4151.41,4169.231,4158.974,4162.179,4173.077,4165.641,4137.821,4161.026,4193.333,4135.255999999999,0,0
466,67,0,3052,4122.9490000000005,4153.462,4167.692,4138.59,4151.41,4168.333,4148.974,4153.205,4169.744000000001,4159.744000000001,4136.41,4160.513,4194.231,4140.128,0,0
467,68,0,3568,4128.59,4153.333,4171.41,4146.282,4152.564,4168.718,4158.718,4152.564,4166.795,4159.615,4146.026,4168.333,4191.026,4142.0509999999995,0,0
468,69,0,3374,4137.564,4153.846,4171.538,4154.103,4151.667,4169.359,4172.179,4169.872,4171.795,4162.692,4151.41,4170.385,4185.513,4139.872,0,0
469,70,0,3359,4129.103,4152.308,4169.359,4146.154,4148.846,4167.179,4167.0509999999995,4172.692,4166.026,4153.718,4137.308,4160.255999999999,4173.462,4134.744000000001,0,0
470,71,0,3299,4121.667,4149.487,4168.077,4138.462,4148.462,4165.385,4166.154,4164.231,4155.769,4145.897,4128.974,4158.718,4162.0509999999995,4133.846,0,0
471,72,0,3352,4136.154,4154.103,4171.154,4151.41,4155.897,4171.154,4181.026,4173.718,4166.282,4160.0,4147.308,4166.923,4174.744000000001,4144.744000000001,0,0
472,73,0,3243,4142.821,4156.667,4170.128,4160.128,4159.103,4172.436,4180.255999999999,4173.205,4172.179,4168.333,4159.231,4169.487,4189.103,4146.282,0,0
473,74,0,3176,4134.744000000001,4153.205,4166.538,4151.41,4152.9490000000005,4168.462,4165.513,4151.923,4158.077,4160.769,4150.0,4171.026,4181.667,4142.179,0,0
474,75,0,3225,4138.077,4159.231,4175.769,4155.255999999999,4156.923,4171.795,4167.821,4155.0,4158.333,4163.205,4151.923,4177.179,4180.255999999999,4151.154,0,0
475,76,0,3287,4145.0,4168.846,4183.333,4170.255999999999,4170.255999999999,4175.641,4175.385,4167.9490000000005,4168.974,4170.769,4166.154,4176.795,4187.9490000000005,4158.974,0,0
476,77,0,2080,4147.821,4168.333,4179.615,4169.487,4171.795,4176.795,4171.923,4170.513,4172.308,4172.436,4171.538,4175.255999999999,4187.436,4161.282,0,0
477,78,0,3176,4154.615,4169.231,4181.795,4165.641,4167.692,4181.41,4176.41,4191.667,4183.718,4182.0509999999995,4172.564,4181.923,4192.436,4170.0,0,0
478,79,0,3225,4157.436,4175.128,4188.59,4170.769,4170.641,4185.385,4187.692,4204.359,4190.513,4189.231,4175.769,4184.744000000001,4203.205,4174.103,0,0
479,80,0,3287,4153.205,4172.9490000000005,4182.9490000000005,4172.308,4171.923,4181.795,4183.333,4173.974,4176.154,4178.333,4172.436,4177.179,4198.974,4164.487,0,0
480,81,0,2080,4150.255999999999,4165.385,4177.692,4170.769,4170.385,4175.385,4171.795,4146.026,4160.641,4169.615,4167.692,4173.59,4187.9490000000005,4161.154,0,0
481,82,0,3176,4151.282,4165.128,4181.154,4168.59,4169.103,4170.641,4166.795,4152.821,4159.744000000001,4169.487,4169.359,4177.308,4186.795,4162.692,0,0
482,83,0,3225,4149.615,4171.795,4177.0509999999995,4162.0509999999995,4168.846,4169.231,4168.974,4166.282,4167.436,4171.41,4166.923,4174.615,4189.487,4159.872,0,0
483,84,0,3287,4144.744000000001,4167.308,4170.0,4155.255999999999,4168.974,4170.255999999999,4170.255999999999,4168.462,4172.0509999999995,4171.282,4158.974,4165.641,4186.41,4151.923,0,0
484,85,0,2080,4138.846,4153.846,4168.718,4153.205,4164.359,4170.128,4166.795,4165.255999999999,4168.333,4167.821,4155.385,4159.359,4185.897,4143.718,0,0
485,86,0,3176,4138.846,4155.641,4168.333,4154.744000000001,4163.974,4170.641,4167.308,4167.564,4170.769,4170.0,4157.821,4160.897,4194.231,4147.179,0,0
486,87,0,3225,4146.667,4167.564,4165.513,4156.41,4166.538,4171.026,4170.255999999999,4166.538,4178.846,4173.718,4159.744000000001,4164.103,4198.333,4155.0,0,0
487,88,0,3287,4151.923,4167.821,4166.282,4154.744000000001,4161.154,4171.154,4168.59,4153.718,4172.0509999999995,4170.769,4156.538,4165.513,4190.128,4153.333,0,0
488,89,0,2080,4152.436,4161.923,4170.769,4153.846,4156.282,4172.564,4171.026,4158.59,4169.872,4169.103,4153.718,4163.205,4184.872,4152.564,0,0
489,90,0,3176,4155.255999999999,4163.462,4172.308,4158.718,4159.487,4169.487,4174.359,4168.974,4177.9490000000005,4171.282,4156.41,4161.923,4187.564,4157.9490000000005,0,0
490,91,0,3225,4156.923,4163.974,4170.513,4157.9490000000005,4164.231,4171.667,4166.41,4160.769,4174.359,4169.103,4161.923,4165.641,4188.333,4158.59,0,0
491,92,0,3287,4154.487,4164.615,4169.872,4155.128,4167.436,4179.359,4166.282,4161.026,4176.667,4169.103,4168.205,4166.667,4192.0509999999995,4160.769,0,0
492,93,0,2080,4153.718,4168.59,4172.692,4162.564,4170.385,4177.692,4180.128,4164.487,4184.744000000001,4171.538,4170.0,4165.641,4198.718,4164.487,0,0
493,94,0,3176,4154.231,4167.692,4171.923,4169.359,4168.846,4169.487,4175.255999999999,4149.231,4174.487,4168.077,4166.154,4165.513,4197.692,4158.333,0,0
494,95,0,3225,4153.974,4167.564,4168.718,4166.667,4168.718,4170.255999999999,4163.59,4154.872,4170.769,4172.9490000000005,4165.769,4164.103,4198.077,4154.103,0,0
495,96,0,3287,4155.128,4168.333,4171.026,4163.718,4171.538,4174.487,4179.872,4181.923,4186.026,4182.821,4173.59,4163.333,4200.513,4160.0,0,0
496,97,0,2080,4148.333,4160.641,4166.41,4161.538,4165.513,4170.513,4186.282,4175.128,4181.538,4176.154,4170.0,4160.897,4192.179,4155.641,0,0
497,98,0,3176,4135.513,4150.385,4155.385,4154.103,4156.41,4166.667,4163.846,4156.538,4163.462,4164.231,4154.744000000001,4154.872,4182.179,4138.846,0,0
498,99,0,3225,4133.846,4150.0,4158.205,4149.231,4155.897,4168.846,4159.231,4167.564,4169.487,4166.026,4156.923,4154.103,4183.462,4136.282,0,0
499,100,0,3287,4145.897,4156.41,4171.282,4156.795,4161.667,4170.513,4175.641,4187.179,4183.205,4171.538,4179.359,4163.974,4186.923,4151.282,0,0
500,101,0,2080,4153.846,4158.462,4172.692,4161.41,4164.872,4169.103,4176.026,4192.179,4185.769,4170.897,4187.564,4173.205,4186.41,4159.744000000001,0,0
501,102,0,3176,4154.615,4155.641,4168.59,4156.282,4165.897,4170.513,4169.487,4179.615,4179.487,4169.231,4174.103,4168.718,4187.436,4154.744000000001,0,0
502,103,0,3225,4156.923,4158.333,4175.513,4158.974,4168.333,4173.333,4174.359,4166.667,4175.769,4167.692,4169.487,4162.692,4189.103,4159.744000000001,0,0
503,104,0,3287,4157.179,4163.718,4181.282,4166.282,4169.231,4170.769,4173.333,4168.846,4181.923,4168.077,4172.9490000000005,4165.128,4188.333,4167.436,0,0
504,105,0,2080,4159.487,4163.846,4180.128,4163.846,4170.255999999999,4172.692,4171.667,4171.41,4182.692,4171.41,4170.769,4172.692,4187.436,4160.641,0,0
505,106,0,3176,4167.179,4166.026,4180.897,4166.026,4170.897,4179.359,4178.205,4169.359,4181.41,4171.795,4175.513,4175.641,4187.9490000000005,4156.795,0,0
506,107,0,3225,4165.255999999999,4168.077,4183.718,4174.744000000001,4170.255999999999,4176.41,4175.385,4170.897,4182.821,4168.462,4181.282,4174.359,4187.179,4160.255999999999,0,0
507,108,0,3287,4153.462,4158.59,4180.897,4164.487,4169.744000000001,4170.769,4166.795,4161.41,4173.462,4167.0509999999995,4170.769,4168.077,4183.846,4157.0509999999995,0,0
508,109,0,2080,4155.513,4153.974,4180.0,4157.0509999999995,4169.359,4178.846,4172.436,4149.872,4169.103,4169.487,4165.255999999999,4167.821,4186.667,4159.359,0,0
509,110,0,3176,4161.538,4159.872,4182.308,4165.513,4169.744000000001,4182.179,4183.462,4162.308,4182.308,4172.564,4180.128,4177.308,4190.385,4168.462,0,0
510,111,0,3225,4155.897,4158.59,4179.103,4162.436,4169.615,4173.205,4182.564,4180.641,4188.333,4178.59,4188.077,4178.846,4191.282,4167.308,0,0
511,112,0,3287,4156.667,4156.026,4176.282,4159.487,4173.333,4174.872,4183.333,4184.872,4184.872,4182.564,4184.744000000001,4176.282,4195.128,4163.462,0,0
512,113,0,2080,4161.667,4157.0509999999995,4179.487,4168.718,4175.897,4184.744000000001,4188.462,4185.641,4187.821,4176.795,4181.154,4175.128,4194.231,4161.026,0,0
513,114,0,3176,4156.538,4157.308,4179.359,4171.41,4172.179,4183.974,4184.359,4185.255999999999,4184.615,4167.9490000000005,4171.538,4167.9490000000005,4184.487,4152.436,0,0
514,115,0,3225,4158.205,4161.667,4176.795,4166.923,4174.872,4182.179,4185.897,4187.821,4180.255999999999,4167.564,4168.205,4163.462,4181.026,4155.128,0,0
515,116,0,3287,4170.128,4169.744000000001,4182.692,4171.538,4186.41,4189.744000000001,4197.0509999999995,4192.821,4186.923,4172.0509999999995,4182.692,4171.41,4188.59,4171.538,0,0
516,117,0,2080,4166.795,4169.615,4185.641,4175.641,4187.821,4192.564,4194.615,4188.205,4189.103,4173.205,4188.59,4173.59,4190.385,4171.026,0,0
517,118,0,3176,4155.128,4164.359,4174.744000000001,4171.795,4177.179,4185.513,4182.692,4186.41,4183.974,4171.538,4174.359,4165.641,4183.462,4156.923,0,0
518,119,0,3225,4157.9490000000005,4166.154,4169.744000000001,4170.513,4172.692,4181.795,4181.282,4183.462,4182.564,4170.513,4169.487,4161.538,4183.333,4156.538,0,0
519,120,0,3287,4161.667,4165.897,4178.077,4169.487,4173.205,4185.385,4186.154,4174.487,4182.436,4172.179,4175.641,4164.615,4187.9490000000005,4161.154,0,0
520,121,0,2080,4153.846,4156.923,4176.154,4162.308,4168.974,4185.513,4188.462,4170.897,4178.462,4171.282,4173.846,4165.128,4185.769,4156.282,0,0
521,122,0,3176,4149.359,4152.0509999999995,4166.538,4153.462,4166.026,4175.769,4183.462,4172.308,4173.718,4168.462,4168.718,4162.0509999999995,4180.0,4155.769,0,0
522,123,0,3225,4153.333,4154.231,4167.0509999999995,4151.41,4165.641,4170.0,4172.692,4176.026,4176.41,4168.077,4170.255999999999,4164.359,4182.821,4160.769,0,0
523,124,0,3287,4155.897,4156.026,4170.385,4155.255999999999,4165.641,4178.59,4174.231,4181.282,4183.846,4170.513,4178.974,4168.333,4189.359,4165.128,0,0
524,125,0,2080,4154.359,4156.154,4169.487,4155.769,4168.205,4183.974,4185.513,4181.923,4184.359,4172.9490000000005,4181.026,4164.872,4188.462,4165.385,0,0
525,126,0,3176,4150.128,4156.41,4167.821,4153.59,4172.308,4176.154,4184.487,4185.385,4180.128,4173.333,4173.974,4164.359,4182.821,4158.974,0,0
526,127,0,52,4149.872,4154.744000000001,4169.103,4156.923,4170.897,4175.128,4179.231,4188.974,4181.154,4172.564,4170.897,4169.615,4180.641,4155.385,0,0
527,0,0,2674,4153.077,4154.615,4169.744000000001,4160.255999999999,4169.103,4185.128,4185.513,4174.487,4181.667,4171.795,4175.513,4169.103,4184.231,4156.667,0,0
528,1,0,3094,4152.564,4158.333,4170.897,4158.205,4174.487,4188.333,4189.103,4167.821,4182.179,4172.9490000000005,4175.897,4165.641,4187.821,4155.897,0,0
529,2,0,3243,4148.974,4161.41,4168.718,4159.231,4175.128,4183.59,4183.077,4187.821,4186.026,4172.308,4172.0509999999995,4161.923,4186.795,4154.487,0,0
530,3,0,3052,4151.667,4164.231,4169.103,4167.564,4170.513,4182.0509999999995,4180.641,4194.615,4186.026,4173.974,4177.436,4162.436,4185.641,4155.128,0,0
531,4,0,3568,4156.538,4167.821,4174.872,4171.282,4176.154,4183.718,4185.385,4184.872,4183.846,4178.718,4184.487,4169.872,4185.769,4156.41,0,0
532,5,0,3374,4155.897,4167.308,4174.872,4169.487,4181.923,4185.385,4190.128,4188.59,4187.436,4177.308,4184.872,4172.308,4184.744000000001,4162.821,0,0
533,6,0,3358,4154.359,4164.487,4169.231,4169.615,4178.462,4184.872,4187.0509999999995,4184.615,4184.103,4173.462,4186.026,4163.59,4184.615,4167.821,0,0
534,7,0,3298,4155.385,4167.308,4168.846,4168.718,4178.846,4182.436,4181.026,4172.179,4174.872,4172.308,4184.359,4158.846,4184.615,4162.308,0,0
535,8,0,3354,4155.128,4169.231,4169.231,4167.564,4182.0509999999995,4183.205,4180.769,4176.282,4176.41,4170.385,4176.667,4161.282,4181.026,4156.795,0,0
536,9,0,3243,4152.0509999999995,4159.615,4165.385,4166.795,4174.487,4183.846,4183.974,4171.41,4175.641,4166.538,4173.205,4160.641,4177.821,4156.154,0,0
537,10,0,3176,4150.255999999999,4152.308,4164.359,4165.385,4167.564,4182.564,4179.744000000001,4151.41,4167.9490000000005,4167.436,4182.0509999999995,4155.769,4179.744000000001,4156.41,0,0
538,11,0,3229,4154.231,4159.487,4167.436,4167.564,4175.513,4182.692,4172.821,4145.769,4166.795,4171.026,4186.41,4155.385,4183.462,4154.103,0,0
539,12,0,3287,4162.564,4168.846,4169.231,4172.179,4183.333,4183.846,4177.308,4157.0509999999995,4169.487,4171.154,4178.718,4158.077,4184.359,4156.282,0,0
540,13,0,2085,4169.744000000001,4172.0509999999995,4171.026,4174.103,4184.744000000001,4186.41,4189.231,4177.692,4175.641,4172.821,4178.846,4160.641,4183.974,4167.9490000000005,0,0
541,14,0,3176,4170.385,4171.282,4171.026,4172.564,4188.077,4189.231,4192.9490000000005,4193.205,4187.308,4176.667,4182.821,4160.641,4183.718,4172.564,0,0
542,15,0,3229,4165.769,4168.077,4169.487,4171.538,4186.667,4187.9490000000005,4181.026,4179.103,4185.897,4176.538,4176.026,4158.205,4183.462,4162.564,0,0
543,16,0,0,4164.872,4167.179,4169.103,4169.359,4178.333,4181.667,4175.385,4163.846,4172.9490000000005,4171.667,4169.487,4155.385,4185.641,4156.795,0,0
544,17,0,0,4168.974,4168.333,4168.846,4168.333,4173.077,4174.744000000001,4182.308,4175.385,4171.667,4168.974,4174.103,4157.179,4182.308,4159.615,0,0
545,18,0,0,4163.59,4165.385,4167.9490000000005,4168.974,4170.641,4174.103,4180.385,4172.308,4170.385,4167.9490000000005,4172.308,4159.872,4175.128,4157.564,0,0
546,19,0,0,4156.538,4164.103,4170.128,4170.897,4173.974,4181.795,4179.487,4166.923,4166.923,4167.821,4166.923,4158.462,4176.667,4157.9490000000005,0,0
547,20,0,0,4163.718,4169.487,4172.179,4171.667,4185.128,4188.333,4186.667,4181.667,4178.59,4172.692,4176.154,4162.564,4184.744000000001,4166.795,0,0
548,21,0,0,4171.282,4170.641,4172.436,4170.769,4186.667,4185.128,4181.282,4181.667,4185.513,4174.103,4183.205,4164.615,4185.641,4172.179,0,0
549,22,0,0,4168.718,4174.487,4173.846,4176.667,4180.255999999999,4182.179,4172.9490000000005,4165.513,4176.667,4172.564,4182.0509999999995,4161.795,4183.846,4169.615,0,0
550,23,0,0,4170.641,4182.179,4176.667,4183.462,4183.59,4186.923,4183.59,4166.026,4173.718,4178.974,4184.615,4167.436,4186.667,4172.0509999999995,0,0
551,24,0,0,4180.897,4178.974,4179.487,4180.385,4185.769,4188.333,4190.513,4179.103,4182.692,4182.564,4188.59,4176.026,4186.667,4181.282,0,0
552,25,0,0,4181.538,4170.897,4182.436,4174.615,4176.923,4183.718,4180.769,4184.103,4185.641,4180.769,4191.795,4174.231,4184.744000000001,4187.179,0,0
553,26,0,0,4172.308,4170.513,4180.255999999999,4173.462,4173.205,4182.692,4177.692,4174.359,4181.026,4181.795,4190.641,4168.333,4186.795,4185.385,0,0
554,27,0,0,4170.0,4171.026,4174.487,4173.077,4178.333,4186.41,4183.205,4163.974,4179.231,4182.821,4186.154,4167.0509999999995,4188.846,4181.923,0,0
555,28,0,0,4176.667,4171.026,4179.487,4172.9490000000005,4183.59,4187.436,4186.154,4178.846,4183.077,4182.821,4191.41,4170.513,4188.462,4185.513,0,0
556,29,0,0,4176.026,4170.897,4183.333,4175.128,4183.462,4186.026,4187.179,4195.769,4189.231,4184.487,4200.897,4173.846,4186.026,4184.615,0,0
557,30,0,0,4168.974,4168.974,4177.9490000000005,4173.59,4182.692,4185.513,4191.667,4178.974,4182.9490000000005,4184.615,4194.487,4174.231,4185.385,4175.897,0,0
558,31,0,0,4170.897,4170.513,4177.179,4172.692,4183.462,4187.436,4188.718,4153.846,4172.179,4179.872,4185.255999999999,4170.769,4186.795,4173.333,0,0
559,32,0,0,4171.026,4167.692,4176.026,4172.0509999999995,4177.179,4183.846,4174.744000000001,4154.103,4167.9490000000005,4174.744000000001,4184.103,4165.513,4182.179,4176.795,0,0
560,33,0,0,4157.692,4154.359,4167.564,4164.487,4168.205,4173.077,4168.846,4164.103,4161.795,4164.872,4175.128,4163.205,4167.564,4167.436,0,0
561,34,0,0,4151.795,4149.615,4166.538,4156.923,4165.385,4173.462,4169.359,4157.308,4156.795,4154.103,4164.872,4161.41,4157.0509999999995,4152.436,0,0
562,35,0,0,4160.769,4162.0509999999995,4179.359,4163.718,4169.744000000001,4185.128,4173.205,4157.0509999999995,4163.462,4159.872,4173.205,4163.205,4162.821,4158.974,0,0
563,36,0,0,4172.179,4173.205,4186.026,4180.385,4179.872,4188.077,4183.077,4176.538,4176.923,4178.205,4188.974,4170.0,4176.923,4177.308,0,0
564,37,0,0,4177.821,4172.436,4184.744000000001,4182.9490000000005,4185.641,4183.462,4187.821,4186.282,4181.538,4186.538,4196.795,4175.641,4183.974,4185.513,0,0
565,38,0,0,4178.205,4169.359,4183.974,4172.9490000000005,4182.692,4184.103,4185.385,4185.769,4183.205,4182.179,4198.333,4173.846,4183.205,4184.487,0,0
566,39,0,0,4180.255999999999,4171.154,4186.026,4173.846,4182.0509999999995,4186.923,4186.538,4187.9490000000005,4187.308,4186.026,4200.255999999999,4173.974,4184.359,4184.744000000001,0,0
567,40,0,0,4187.308,4173.333,4189.231,4185.769,4185.385,4186.667,4186.795,4184.872,4188.333,4198.333,4204.231,4177.308,4187.9490000000005,4188.846,0,0
568,41,0,0,4190.641,4173.077,4188.718,4187.564,4184.103,4185.897,4184.744000000001,4192.0509999999995,4195.0,4199.872,4205.641,4173.462,4187.692,4189.359,0,0
569,42,0,0,4183.205,4171.282,4179.359,4173.846,4180.897,4184.103,4185.385,4201.667,4198.974,4190.255999999999,4198.718,4166.538,4184.487,4180.897,0,0
570,43,0,0,4175.255999999999,4168.077,4168.974,4166.154,4180.897,4183.59,4182.692,4181.923,4189.615,4187.821,4190.897,4165.0,4187.308,4170.641,0,0
571,44,0,0,4170.385,4168.077,4167.308,4169.744000000001,4182.436,4185.769,4181.282,4160.769,4182.0509999999995,4191.923,4189.103,4165.769,4192.821,4167.821,0,0
572,45,0,0,4167.564,4170.255999999999,4170.897,4170.769,4184.615,4186.538,4183.462,4166.667,4186.41,4190.513,4189.359,4166.538,4190.897,4171.923,0,0
573,46,0,0,4170.0,4170.769,4174.744000000001,4170.128,4184.231,4186.538,4183.59,4179.872,4189.103,4192.9490000000005,4193.974,4170.641,4187.564,4181.154,0,0
574,47,0,0,4172.692,4170.0,4175.769,4171.795,4182.0509999999995,4185.641,4182.436,4181.41,4185.769,4196.538,4201.538,4176.923,4188.462,4183.077,0,0
575,48,0,0,4174.615,4172.308,4173.718,4169.231,4182.179,4184.744000000001,4182.179,4173.846,4184.615,4188.462,4198.205,4175.513,4187.308,4175.0,0,0
576,49,0,0,4177.821,4178.205,4175.385,4170.255999999999,4183.974,4183.718,4182.308,4162.692,4181.538,4180.897,4186.667,4169.231,4181.538,4173.59,0,0
577,50,0,0,4189.744000000001,4186.923,4179.872,4180.0,4185.255999999999,4183.462,4185.513,4167.821,4180.641,4183.462,4189.103,4172.0509999999995,4179.231,4189.615,0,0
578,51,0,0,4212.308,4206.923,4186.538,4190.0,4186.923,4183.333,4180.0,4178.846,4184.615,4187.308,4204.359,4181.154,4181.667,4212.0509999999995,0,0
579,52,0,0,4247.564,4242.821,4201.026,4207.0509999999995,4191.923,4183.462,4172.0509999999995,4176.923,4185.641,4192.0509999999995,4220.0,4186.923,4185.255999999999,4239.487,0,0
580,53,0,0,4291.923,4278.462,4217.564,4231.282,4200.769,4185.769,4185.513,4185.513,4187.308,4200.385,4236.538,4191.41,4183.077,4276.41,0,0
581,54,0,0,4331.026,4302.9490000000005,4228.333,4247.308,4208.718,4188.59,4203.59,4211.41,4193.333,4200.385,4249.872,4196.667,4173.59,4309.359,0,0
582,55,0,0,4355.128,4321.795,4231.154,4256.026,4212.692,4188.974,4197.821,4204.231,4188.205,4191.282,4250.385,4194.487,4168.59,4327.0509999999995,0,0
583,56,0,0,4369.744000000001,4332.692,4234.487,4265.641,4212.821,4188.333,4185.128,4170.641,4174.744000000001,4182.436,4245.128,4192.436,4169.359,4337.564,0,0
584,57,0,0,4384.615,4332.9490000000005,4242.179,4270.0,4215.385,4191.154,4183.974,4174.744000000001,4177.308,4186.154,4251.41,4198.718,4170.128,4348.205,0,0
585,58,0,0,4389.615,4333.205,4241.795,4269.103,4216.282,4195.128,4186.795,4188.462,4187.436,4196.282,4263.205,4201.538,4170.513,4350.128,0,0
586,59,0,0,4380.641,4329.872,4234.487,4268.077,4209.487,4193.718,4191.026,4172.821,4184.487,4198.59,4266.282,4196.41,4170.641,4346.923,0,0
587,60,0,0,4366.026,4315.128,4234.872,4261.282,4204.487,4193.462,4192.0509999999995,4172.0509999999995,4182.179,4199.359,4264.103,4193.974,4170.769,4345.513,0,0
588,61,0,0,4349.487,4298.077,4235.0,4252.308,4205.0,4196.538,4187.179,4196.667,4193.846,4203.462,4263.077,4195.0,4177.179,4333.59,0,0
589,62,0,0,4328.205,4282.9490000000005,4222.564,4244.744000000001,4202.308,4193.077,4192.0509999999995,4206.026,4203.718,4203.718,4254.359,4190.255999999999,4181.282,4310.0,0,0
590,63,0,0,4307.179,4266.538,4210.128,4236.795,4197.9490000000005,4184.872,4195.897,4201.667,4199.487,4197.436,4236.667,4184.231,4175.641,4288.462,0,0
591,64,0,2675,4294.744000000001,4253.974,4208.974,4231.282,4198.718,4184.872,4186.026,4202.9490000000005,4188.846,4192.692,4229.487,4184.103,4176.154,4275.0,0,0
592,65,0,3088,4283.462,4245.897,4211.282,4225.0,4200.0,4188.077,4185.0,4201.667,4186.154,4194.487,4233.462,4185.0,4183.205,4267.436,0,0
593,66,0,3242,4270.641,4236.026,4208.333,4219.359,4198.333,4187.692,4201.026,4203.59,4194.872,4197.9490000000005,4230.513,4181.154,4184.872,4258.59,0,0
594,67,0,3055,4259.615,4225.513,4202.308,4213.974,4199.615,4188.205,4199.103,4208.718,4201.538,4199.615,4220.128,4178.333,4185.255999999999,4249.744000000001,0,0
595,68,0,3569,4246.41,4218.846,4200.897,4206.795,4199.872,4188.974,4185.641,4206.41,4200.641,4202.179,4217.308,4177.564,4188.718,4243.974,0,0
596,69,0,3378,4235.385,4210.769,4198.718,4199.487,4193.718,4188.333,4190.513,4197.179,4197.0509999999995,4200.128,4215.769,4177.308,4187.821,4234.872,0,0
597,70,0,3359,4227.9490000000005,4203.333,4190.769,4192.9490000000005,4187.0509999999995,4188.974,4197.436,4207.0509999999995,4200.255999999999,4189.872,4206.923,4176.282,4184.231,4220.769,0,0
598,71,0,3304,4218.59,4197.179,4185.385,4186.026,4186.026,4189.615,4189.103,4213.846,4202.0509999999995,4185.128,4200.769,4175.897,4184.359,4213.462,0,0
599,72,0,3355,4213.462,4188.59,4187.308,4182.564,4186.538,4187.821,4181.282,4172.9490000000005,4188.462,4185.641,4199.487,4174.487,4185.128,4216.154,0,0
600,73,0,3249,4217.692,4188.077,4189.103,4187.692,4185.769,4184.231,4180.897,4141.41,4176.41,4181.795,4197.821,4175.385,4184.872,4217.0509999999995,0,0
601,74,0,3184,4216.538,4198.718,4187.0509999999995,4189.103,4187.564,4182.9490000000005,4182.564,4169.359,4180.897,4181.923,4198.333,4176.923,4183.974,4212.692,0,0
602,75,0,3229,4206.667,4198.59,4188.718,4185.0,4189.231,4185.128,4185.513,4196.923,4186.026,4187.692,4200.255999999999,4175.897,4182.179,4208.333,0,0
603,76,0,3287,4200.385,4186.667,4191.923,4183.462,4188.205,4186.538,4189.487,4186.026,4185.0,4187.692,4199.615,4174.487,4181.154,4204.231,0,0
604,77,0,2086,4203.077,4185.897,4190.513,4185.385,4187.821,4186.026,4189.359,4183.333,4187.436,4187.308,4200.385,4174.872,4185.513,4202.0509999999995,0,0
605,78,0,3184,4200.897,4190.385,4185.641,4185.255999999999,4186.538,4186.154,4188.205,4195.385,4190.513,4190.128,4197.308,4173.205,4189.231,4199.231,0,0
606,79,0,3229,4187.436,4186.41,4179.103,4177.436,4181.282,4182.821,4186.026,4191.154,4186.41,4188.077,4188.59,4166.026,4186.795,4191.795,0,0
607,80,0,3287,4181.538,4181.923,4174.103,4171.282,4181.538,4180.255999999999,4187.179,4189.872,4186.795,4183.462,4188.077,4165.255999999999,4184.744000000001,4186.282,0,0
608,81,0,2086,4182.0509999999995,4177.9490000000005,4172.821,4169.231,4180.255999999999,4181.923,4188.718,4203.077,4192.9490000000005,4184.231,4189.487,4167.564,4185.385,4185.255999999999,0,0
609,82,0,3184,4174.359,4171.538,4173.205,4166.026,4171.154,4180.769,4180.513,4205.255999999999,4191.154,4185.513,4184.744000000001,4165.897,4185.255999999999,4183.077,0,0
610,83,0,3229,4175.255999999999,4171.538,4177.9490000000005,4166.41,4173.077,4182.436,4180.255999999999,4195.641,4189.744000000001,4182.9490000000005,4183.462,4168.974,4185.769,4185.255999999999,0,0
611,84,0,3287,4188.462,4176.667,4187.9490000000005,4173.205,4187.821,4190.641,4197.692,4197.821,4195.0,4183.974,4188.846,4175.255999999999,4188.077,4192.9490000000005,0,0
612,85,0,2086,4184.231,4176.026,4186.795,4175.385,4188.462,4191.923,4201.282,4208.59,4194.744000000001,4188.333,4188.077,4169.359,4186.795,4189.103,0,0
613,86,0,3184,4167.179,4165.255999999999,4171.282,4163.077,4174.872,4185.0,4187.179,4201.923,4185.897,4181.154,4178.077,4160.255999999999,4182.0509999999995,4173.718,0,0
614,87,0,3229,4165.128,4157.692,4162.821,4157.564,4176.538,4184.231,4183.59,4184.103,4181.41,4171.667,4172.821,4165.0,4183.59,4169.744000000001,0,0
615,88,0,3287,4171.923,4162.436,4171.282,4168.077,4184.487,4187.436,4190.513,4187.9490000000005,4187.436,4175.255999999999,4178.333,4172.179,4188.333,4174.744000000001,0,0
616,89,0,2086,4172.9490000000005,4167.9490000000005,4180.513,4169.359,4176.154,4183.462,4188.974,4200.769,4185.0,4175.128,4185.255999999999,4169.487,4181.538,4175.0,0,0
617,90,0,3184,4169.744000000001,4166.154,4179.231,4160.641,4167.821,4177.9490000000005,4180.641,4189.103,4171.154,4165.0,4181.795,4169.103,4169.231,4169.359,0,0
618,91,0,3229,4172.692,4168.077,4178.077,4164.615,4177.0509999999995,4180.641,4181.538,4181.667,4169.615,4167.436,4179.103,4173.077,4171.538,4167.9490000000005,0,0
619,92,0,3287,4178.59,4171.282,4181.154,4174.231,4186.795,4187.692,4193.205,4200.897,4186.41,4181.282,4184.744000000001,4174.231,4180.769,4173.974,0,0
620,93,0,2086,4181.538,4169.615,4181.026,4169.744000000001,4183.333,4188.205,4195.641,4207.564,4190.0,4185.0,4184.744000000001,4174.103,4182.0509999999995,4180.513,0,0
621,94,0,3184,4190.255999999999,4176.154,4183.59,4165.641,4183.077,4184.872,4187.179,4195.128,4183.333,4183.462,4183.974,4178.077,4182.692,4189.872,0,0
622,95,0,3229,4203.205,4187.0509999999995,4192.0509999999995,4177.692,4186.923,4186.667,4187.692,4202.9490000000005,4194.487,4187.308,4194.359,4181.923,4184.872,4202.436,0,0
623,96,0,3287,4204.744000000001,4186.538,4196.795,4187.308,4188.462,4187.436,4191.154,4211.538,4200.641,4190.0,4200.385,4178.462,4185.128,4205.0,0,0
624,97,0,2086,4196.41,4182.0509999999995,4193.846,4179.615,4187.308,4183.718,4185.385,4190.255999999999,4187.692,4185.769,4188.462,4172.564,4183.333,4197.821,0,0
625,98,0,3184,4194.615,4185.769,4190.641,4174.231,4185.385,4181.667,4175.897,4170.897,4180.128,4180.641,4181.282,4169.359,4182.436,4196.923,0,0
626,99,0,3229,4202.308,4194.359,4191.154,4184.744000000001,4190.513,4182.692,4170.513,4169.487,4184.231,4184.487,4193.974,4175.513,4186.154,4201.282,0,0
627,100,0,3287,4206.667,4194.872,4195.513,4191.154,4195.255999999999,4182.308,4174.487,4170.769,4186.026,4189.872,4205.0,4182.564,4188.846,4203.333,0,0
628,101,0,2086,4203.077,4188.846,4200.769,4186.795,4191.795,4181.026,4184.359,4176.667,4184.359,4187.821,4204.487,4183.077,4185.641,4207.179,0,0
629,102,0,3184,4202.9490000000005,4184.872,4202.179,4185.0,4191.795,4182.692,4187.308,4186.795,4184.744000000001,4187.308,4201.795,4179.231,4184.615,4206.154,0,0
630,103,0,3229,4203.974,4185.385,4202.308,4185.641,4198.718,4187.308,4185.897,4184.744000000001,4183.462,4192.564,4201.923,4177.9490000000005,4187.436,4203.077,0,0
631,104,0,3287,4193.846,4184.487,4197.9490000000005,4186.282,4202.692,4189.872,4188.846,4180.769,4184.487,4193.718,4202.436,4178.718,4187.692,4200.641,0,0
632,105,0,2086,4181.795,4179.872,4187.9490000000005,4183.333,4199.487,4185.897,4190.897,4185.897,4187.0509999999995,4189.231,4197.9490000000005,4172.308,4185.385,4192.308,0,0
633,106,0,3184,4181.538,4175.385,4179.872,4174.744000000001,4191.667,4184.359,4183.077,4182.821,4186.026,4187.179,4190.641,4164.231,4184.103,4184.872,0,0
634,107,0,3229,4187.308,4173.974,4179.744000000001,4168.718,4185.769,4183.205,4170.897,4178.974,4186.026,4187.436,4185.641,4165.0,4184.744000000001,4186.154,0,0
635,108,0,3287,4186.795,4176.41,4183.974,4171.41,4185.897,4174.231,4166.538,4176.154,4185.897,4185.513,4187.436,4170.513,4187.179,4188.462,0,0
636,109,0,2086,4187.0509999999995,4178.846,4188.333,4179.359,4186.795,4171.667,4173.077,4173.718,4181.282,4182.9490000000005,4193.205,4173.462,4187.436,4191.026,0,0
637,110,0,3184,4195.897,4183.718,4196.154,4186.41,4192.0509999999995,4184.359,4186.667,4188.205,4186.41,4186.282,4200.0,4179.615,4185.385,4200.385,0,0
638,111,0,3229,4200.769,4188.333,4203.333,4191.282,4203.59,4193.462,4195.641,4206.667,4201.282,4192.308,4203.462,4184.359,4186.154,4206.923,0,0
639,112,0,3287,4191.282,4180.641,4200.0,4185.641,4199.487,4185.0,4184.872,4202.821,4202.179,4190.385,4197.564,4180.0,4186.41,4199.615,0,0
640,113,0,2086,4185.128,4171.154,4189.359,4173.077,4185.128,4176.923,4173.462,4187.308,4191.923,4186.538,4190.641,4174.872,4185.128,4188.974,0,0
641,114,0,3184,4187.564,4169.872,4184.487,4168.846,4182.0509999999995,4183.077,4182.564,4185.769,4189.231,4186.795,4187.436,4172.821,4182.0509999999995,4185.513,0,0
642,115,0,3229,4177.0509999999995,4163.333,4182.308,4167.308,4180.641,4183.59,4186.795,4190.0,4187.564,4179.872,4180.641,4169.231,4172.821,4179.744000000001,0,0
643,116,0,3287,4165.769,4158.59,4178.718,4162.436,4171.795,4174.359,4174.487,4179.487,4179.231,4169.359,4177.0509999999995,4169.231,4164.872,4170.513,0,0
644,117,0,2086,4172.436,4163.846,4180.128,4161.538,4168.205,4171.282,4168.846,4167.692,4172.564,4170.385,4186.667,4172.821,4164.615,4173.205,0,0
645,118,0,3184,4184.487,4169.615,4190.0,4170.769,4175.769,4176.538,4171.154,4165.385,4170.0,4180.385,4199.103,4176.41,4171.282,4188.974,0,0
646,119,0,3229,4190.513,4175.769,4196.667,4181.538,4185.385,4181.41,4171.154,4168.59,4174.615,4184.744000000001,4202.0509999999995,4178.974,4182.436,4198.846,0,0
647,120,0,3287,4187.821,4181.795,4194.872,4183.59,4187.564,4180.769,4175.897,4175.0,4183.205,4182.179,4197.308,4180.897,4183.59,4197.692,0,0
648,121,0,2086,4182.821,4178.974,4193.462,4179.487,4185.255999999999,4177.564,4183.718,4184.231,4186.923,4181.923,4194.359,4179.744000000001,4173.846,4192.9490000000005,0,0
649,122,0,3184,4189.231,4180.897,4197.692,4179.615,4186.795,4179.487,4187.308,4193.462,4186.154,4185.385,4198.077,4180.513,4174.103,4197.308,0,0
650,123,0,3229,4204.872,4195.513,4197.692,4186.026,4188.333,4186.41,4188.846,4200.385,4187.564,4185.128,4201.795,4182.692,4181.282,4211.667,0,0
651,124,0,3287,4217.821,4207.692,4192.0509999999995,4191.026,4186.026,4186.41,4188.974,4202.564,4192.564,4185.769,4205.897,4176.795,4180.769,4225.897,0,0
652,125,0,2086,4240.255999999999,4227.0509999999995,4195.769,4200.385,4189.615,4183.59,4186.795,4198.462,4194.103,4192.9490000000005,4217.564,4175.128,4180.897,4245.641,0,0
653,126,0,3184,4277.821,4259.359,4210.897,4220.255999999999,4202.0509999999995,4193.462,4193.59,4204.487,4196.026,4197.9490000000005,4231.538,4189.359,4183.462,4275.897,0,0
654,127,0,52,4308.205,4280.897,4221.538,4235.385,4211.795,4200.128,4201.923,4211.41,4195.897,4198.59,4243.205,4200.255999999999,4182.0509999999995,4305.255999999999,0,0
655,0,0,2679,4324.615,4284.103,4223.205,4235.769,4207.692,4194.615,4195.0,4195.897,4190.513,4199.231,4247.692,4195.769,4181.667,4321.538,0,0
656,1,0,3085,4337.564,4286.795,4227.0509999999995,4237.436,4201.154,4187.436,4187.0509999999995,4183.846,4189.872,4199.615,4248.846,4196.538,4183.59,4332.179,0,0
657,2,0,3240,4350.128,4296.026,4236.41,4249.103,4208.462,4188.718,4195.385,4200.769,4198.59,4201.41,4258.974,4207.308,4183.718,4344.744000000001,0,0
658,3,0,3051,4357.9490000000005,4299.872,4245.385,4253.718,4216.026,4195.255999999999,4206.026,4217.308,4205.513,4211.154,4270.385,4211.154,4186.923,4349.231,0,0
659,4,0,3569,4358.718,4299.231,4249.359,4249.231,4212.564,4199.103,4202.564,4208.974,4204.103,4219.231,4268.077,4207.9490000000005,4189.744000000001,4345.513,0,0
660,5,0,3378,4349.615,4295.513,4248.205,4249.231,4208.333,4199.103,4200.897,4204.103,4201.795,4212.821,4262.692,4206.923,4186.538,4341.154,0,0
661,6,0,3359,4338.205,4288.974,4241.667,4252.308,4211.282,4198.333,4212.564,4211.538,4201.026,4208.974,4266.026,4202.564,4184.744000000001,4334.103,0,0
662,7,0,3303,4329.231,4280.385,4234.103,4246.026,4212.9490000000005,4201.538,4217.564,4218.846,4202.692,4212.179,4262.692,4197.308,4184.103,4318.846,0,0
663,8,0,3357,4312.821,4269.487,4231.282,4232.821,4210.128,4201.795,4205.128,4225.641,4203.59,4206.923,4252.179,4196.41,4182.564,4301.154,0,0
664,9,0,3249,4293.077,4259.231,4233.974,4229.359,4207.564,4198.077,4195.769,4215.0,4199.231,4201.026,4247.179,4197.0509999999995,4189.872,4287.692,0,0
665,10,0,3184,4281.923,4249.103,4230.641,4230.0,4206.667,4199.231,4203.974,4202.308,4198.974,4202.436,4242.436,4195.513,4194.487,4281.154,0,0
666,11,0,3230,4272.9490000000005,4237.564,4221.41,4221.154,4203.718,4201.282,4206.026,4204.615,4202.0509999999995,4202.0509999999995,4234.872,4195.769,4190.255999999999,4278.333,0,0
667,12,0,3287,4256.667,4229.231,4215.385,4211.538,4199.231,4194.487,4191.923,4198.205,4197.9490000000005,4199.103,4229.231,4193.077,4190.769,4264.487,0,0
668,13,0,2088,4240.0,4222.308,4207.0509999999995,4207.692,4198.462,4184.359,4181.667,4184.872,4189.487,4196.667,4222.821,4184.359,4193.333,4242.308,0,0
669,14,0,3184,4225.0,4207.564,4198.718,4199.487,4196.41,4186.923,4184.487,4187.179,4184.744000000001,4187.9490000000005,4209.103,4183.077,4185.255999999999,4224.487,0,0
670,15,0,3230,4216.154,4197.692,4199.103,4198.205,4197.0509999999995,4197.436,4193.333,4193.462,4183.333,4183.718,4203.974,4188.462,4184.231,4221.282,0,0
671,16,0,0,4215.385,4202.0509999999995,4202.564,4202.9490000000005,4197.821,4198.205,4195.255999999999,4197.564,4188.718,4195.255999999999,4215.0,4192.436,4196.026,4225.769,0,0
672,17,0,0,4210.128,4198.59,4199.872,4192.436,4190.897,4187.692,4188.718,4202.308,4191.795,4199.231,4216.282,4191.282,4193.846,4221.282,0,0
673,18,0,0,4201.026,4188.333,4197.821,4184.744000000001,4189.103,4183.462,4182.564,4193.974,4185.385,4187.436,4204.359,4188.974,4185.769,4214.359,0,0
674,19,0,0,4200.513,4185.897,4201.154,4191.538,4196.923,4192.179,4190.897,4192.692,4187.436,4186.538,4205.0,4188.59,4193.077,4212.179,0,0
675,20,0,0,4200.641,4188.718,4206.154,4194.487,4202.821,4202.308,4215.897,4225.385,4203.462,4201.923,4214.744000000001,4192.179,4200.897,4210.0,0,0
676,21,0,0,4190.897,4184.615,4207.821,4187.564,4202.821,4202.564,4220.128,4240.0,4208.205,4203.974,4208.077,4192.564,4196.41,4200.128,0,0
677,22,0,0,4180.641,4173.718,4204.359,4184.615,4197.0509999999995,4193.333,4192.821,4202.692,4195.897,4189.615,4195.897,4186.795,4193.462,4188.718,0,0
678,23,0,0,4174.359,4168.077,4196.923,4184.231,4187.9490000000005,4185.641,4176.282,4168.718,4183.205,4184.359,4196.154,4181.41,4195.128,4182.9490000000005,0,0
679,24,0,0,4167.564,4168.077,4192.436,4176.538,4185.255999999999,4186.282,4182.308,4177.821,4183.333,4188.718,4196.923,4180.513,4194.359,4180.128,0,0
680,25,0,0,4165.897,4164.872,4194.103,4172.564,4185.513,4187.692,4182.9490000000005,4196.667,4194.359,4194.744000000001,4197.564,4186.795,4197.564,4182.9490000000005,0,0
681,26,0,0,4169.359,4162.692,4196.538,4173.974,4181.667,4182.821,4181.026,4201.667,4202.0509999999995,4198.974,4200.255999999999,4189.872,4202.179,4183.974,0,0
682,27,0,0,4166.923,4163.333,4192.692,4173.077,4182.179,4179.615,4189.359,4208.462,4201.923,4198.846,4195.128,4182.564,4202.821,4177.9490000000005,0,0
683,28,0,0,4159.487,4158.333,4185.769,4170.255999999999,4182.308,4184.231,4191.41,4209.872,4196.282,4190.513,4185.641,4176.538,4199.359,4169.872,0,0
684,29,0,0,4155.641,4151.026,4183.077,4168.205,4176.923,4184.744000000001,4188.077,4195.641,4186.667,4175.255999999999,4176.154,4175.513,4189.231,4162.308,0,0
685,30,0,0,4155.255999999999,4151.154,4183.205,4166.41,4177.821,4183.462,4191.538,4189.615,4180.128,4172.308,4169.359,4173.974,4182.436,4159.359,0,0
686,31,0,0,4156.667,4153.59,4186.282,4167.0509999999995,4185.513,4191.923,4200.385,4204.231,4187.692,4183.462,4175.128,4175.641,4190.897,4162.821,0,0
687,32,0,0,4157.821,4155.641,4188.205,4170.128,4188.462,4200.641,4212.692,4219.359,4199.103,4188.077,4186.667,4179.359,4196.282,4167.692,0,0
688,33,0,0,4154.615,4156.538,4186.667,4168.974,4189.231,4199.103,4215.255999999999,4217.9490000000005,4196.026,4182.564,4182.821,4180.128,4188.077,4162.308,0,0
689,34,0,0,4151.538,4153.205,4185.255999999999,4167.9490000000005,4190.385,4196.923,4206.154,4208.205,4187.9490000000005,4181.667,4172.179,4178.846,4183.59,4156.41,0,0
690,35,0,0,4162.0509999999995,4157.692,4186.282,4170.513,4188.59,4200.897,4203.59,4205.385,4190.897,4184.872,4174.487,4177.0509999999995,4188.333,4163.333,0,0
691,36,0,0,4170.0,4170.128,4188.077,4172.821,4188.974,4201.538,4209.103,4220.897,4199.487,4186.41,4178.462,4177.0509999999995,4188.333,4170.513,0,0
692,37,0,0,4158.718,4167.821,4186.026,4172.436,4189.487,4192.308,4196.026,4216.282,4193.59,4182.564,4172.0509999999995,4179.487,4182.0509999999995,4165.513,0,0
693,38,0,0,4147.564,4155.513,4179.744000000001,4169.103,4184.615,4184.103,4177.9490000000005,4177.692,4179.359,4172.564,4166.154,4174.744000000001,4181.538,4155.513,0,0
694,39,0,0,4150.769,4156.282,4176.41,4168.077,4183.59,4190.255999999999,4189.872,4164.744000000001,4177.436,4167.179,4167.0509999999995,4167.821,4184.744000000001,4152.308,0,0
695,40,0,0,4154.487,4161.154,4179.487,4170.513,4187.308,4198.077,4200.897,4187.0509999999995,4181.41,4170.255999999999,4167.179,4170.255999999999,4184.359,4154.487,0,0
696,41,0,0,4155.0,4157.179,4183.205,4169.744000000001,4186.667,4190.128,4186.538,4190.255999999999,4181.154,4171.41,4167.9490000000005,4176.026,4183.846,4156.282,0,0
697,42,0,0,4155.641,4153.974,4183.462,4168.59,4183.205,4181.154,4175.769,4173.077,4177.564,4168.333,4168.077,4174.872,4184.615,4154.744000000001,0,0
698,43,0,0,4152.564,4155.769,4184.872,4171.026,4183.205,4185.641,4185.255999999999,4182.436,4182.179,4174.231,4168.333,4174.872,4184.744000000001,4152.9490000000005,0,0
699,44,0,0,4152.0509999999995,4157.0509999999995,4184.615,4171.538,4184.872,4189.487,4192.0509999999995,4200.897,4187.436,4183.718,4175.128,4179.103,4186.923,4160.769,0,0
700,45,0,0,4156.538,4157.821,4186.923,4171.538,4187.436,4187.692,4191.154,4192.179,4186.538,4184.615,4182.692,4181.41,4191.41,4171.026,0,0
701,46,0,0,4158.077,4155.641,4192.436,4174.615,4186.795,4187.0509999999995,4191.026,4179.231,4183.718,4184.231,4178.718,4182.308,4192.564,4168.59,0,0
702,47,0,0,4153.718,4152.9490000000005,4190.769,4175.128,4182.564,4182.0509999999995,4186.538,4187.564,4183.974,4187.9490000000005,4173.974,4181.282,4188.718,4158.718,0,0
703,48,0,0,4152.564,4155.255999999999,4185.385,4173.846,4181.795,4177.308,4181.795,4197.436,4189.103,4189.615,4182.179,4180.897,4185.769,4156.282,0,0
704,49,0,0,4153.974,4157.308,4180.385,4171.154,4184.359,4180.255999999999,4182.9490000000005,4186.923,4188.718,4187.179,4186.282,4176.923,4186.41,4158.59,0,0
705,50,0,0,4152.308,4157.436,4177.308,4168.59,4184.231,4185.513,4190.0,4183.205,4186.154,4188.462,4183.077,4176.923,4192.692,4162.692,0,0
706,51,0,0,4157.9490000000005,4162.436,4183.333,4172.179,4182.0509999999995,4183.333,4184.615,4194.103,4193.077,4195.385,4191.667,4184.359,4199.103,4173.59,0,0
707,52,0,0,4169.359,4168.974,4194.231,4176.41,4182.0509999999995,4178.846,4174.487,4207.692,4204.103,4203.846,4203.333,4191.538,4199.615,4186.282,0,0
708,53,0,0,4170.513,4166.026,4192.436,4172.821,4181.795,4179.487,4179.615,4204.487,4201.026,4199.615,4201.026,4187.564,4196.538,4187.9490000000005,0,0
709,54,0,0,4166.795,4162.308,4190.513,4172.9490000000005,4182.436,4183.205,4188.333,4188.718,4188.205,4190.0,4197.308,4180.641,4192.179,4183.462,0,0
710,55,0,0,4171.026,4166.667,4198.205,4183.718,4187.692,4186.026,4187.436,4187.564,4185.897,4189.744000000001,4197.179,4183.462,4187.564,4185.513,0,0
711,56,0,0,4173.333,4167.564,4195.641,4187.179,4188.846,4183.333,4180.513,4191.795,4188.077,4191.538,4190.897,4186.41,4185.641,4189.103,0,0
712,57,0,0,4170.128,4166.41,4187.436,4180.0,4187.179,4181.795,4180.513,4194.231,4189.615,4191.282,4191.282,4181.41,4187.179,4185.385,0,0
713,58,0,0,4164.744000000001,4167.436,4185.513,4175.128,4187.821,4182.436,4185.769,4191.026,4183.333,4188.974,4189.359,4174.103,4186.282,4173.59,0,0
714,59,0,0,4156.41,4162.692,4181.923,4172.179,4182.308,4178.718,4184.359,4184.872,4175.128,4185.769,4172.179,4173.59,4184.359,4162.308,0,0
715,60,0,0,4152.821,4154.872,4176.923,4168.974,4170.128,4170.128,4174.231,4177.308,4174.231,4179.872,4170.128,4174.615,4185.641,4158.718,0,0
716,61,0,0,4153.462,4151.923,4176.41,4165.897,4164.359,4169.615,4170.128,4168.333,4171.795,4171.41,4180.769,4171.026,4180.513,4154.872,0,0
717,62,0,0,4152.9490000000005,4152.692,4180.897,4169.872,4172.564,4181.026,4186.667,4174.231,4171.795,4172.0509999999995,4176.795,4171.538,4173.205,4151.41,0,0
718,63,0,0,4154.359,4159.872,4185.255999999999,4180.513,4184.872,4189.103,4201.923,4192.692,4182.564,4182.179,4171.795,4174.872,4179.744000000001,4156.41,0,0
719,64,0,2683,4156.795,4166.923,4181.282,4181.667,4188.205,4187.564,4194.231,4199.359,4190.385,4186.923,4173.846,4168.462,4188.59,4159.359,0,0
720,65,0,3087,4155.0,4165.769,4173.718,4172.179,4185.128,4183.718,4179.487,4182.9490000000005,4180.769,4181.154,4172.9490000000005,4159.872,4186.026,4155.0,0,0
721,66,0,3243,4155.769,4166.923,4175.897,4174.231,4186.41,4185.769,4181.667,4181.41,4177.821,4181.923,4178.462,4163.205,4189.103,4157.308,0,0
722,67,0,3051,4163.077,4172.564,4181.538,4186.923,4188.974,4188.718,4187.0509999999995,4191.282,4186.667,4189.359,4187.9490000000005,4173.462,4201.923,4171.026,0,0
723,68,0,3569,4170.641,4172.821,4182.9490000000005,4185.128,4186.923,4181.923,4180.641,4191.667,4188.205,4191.026,4190.0,4175.769,4203.974,4181.41,0,0
724,69,0,3378,4171.41,4171.538,4183.462,4174.744000000001,4181.026,4176.026,4180.641,4199.487,4186.923,4187.0509999999995,4187.9490000000005,4169.872,4194.615,4178.846,0,0
725,70,0,3367,4164.487,4171.795,4176.282,4171.41,4173.974,4176.026,4181.282,4196.795,4184.744000000001,4183.077,4178.846,4163.974,4186.923,4169.872,0,0
726,71,0,3305,4162.308,4169.487,4172.0509999999995,4171.795,4175.128,4177.821,4178.205,4181.41,4181.41,4181.667,4172.0509999999995,4163.333,4185.897,4166.538,0,0
727,72,0,3357,4164.744000000001,4167.821,4177.308,4172.692,4183.846,4182.9490000000005,4185.255999999999,4180.897,4182.308,4182.179,4176.667,4166.154,4192.0509999999995,4169.231,0,0
728,73,0,3249,4161.154,4168.462,4179.103,4173.333,4185.385,4187.821,4187.9490000000005,4192.692,4188.59,4183.077,4175.769,4165.513,4195.255999999999,4169.103,0,0
729,74,0,3184,4155.385,4168.974,4175.385,4173.59,4182.179,4186.026,4182.436,4191.026,4189.744000000001,4185.0,4168.59,4163.462,4190.128,4162.436,0,0
730,75,0,3235,4157.692,4169.487,4173.462,4174.103,4183.974,4184.744000000001,4184.872,4178.333,4183.846,4185.0,4168.974,4166.667,4187.564,4156.154,0,0
731,76,0,3287,4164.359,4168.974,4176.282,4173.718,4186.154,4185.641,4185.255999999999,4183.59,4184.872,4182.821,4176.282,4171.795,4190.641,4158.718,0,0
732,77,0,2086,4167.9490000000005,4170.128,4182.821,4175.0,4185.255999999999,4185.513,4182.692,4195.255999999999,4193.718,4187.564,4180.641,4173.846,4195.255999999999,4165.769,0,0
733,78,0,3184,4171.026,4173.846,4191.538,4181.795,4186.41,4190.255999999999,4202.0509999999995,4212.692,4203.333,4199.359,4186.923,4177.692,4197.9490000000005,4173.974,0,0
734,79,0,3235,4171.538,4173.974,4190.513,4185.641,4188.077,4191.538,4207.564,4220.255999999999,4202.179,4201.026,4193.077,4178.846,4198.462,4183.462,0,0
735,80,0,3287,4173.077,4170.641,4185.513,4179.487,4186.795,4185.385,4179.615,4194.615,4190.385,4195.897,4189.103,4178.205,4198.59,4185.513,0,0
736,81,0,2086,4176.026,4170.255999999999,4187.308,4177.692,4185.128,4184.487,4173.846,4177.179,4185.513,4200.513,4189.231,4180.641,4200.641,4185.897,0,0
737,82,0,3184,4173.205,4171.923,4190.0,4182.821,4185.255999999999,4185.385,4190.385,4193.718,4189.744000000001,4201.923,4198.462,4183.462,4200.385,4191.41,0,0
738,83,0,3235,4170.128,4170.897,4188.59,4183.462,4184.615,4183.205,4185.641,4203.974,4192.179,4197.436,4202.9490000000005,4184.487,4196.667,4191.282,0,0
739,84,0,3287,4177.308,4169.744000000001,4192.308,4182.9490000000005,4186.667,4184.231,4182.9490000000005,4199.487,4196.282,4206.41,4207.9490000000005,4191.41,4199.103,4192.308,0,0
740,85,0,2086,4188.205,4174.231,4204.615,4187.0509999999995,4190.641,4186.026,4199.231,4222.821,4206.795,4214.487,4217.0509999999995,4195.897,4203.333,4200.769,0,0
741,86,0,3184,4186.667,4177.436,4207.0509999999995,4187.179,4188.846,4184.487,4195.513,4231.282,4202.564,4207.0509999999995,4207.436,4188.718,4201.923,4194.487,0,0
742,87,0,3235,4177.692,4174.103,4198.205,4184.359,4185.385,4184.872,4179.231,4190.385,4184.359,4196.026,4188.462,4180.128,4195.769,4180.513,0,0
743,88,0,3287,4173.333,4169.872,4195.255999999999,4186.026,4186.538,4185.897,4184.231,4173.205,4179.615,4189.487,4186.154,4177.0509999999995,4189.231,4182.308,0,0
744,89,0,2086,4171.923,4169.359,4199.487,4186.667,4186.795,4185.0,4191.282,4195.897,4184.872,4184.103,4188.333,4177.179,4184.359,4183.59,0,0
745,90,0,3184,4177.564,4175.0,4200.897,4188.846,4185.385,4184.615,4186.41,4213.077,4187.9490000000005,4185.897,4192.692,4183.59,4184.872,4180.769,0,0
746,91,0,3235,4190.641,4183.846,4200.769,4198.59,4186.282,4185.385,4185.385,4205.641,4188.59,4192.0509999999995,4202.9490000000005,4187.9490000000005,4193.59,4186.667,0,0
747,92,0,3287,4193.846,4187.692,4201.538,4203.59,4186.154,4182.821,4186.795,4191.538,4187.179,4191.538,4206.923,4185.0,4198.718,4193.718,0,0
748,93,0,2086,4187.308,4183.59,4202.308,4199.103,4182.692,4174.487,4182.821,4185.128,4183.974,4189.359,4206.795,4186.667,4192.564,4196.282,0,0
749,94,0,3184,4185.641,4180.255999999999,4201.282,4196.154,4181.41,4168.59,4180.255999999999,4185.641,4183.718,4185.769,4205.897,4189.872,4185.255999999999,4195.385,0,0
750,95,0,3235,4191.154,4183.846,4201.41,4200.128,4183.462,4173.974,4184.487,4196.026,4185.385,4185.385,4202.179,4189.359,4183.59,4195.513,0,0
751,96,0,3287,4192.692,4181.795,4201.923,4202.179,4183.974,4183.077,4190.0,4208.077,4187.692,4191.667,4201.795,4188.205,4186.154,4201.026,0,0
752,97,0,2086,4187.821,4172.308,4200.897,4192.821,4182.308,4183.974,4185.641,4203.333,4186.026,4190.769,4205.513,4187.564,4190.641,4201.026,0,0
753,98,0,3184,4185.897,4168.718,4200.897,4185.385,4181.41,4180.769,4182.821,4195.513,4182.692,4187.692,4204.744000000001,4187.692,4195.897,4195.769,0,0
754,99,0,3235,4189.231,4173.59,4205.897,4192.564,4182.564,4182.564,4192.308,4208.718,4192.0509999999995,4194.872,4203.205,4190.897,4197.821,4199.872,0,0
755,100,0,3287,4188.205,4174.103,4203.462,4195.385,4185.513,4185.641,4195.769,4214.744000000001,4201.154,4203.59,4204.103,4187.179,4199.872,4199.231,0,0
756,101,0,2086,4182.308,4170.385,4190.897,4186.667,4183.333,4184.744000000001,4188.205,4199.872,4191.026,4197.692,4201.41,4179.359,4198.974,4186.538,0,0
757,102,0,3184,4180.255999999999,4168.205,4185.128,4182.9490000000005,4177.564,4183.718,4186.923,4200.641,4185.0,4191.026,4198.205,4181.154,4192.179,4183.077,0,0
758,103,0,3235,4180.385,4164.615,4188.462,4182.308,4174.872,4182.179,4183.205,4204.615,4190.255999999999,4192.9490000000005,4197.821,4183.333,4186.154,4187.179,0,0
759,104,0,3287,4179.487,4166.41,4191.154,4182.821,4179.872,4182.9490000000005,4180.641,4199.103,4193.462,4198.59,4200.641,4182.308,4186.026,4187.179,0,0
760,105,0,2086,4178.59,4168.205,4191.538,4184.615,4183.462,4184.231,4189.872,4198.462,4193.59,4199.103,4200.641,4182.179,4188.59,4181.154,0,0
761,106,0,3184,4169.744000000001,4159.872,4182.9490000000005,4177.564,4175.513,4178.205,4181.923,4183.718,4188.974,4189.615,4190.0,4177.821,4188.974,4170.769,0,0
762,107,0,3235,4160.641,4153.077,4174.872,4167.179,4168.205,4169.359,4165.385,4163.333,4180.255999999999,4182.564,4180.128,4173.974,4183.205,4163.718,0,0
763,108,0,3287,4159.872,4153.205,4176.154,4165.769,4169.103,4167.308,4172.308,4170.0,4178.718,4184.872,4183.462,4176.282,4182.0509999999995,4167.9490000000005,0,0
764,109,0,2086,4164.103,4154.359,4181.026,4168.974,4170.769,4174.103,4183.974,4187.564,4184.487,4188.718,4187.9490000000005,4179.231,4191.667,4171.795,0,0
765,110,0,3184,4167.9490000000005,4156.538,4184.744000000001,4171.026,4173.077,4182.436,4189.744000000001,4197.179,4188.974,4188.077,4184.744000000001,4180.255999999999,4195.255999999999,4170.769,0,0
766,111,0,3235,4170.385,4160.769,4188.205,4173.974,4182.436,4186.538,4202.179,4198.462,4191.795,4185.897,4183.077,4179.359,4192.9490000000005,4172.692,0,0
767,112,0,3287,4171.154,4159.231,4187.564,4181.026,4187.436,4185.513,4201.923,4205.255999999999,4197.564,4186.923,4182.564,4178.077,4194.487,4170.128,0,0
768,113,0,2086,4165.897,4159.615,4186.282,4183.462,4183.462,4184.359,4189.103,4224.231,4203.205,4189.872,4178.333,4176.41,4192.436,4160.255999999999,0,0
