,COUNTER, INTERPOLATED, RAW_CQ, AF3, F7, F3, FC5, T7, P7, O1, O2, P8, T8, FC6, F4, F8, AF4, MARKER_HARDWARE, MARKER
0,52,0,0,4214.487,4213.974,4195.385,4216.154,4242.308,4228.077,4217.308,4203.333,4217.436,4228.974,4227.436,4193.846,4229.231,4222.0509999999995,0,0
1,53,0,0,4216.154,4218.462,4200.385,4223.205,4244.872,4229.359,4222.9490000000005,4205.513,4221.282,4231.026,4229.487,4196.154,4230.897,4229.744000000001,0,0
2,54,0,0,4218.846,4223.205,4204.359,4230.255999999999,4249.231,4231.026,4228.077,4206.026,4218.974,4230.255999999999,4234.103,4200.769,4232.436,4229.872,0,0
3,55,0,0,4224.872,4230.128,4206.923,4232.0509999999995,4249.359,4232.564,4230.513,4212.436,4219.744000000001,4230.385,4234.872,4203.333,4232.9490000000005,4233.974,0,0
4,56,0,0,4221.282,4231.282,4204.359,4224.872,4246.41,4231.282,4229.231,4214.487,4223.462,4235.0,4232.179,4196.538,4234.231,4231.41,0,0
5,57,0,0,4214.487,4227.179,4203.59,4222.821,4245.128,4229.103,4229.872,4216.154,4226.538,4235.0,4230.769,4193.205,4233.718,4224.359,0,0
6,58,0,0,4224.487,4230.0,4207.179,4230.128,4246.667,4230.897,4233.974,4227.436,4231.667,4232.9490000000005,4232.436,4198.974,4233.333,4229.103,0,0
7,59,0,0,4234.872,4234.231,4210.0,4232.179,4247.564,4232.821,4234.231,4231.795,4234.872,4241.41,4232.564,4205.0,4238.205,4234.487,0,0
8,60,0,0,4231.282,4232.436,4210.128,4230.255999999999,4247.179,4228.462,4229.744000000001,4223.333,4233.077,4249.487,4233.333,4207.0509999999995,4241.282,4233.462,0,0
9,61,0,0,4231.538,4230.0,4211.026,4231.538,4247.692,4225.769,4226.41,4225.513,4232.564,4241.667,4234.103,4206.795,4236.154,4235.0,0,0
10,62,0,0,4230.0,4229.231,4210.0,4230.385,4246.538,4228.462,4228.846,4231.795,4230.641,4229.872,4228.718,4201.41,4230.128,4227.564,0,0
11,63,0,0,4219.359,4227.308,4206.026,4230.0,4245.769,4231.795,4237.436,4224.103,4224.615,4230.255999999999,4226.282,4197.308,4232.308,4217.0509999999995,0,0
12,64,0,2181,4217.692,4222.308,4202.9490000000005,4228.205,4246.538,4233.205,4237.564,4212.179,4221.923,4235.513,4230.385,4197.692,4236.923,4219.487,0,0
13,65,0,2880,4219.359,4214.744000000001,4203.205,4217.0509999999995,4242.308,4231.41,4226.667,4207.179,4219.359,4231.923,4228.205,4197.0509999999995,4233.846,4221.795,0,0
14,66,0,3217,4218.077,4217.436,4207.9490000000005,4214.615,4242.179,4232.692,4237.9490000000005,4210.255999999999,4219.744000000001,4230.769,4229.872,4199.231,4231.41,4223.846,0,0
15,67,0,2952,4220.0,4225.513,4208.718,4224.487,4250.385,4235.255999999999,4250.641,4216.41,4225.255999999999,4236.282,4240.128,4203.974,4235.897,4231.667,0,0
16,68,0,3591,4218.333,4220.255999999999,4204.359,4224.744000000001,4251.282,4231.154,4230.641,4214.359,4223.846,4235.897,4239.103,4204.872,4235.641,4231.795,0,0
17,69,0,2991,4217.9490000000005,4217.9490000000005,4204.744000000001,4221.923,4247.0509999999995,4230.128,4217.564,4213.333,4222.9490000000005,4238.974,4234.103,4205.0,4233.205,4231.026,0,0
18,70,0,3259,4219.487,4221.923,4207.436,4222.0509999999995,4242.564,4230.897,4225.385,4220.128,4228.718,4244.744000000001,4238.974,4205.128,4238.59,4233.59,0,0
19,71,0,3227,4210.513,4212.308,4198.974,4213.077,4232.9490000000005,4223.846,4220.897,4217.564,4225.128,4234.872,4232.9490000000005,4197.436,4235.385,4224.744000000001,0,0
20,72,0,2890,4196.923,4201.41,4190.0,4203.59,4226.667,4220.385,4214.744000000001,4208.205,4211.923,4213.718,4217.564,4189.231,4219.487,4207.9490000000005,0,0
21,73,0,3559,4189.744000000001,4201.667,4192.308,4204.359,4226.026,4223.974,4218.846,4204.744000000001,4204.359,4201.923,4212.0509999999995,4188.462,4211.923,4203.205,0,0
22,74,0,2913,4191.282,4205.0,4198.205,4209.615,4221.154,4220.769,4217.308,4203.205,4203.077,4204.487,4213.718,4191.41,4215.641,4209.487,0,0
23,75,0,3298,4199.872,4208.077,4202.436,4214.103,4217.436,4216.667,4217.564,4208.205,4209.615,4213.846,4217.179,4194.231,4219.103,4218.077,0,0
24,76,0,3206,4203.333,4208.718,4203.718,4215.769,4218.077,4218.59,4227.564,4214.615,4214.744000000001,4220.255999999999,4221.026,4194.615,4217.692,4219.231,0,0
25,77,0,2061,4198.205,4202.564,4201.026,4213.846,4216.282,4218.718,4234.359,4213.333,4207.821,4216.538,4220.128,4192.564,4213.846,4213.974,0,0
26,78,0,2913,4199.103,4200.769,4201.923,4213.846,4215.0,4216.795,4228.205,4212.692,4205.385,4212.436,4218.846,4194.744000000001,4214.103,4214.487,0,0
27,79,0,3298,4203.974,4201.923,4202.308,4214.487,4215.769,4216.41,4216.026,4212.9490000000005,4209.231,4212.692,4217.308,4196.154,4216.282,4218.333,0,0
28,80,0,3206,4203.974,4202.308,4200.255999999999,4212.9490000000005,4216.282,4216.154,4217.308,4209.487,4209.231,4215.0,4219.487,4194.872,4218.205,4218.846,0,0
29,81,0,2061,4203.205,4205.769,4204.359,4212.179,4217.821,4218.333,4224.231,4210.769,4210.897,4216.538,4225.0,4195.897,4218.59,4216.923,0,0
30,82,0,2913,4202.564,4205.128,4206.667,4212.179,4217.0509999999995,4218.205,4216.41,4217.308,4214.359,4215.255999999999,4221.923,4195.897,4217.821,4214.872,0,0
31,83,0,3298,4199.872,4202.0509999999995,4202.692,4213.59,4213.718,4215.255999999999,4212.0509999999995,4217.179,4213.205,4215.385,4213.59,4193.59,4217.436,4212.692,0,0
32,84,0,3206,4191.795,4201.41,4196.667,4208.59,4211.667,4214.103,4218.462,4207.0509999999995,4205.513,4208.718,4213.462,4189.103,4213.333,4205.0,0,0
33,85,0,2061,4184.359,4199.103,4193.846,4200.641,4212.179,4215.641,4218.718,4202.821,4201.154,4200.0,4215.385,4187.692,4211.795,4198.59,0,0
34,86,0,2913,4186.026,4199.103,4194.231,4200.897,4214.103,4216.923,4217.308,4213.718,4208.846,4206.282,4215.897,4190.641,4213.462,4201.41,0,0
35,87,0,3298,4189.744000000001,4201.538,4194.231,4203.718,4213.205,4216.154,4217.692,4221.538,4213.077,4211.923,4218.333,4191.923,4208.333,4204.231,0,0
36,88,0,3206,4186.667,4196.41,4191.026,4198.077,4210.0,4216.026,4216.795,4211.795,4204.103,4202.308,4216.41,4187.692,4204.103,4198.718,0,0
37,89,0,2061,4185.0,4193.462,4190.255999999999,4193.462,4207.308,4213.333,4210.513,4202.436,4201.41,4199.744000000001,4214.487,4189.103,4213.974,4197.179,0,0
38,90,0,2913,4189.103,4195.128,4191.538,4197.308,4204.359,4203.846,4201.667,4203.205,4207.0509999999995,4209.872,4215.513,4193.718,4218.462,4202.692,0,0
39,91,0,3298,4188.333,4190.255999999999,4190.385,4201.41,4202.821,4199.487,4201.154,4199.487,4202.9490000000005,4204.359,4208.718,4190.769,4206.026,4201.026,0,0
40,92,0,3206,4183.462,4185.385,4190.128,4197.308,4202.692,4202.692,4203.462,4193.462,4195.128,4193.205,4200.641,4184.359,4198.205,4191.667,0,0
41,93,0,2061,4184.359,4185.255999999999,4190.0,4188.333,4200.0,4202.179,4198.718,4196.795,4197.9490000000005,4193.974,4200.513,4182.0509999999995,4199.487,4187.0509999999995,0,0
42,94,0,2913,4184.615,4185.0,4190.255999999999,4186.667,4200.769,4200.513,4201.154,4204.872,4203.205,4193.974,4204.359,4184.744000000001,4200.128,4188.59,0,0
43,95,0,3298,4175.769,4185.0,4188.974,4188.077,4203.59,4201.923,4203.974,4201.923,4197.9490000000005,4183.846,4200.385,4184.487,4200.897,4181.923,0,0
44,96,0,3206,4167.179,4179.359,4182.821,4182.821,4196.538,4198.462,4190.513,4192.564,4188.59,4171.923,4187.308,4177.692,4195.0,4170.128,0,0
45,97,0,2061,4166.667,4171.795,4176.923,4177.692,4189.359,4194.872,4180.128,4185.385,4184.103,4166.795,4180.0,4173.462,4187.821,4166.282,0,0
46,98,0,2913,4170.255999999999,4174.615,4178.462,4181.41,4195.513,4197.9490000000005,4186.154,4181.154,4182.564,4164.231,4182.564,4176.41,4188.462,4169.487,0,0
47,99,0,3298,4168.59,4175.897,4182.564,4187.179,4201.538,4201.538,4195.641,4190.641,4185.641,4162.308,4183.846,4178.077,4188.205,4168.077,0,0
48,100,0,3206,4165.769,4173.077,4186.41,4186.41,4201.154,4203.718,4201.795,4200.513,4190.769,4164.487,4180.641,4177.0509999999995,4190.0,4165.255999999999,0,0
49,101,0,2061,4174.615,4182.9490000000005,4188.974,4185.385,4206.538,4207.821,4204.231,4191.795,4192.692,4175.128,4184.872,4179.487,4200.641,4172.9490000000005,0,0
50,102,0,2913,4187.179,4192.821,4190.513,4188.333,4212.179,4207.692,4203.333,4181.41,4189.359,4183.077,4193.974,4183.077,4204.744000000001,4185.128,0,0
51,103,0,3298,4190.897,4188.974,4191.282,4188.718,4211.41,4204.103,4201.538,4182.692,4186.538,4181.154,4200.0,4186.154,4199.231,4192.564,0,0
52,104,0,3206,4193.333,4184.103,4191.795,4190.128,4211.667,4205.897,4197.564,4186.667,4191.282,4182.308,4206.154,4189.487,4199.359,4197.9490000000005,0,0
53,105,0,2061,4199.615,4186.923,4192.564,4197.564,4213.846,4213.205,4204.744000000001,4191.154,4199.615,4189.744000000001,4211.795,4191.026,4205.897,4200.641,0,0
54,106,0,2913,4201.538,4193.846,4194.487,4203.205,4215.255999999999,4216.667,4219.103,4200.385,4206.538,4196.41,4213.59,4191.923,4211.41,4201.282,0,0
55,107,0,3298,4202.564,4200.385,4196.41,4202.308,4216.41,4214.231,4215.513,4207.564,4211.154,4202.179,4215.641,4190.513,4217.308,4207.564,0,0
56,108,0,3206,4210.641,4199.872,4201.282,4207.692,4221.795,4219.103,4213.59,4213.59,4216.026,4212.436,4222.9490000000005,4192.692,4221.667,4218.462,0,0
57,109,0,2061,4215.897,4200.769,4201.538,4216.026,4228.077,4229.231,4227.179,4222.564,4215.897,4217.308,4230.769,4199.103,4226.667,4220.641,0,0
58,110,0,2913,4215.513,4209.103,4200.128,4217.436,4234.487,4233.718,4232.0509999999995,4230.255999999999,4215.255999999999,4215.897,4232.179,4198.59,4229.744000000001,4218.205,0,0
59,111,0,3298,4220.769,4215.897,4205.513,4222.564,4242.821,4237.308,4230.513,4231.795,4225.0,4225.769,4234.744000000001,4196.923,4234.359,4223.974,0,0
60,112,0,3206,4230.0,4217.179,4209.615,4229.744000000001,4248.974,4241.667,4242.692,4235.769,4233.974,4240.128,4242.0509999999995,4204.103,4241.923,4235.0,0,0
61,113,0,2061,4231.923,4220.385,4208.718,4230.0,4250.385,4244.359,4254.615,4244.615,4234.615,4243.077,4247.564,4210.641,4244.615,4239.615,0,0
62,114,0,2913,4233.974,4227.436,4208.462,4230.385,4249.744000000001,4245.897,4246.923,4240.385,4231.538,4242.0509999999995,4245.385,4207.0509999999995,4244.487,4241.026,0,0
63,115,0,3298,4242.564,4230.897,4208.974,4232.9490000000005,4252.9490000000005,4244.744000000001,4235.769,4225.255999999999,4229.359,4242.0509999999995,4241.41,4203.846,4247.308,4241.923,0,0
64,116,0,3206,4246.154,4230.897,4207.308,4233.59,4257.692,4242.692,4243.462,4228.205,4231.282,4244.231,4242.0509999999995,4206.026,4248.974,4244.615,0,0
65,117,0,2061,4247.436,4238.462,4212.436,4238.846,4265.0,4252.179,4262.9490000000005,4245.385,4238.974,4248.718,4248.974,4208.846,4247.564,4252.308,0,0
66,118,0,2913,4257.564,4246.154,4220.641,4246.538,4273.077,4262.9490000000005,4268.846,4249.872,4243.846,4252.179,4258.974,4212.0509999999995,4249.615,4261.026,0,0
67,119,0,3298,4262.564,4244.872,4222.308,4246.923,4274.103,4260.385,4261.154,4244.487,4242.179,4254.615,4259.487,4215.0,4252.9490000000005,4262.9490000000005,0,0
68,120,0,3206,4254.872,4243.462,4219.359,4245.769,4273.718,4257.9490000000005,4261.154,4246.667,4245.385,4258.846,4254.487,4212.0509999999995,4253.718,4261.282,0,0
69,121,0,2061,4254.744000000001,4247.0509999999995,4218.718,4247.692,4274.615,4263.077,4268.077,4257.0509999999995,4249.615,4260.769,4258.077,4213.846,4250.769,4260.769,0,0
70,122,0,2913,4264.103,4248.205,4221.923,4249.231,4270.641,4264.872,4268.462,4263.462,4247.692,4260.641,4264.231,4221.41,4248.205,4263.462,0,0
71,123,0,3298,4266.41,4246.026,4222.564,4249.487,4264.487,4261.923,4261.923,4260.128,4247.692,4263.59,4265.769,4224.103,4253.205,4271.154,0,0
72,124,0,3206,4262.564,4247.308,4218.974,4246.795,4263.077,4261.282,4257.179,4251.41,4249.872,4263.59,4264.872,4220.769,4256.667,4271.282,0,0
73,125,0,2061,4261.538,4246.41,4219.231,4246.026,4267.0509999999995,4260.897,4258.59,4246.154,4245.641,4262.179,4264.487,4222.0509999999995,4249.744000000001,4266.026,0,0
74,126,0,2913,4266.923,4247.564,4224.744000000001,4254.744000000001,4274.744000000001,4263.205,4260.769,4249.231,4246.282,4263.205,4270.0,4225.385,4245.128,4272.0509999999995,0,0
75,127,0,52,4274.359,4256.026,4228.077,4263.846,4281.282,4266.795,4262.436,4251.282,4254.103,4265.128,4279.744000000001,4227.9490000000005,4255.255999999999,4281.795,0,0
76,0,0,2187,4278.718,4262.9490000000005,4227.0509999999995,4264.872,4284.231,4266.154,4269.744000000001,4256.41,4258.974,4270.513,4281.154,4232.9490000000005,4263.974,4284.872,0,0
77,1,0,2881,4284.615,4264.487,4228.205,4264.615,4290.385,4263.59,4275.641,4265.255999999999,4262.308,4277.692,4280.385,4236.41,4262.308,4290.255999999999,0,0
78,2,0,3223,4287.564,4264.359,4232.179,4266.282,4295.769,4265.0,4277.179,4261.026,4262.821,4277.308,4281.923,4238.59,4261.026,4297.821,0,0
79,3,0,2961,4284.872,4264.487,4234.487,4265.128,4294.744000000001,4266.923,4282.179,4261.538,4261.667,4273.718,4283.077,4238.205,4261.667,4297.179,0,0
80,4,0,3595,4292.436,4263.846,4237.564,4264.103,4294.744000000001,4266.538,4282.436,4270.641,4266.282,4279.231,4286.41,4238.59,4263.59,4295.769,0,0
81,5,0,2994,4298.718,4266.795,4237.436,4267.436,4291.795,4267.692,4272.0509999999995,4259.103,4264.487,4281.154,4285.897,4239.744000000001,4265.897,4298.718,0,0
82,6,0,3267,4286.923,4265.897,4230.513,4265.385,4282.564,4262.564,4258.718,4240.513,4250.897,4271.154,4282.0509999999995,4236.795,4264.615,4294.615,0,0
83,7,0,3233,4273.846,4253.846,4222.9490000000005,4255.769,4277.692,4252.308,4247.9490000000005,4245.0,4245.897,4263.718,4279.359,4230.385,4261.795,4283.333,0,0
84,8,0,2897,4270.385,4249.103,4225.513,4252.821,4277.308,4254.103,4249.872,4256.923,4254.103,4266.282,4277.821,4231.667,4262.564,4278.462,0,0
85,9,0,3562,4266.282,4254.615,4228.205,4259.231,4275.897,4262.821,4264.744000000001,4259.359,4259.615,4271.667,4278.333,4237.0509999999995,4263.462,4281.282,0,0
86,10,0,2919,4263.205,4254.872,4226.923,4261.41,4276.026,4263.333,4275.385,4268.462,4263.077,4277.692,4281.026,4236.538,4264.615,4280.897,0,0
87,11,0,3300,4263.718,4247.9490000000005,4229.359,4255.255999999999,4277.692,4263.974,4277.821,4279.744000000001,4265.641,4277.436,4278.974,4234.231,4265.513,4277.436,0,0
88,12,0,3207,4262.308,4248.462,4231.026,4253.077,4277.821,4267.692,4270.897,4273.718,4262.436,4267.0509999999995,4275.769,4235.513,4260.255999999999,4276.923,0,0
89,13,0,2064,4261.923,4254.872,4226.41,4256.795,4276.795,4264.231,4266.667,4262.308,4260.897,4267.692,4278.846,4236.923,4256.154,4276.923,0,0
90,14,0,2919,4269.615,4259.487,4231.026,4261.154,4276.795,4263.846,4273.205,4262.436,4263.59,4280.0,4281.41,4239.615,4263.718,4282.0509999999995,0,0
91,15,0,3300,4278.974,4263.077,4240.513,4263.974,4278.077,4266.026,4271.282,4263.718,4264.744000000001,4281.154,4281.923,4242.0509999999995,4268.462,4290.897,0,0
92,16,0,0,4279.872,4261.923,4238.59,4262.179,4277.821,4262.821,4264.872,4261.282,4262.564,4274.359,4282.692,4241.026,4263.718,4294.615,0,0
93,17,0,0,4284.872,4263.333,4241.538,4265.513,4278.333,4269.872,4277.308,4268.077,4264.231,4278.462,4289.872,4248.077,4269.359,4300.513,0,0
94,18,0,0,4293.077,4267.821,4247.9490000000005,4274.872,4280.513,4279.487,4286.41,4274.231,4268.333,4285.0,4297.179,4255.255999999999,4277.179,4305.128,0,0
95,19,0,0,4286.282,4267.564,4240.513,4273.974,4280.0,4271.41,4271.538,4263.333,4261.154,4274.744000000001,4288.462,4247.179,4268.59,4299.103,0,0
96,20,0,0,4276.923,4263.077,4232.564,4263.462,4275.769,4261.282,4257.436,4250.513,4253.59,4262.821,4278.846,4237.308,4260.641,4292.308,0,0
97,21,0,0,4280.513,4261.795,4238.205,4262.308,4270.255999999999,4263.462,4256.795,4252.692,4259.359,4264.487,4283.59,4239.615,4265.255999999999,4295.255999999999,0,0
98,22,0,0,4283.846,4263.718,4241.667,4266.154,4265.513,4263.205,4260.897,4261.154,4262.9490000000005,4267.0509999999995,4286.923,4241.154,4267.308,4297.9490000000005,0,0
99,23,0,0,4280.769,4262.9490000000005,4237.692,4262.308,4263.846,4260.513,4264.744000000001,4265.128,4259.487,4263.205,4281.026,4239.744000000001,4261.923,4294.615,0,0
100,24,0,0,4279.744000000001,4261.923,4232.821,4261.923,4265.897,4263.59,4262.564,4259.744000000001,4257.436,4260.897,4279.872,4237.436,4261.41,4288.718,0,0
101,25,0,0,4276.282,4262.308,4227.692,4262.308,4265.513,4263.59,4259.103,4249.487,4252.692,4256.923,4277.436,4231.41,4261.538,4281.538,0,0
102,26,0,0,4269.487,4262.0509999999995,4224.872,4255.513,4263.205,4260.513,4257.179,4242.179,4244.487,4248.59,4266.282,4225.385,4256.154,4277.692,0,0
103,27,0,0,4269.103,4260.128,4226.026,4255.513,4264.359,4260.513,4257.821,4244.744000000001,4247.0509999999995,4247.308,4262.179,4225.385,4248.974,4277.179,0,0
104,28,0,0,4275.513,4258.205,4227.821,4257.821,4265.255999999999,4261.667,4261.154,4257.821,4258.205,4251.795,4266.154,4226.923,4248.205,4278.846,0,0
105,29,0,0,4276.41,4262.0509999999995,4227.821,4251.282,4262.821,4261.667,4262.821,4260.513,4259.103,4253.077,4266.282,4227.0509999999995,4254.872,4280.641,0,0
106,30,0,0,4268.59,4260.897,4227.564,4247.436,4262.179,4260.128,4261.538,4250.255999999999,4251.667,4254.487,4263.974,4225.641,4260.897,4276.154,0,0
107,31,0,0,4266.538,4251.41,4229.744000000001,4250.385,4263.462,4261.154,4264.231,4251.795,4252.692,4258.846,4266.923,4223.846,4258.205,4268.718,0,0
108,32,0,0,4262.564,4246.41,4228.974,4247.308,4256.667,4262.179,4265.513,4258.333,4252.821,4253.462,4261.538,4222.436,4249.231,4263.333,0,0
109,33,0,0,4252.9490000000005,4247.0509999999995,4225.255999999999,4242.308,4247.0509999999995,4255.769,4252.179,4243.718,4239.231,4237.0509999999995,4250.128,4218.974,4244.615,4259.103,0,0
110,34,0,0,4256.154,4247.9490000000005,4230.128,4245.897,4247.436,4246.41,4241.923,4227.821,4236.923,4229.103,4251.282,4220.128,4246.41,4259.359,0,0
111,35,0,0,4263.846,4249.487,4237.564,4247.308,4249.359,4246.538,4245.128,4232.179,4248.462,4233.077,4255.385,4223.974,4247.821,4264.103,0,0
112,36,0,0,4262.308,4251.41,4239.872,4246.538,4246.538,4256.026,4248.205,4240.897,4245.255999999999,4233.077,4250.385,4224.487,4246.41,4263.846,0,0
113,37,0,0,4257.308,4248.846,4238.333,4249.744000000001,4248.974,4260.769,4252.9490000000005,4244.615,4241.282,4230.255999999999,4247.436,4223.718,4246.41,4258.974,0,0
114,38,0,0,4253.718,4245.255999999999,4233.333,4247.308,4249.487,4253.462,4249.615,4238.846,4247.564,4230.769,4251.154,4223.974,4248.333,4256.282,0,0
115,39,0,0,4247.692,4241.923,4225.385,4235.769,4237.564,4242.692,4235.513,4230.255999999999,4243.333,4226.795,4246.795,4221.282,4242.179,4252.564,0,0
116,40,0,0,4246.026,4235.385,4227.9490000000005,4231.795,4230.513,4244.744000000001,4240.897,4238.59,4235.641,4222.564,4241.282,4219.744000000001,4234.487,4247.821,0,0
117,41,0,0,4245.128,4232.308,4235.513,4237.0509999999995,4234.872,4249.103,4250.769,4243.846,4237.821,4223.846,4244.615,4222.179,4235.0,4247.692,0,0
118,42,0,0,4239.487,4232.564,4231.41,4233.59,4234.744000000001,4240.128,4233.718,4227.308,4234.231,4221.667,4243.846,4222.436,4236.538,4247.564,0,0
119,43,0,0,4236.538,4230.897,4224.744000000001,4229.359,4228.205,4233.333,4222.9490000000005,4219.103,4227.564,4217.0509999999995,4237.179,4218.59,4233.846,4246.026,0,0
120,44,0,0,4234.615,4231.282,4227.308,4233.846,4226.41,4232.436,4231.667,4224.744000000001,4228.333,4217.436,4233.462,4214.359,4232.308,4243.333,0,0
121,45,0,0,4231.538,4232.436,4227.9490000000005,4232.0509999999995,4228.718,4232.179,4231.41,4226.282,4229.487,4217.308,4233.205,4214.615,4231.667,4238.333,0,0
122,46,0,0,4230.128,4227.564,4226.282,4226.538,4229.744000000001,4241.41,4231.026,4228.718,4230.641,4216.282,4233.718,4219.872,4233.462,4234.231,0,0
123,47,0,0,4232.436,4230.897,4226.026,4230.513,4231.154,4246.795,4235.769,4235.513,4233.59,4219.103,4234.744000000001,4219.359,4234.231,4235.128,0,0
124,48,0,0,4236.154,4247.179,4222.179,4234.744000000001,4233.59,4238.462,4232.436,4235.769,4234.103,4216.795,4229.615,4211.41,4232.692,4231.923,0,0
125,49,0,0,4234.103,4254.744000000001,4216.154,4232.692,4232.9490000000005,4234.103,4232.436,4225.128,4227.821,4205.897,4219.103,4208.462,4231.026,4220.769,0,0
126,50,0,0,4228.974,4250.255999999999,4212.564,4233.333,4232.308,4236.667,4230.385,4218.205,4219.615,4195.897,4209.359,4207.9490000000005,4225.128,4215.0,0,0
127,51,0,0,4224.231,4248.077,4209.231,4234.744000000001,4229.872,4232.821,4218.462,4212.564,4217.0509999999995,4190.385,4202.821,4202.179,4216.538,4212.436,0,0
128,52,0,0,4218.846,4248.077,4206.026,4230.769,4222.436,4229.359,4210.513,4204.872,4216.41,4189.231,4199.231,4197.0509999999995,4216.026,4205.769,0,0
129,53,0,0,4222.0509999999995,4248.974,4208.205,4228.077,4221.282,4230.128,4213.718,4203.846,4215.769,4195.128,4199.103,4199.615,4224.231,4205.897,0,0
130,54,0,0,4231.026,4252.821,4209.231,4231.923,4230.513,4234.359,4225.385,4216.538,4220.641,4202.308,4205.128,4203.974,4230.0,4214.103,0,0
131,55,0,0,4230.255999999999,4251.41,4210.255999999999,4233.846,4235.385,4241.795,4236.282,4227.308,4229.872,4204.487,4214.487,4206.795,4230.641,4217.436,0,0
132,56,0,0,4226.538,4249.359,4212.179,4232.308,4233.718,4238.333,4230.0,4222.436,4230.0,4205.385,4217.179,4206.026,4230.385,4215.255999999999,0,0
133,57,0,0,4233.846,4253.077,4217.692,4231.154,4233.59,4236.026,4231.282,4223.333,4226.795,4209.872,4214.615,4207.308,4229.872,4219.744000000001,0,0
134,58,0,0,4235.255999999999,4253.077,4221.667,4232.821,4234.872,4244.744000000001,4251.923,4237.692,4232.436,4216.026,4218.205,4215.513,4233.205,4224.487,0,0
135,59,0,0,4223.718,4246.923,4216.795,4232.564,4232.308,4242.0509999999995,4243.718,4236.41,4232.564,4212.179,4215.641,4218.59,4232.692,4219.872,0,0
136,60,0,0,4217.436,4241.923,4211.795,4225.641,4228.077,4227.436,4210.641,4218.205,4222.0509999999995,4203.333,4203.718,4210.0,4222.9490000000005,4211.282,0,0
137,61,0,0,4217.821,4237.821,4209.231,4222.9490000000005,4225.513,4223.077,4207.179,4210.128,4214.872,4196.026,4198.333,4204.487,4213.077,4205.641,0,0
138,62,0,0,4216.923,4232.564,4208.718,4226.41,4226.538,4228.077,4217.692,4215.897,4214.487,4189.487,4200.385,4207.9490000000005,4213.846,4205.128,0,0
139,63,0,0,4216.154,4239.103,4210.513,4231.026,4228.974,4230.385,4216.795,4219.872,4215.0,4191.538,4207.308,4209.744000000001,4218.974,4209.744000000001,0,0
140,64,0,2190,4217.179,4245.128,4211.923,4228.077,4229.487,4232.0509999999995,4221.667,4219.872,4217.821,4198.974,4211.154,4207.564,4217.9490000000005,4213.333,0,0
141,65,0,2881,4217.0509999999995,4236.795,4207.821,4218.846,4226.923,4232.179,4230.0,4217.0509999999995,4218.077,4198.846,4206.538,4204.744000000001,4218.59,4210.385,0,0
142,66,0,3223,4215.385,4234.359,4208.718,4217.9490000000005,4227.564,4232.564,4231.538,4221.538,4216.538,4195.769,4205.255999999999,4204.487,4223.974,4209.359,0,0
143,67,0,2961,4217.692,4243.59,4217.308,4228.846,4231.282,4239.615,4235.0,4232.436,4225.255999999999,4205.641,4215.897,4207.179,4231.154,4214.231,0,0
144,68,0,3595,4225.128,4248.59,4220.255999999999,4236.026,4236.026,4244.359,4236.026,4235.769,4233.718,4213.462,4220.128,4209.872,4233.59,4217.0509999999995,0,0
145,69,0,2994,4231.667,4249.359,4218.462,4232.692,4241.667,4243.846,4236.41,4235.385,4231.026,4205.897,4210.897,4209.744000000001,4224.744000000001,4217.436,0,0
146,70,0,3266,4234.872,4251.538,4222.179,4233.333,4241.026,4243.974,4245.255999999999,4234.615,4226.154,4198.462,4208.077,4209.615,4216.538,4216.026,0,0
147,71,0,3234,4229.231,4248.59,4222.308,4235.385,4233.205,4241.667,4243.333,4227.821,4222.308,4199.231,4210.897,4208.077,4215.897,4211.154,0,0
148,72,0,2897,4220.897,4245.0,4214.744000000001,4231.41,4229.872,4234.103,4221.154,4224.872,4218.59,4201.026,4209.615,4206.41,4219.359,4209.487,0,0
149,73,0,3568,4224.359,4246.41,4212.9490000000005,4228.59,4232.564,4231.282,4211.923,4227.436,4221.026,4200.513,4207.0509999999995,4205.385,4224.231,4213.077,0,0
150,74,0,2919,4233.59,4249.744000000001,4219.487,4231.923,4234.231,4235.0,4226.154,4228.718,4229.103,4206.923,4209.615,4206.538,4230.255999999999,4214.359,0,0
151,75,0,3301,4235.128,4251.154,4221.282,4236.026,4233.718,4236.667,4229.615,4231.282,4234.615,4216.538,4216.282,4210.128,4234.359,4213.59,0,0
152,76,0,3207,4228.59,4245.897,4216.154,4230.641,4231.026,4233.974,4222.564,4236.667,4237.0509999999995,4220.255999999999,4218.077,4212.0509999999995,4230.769,4215.897,0,0
153,77,0,2069,4221.282,4241.538,4212.308,4226.154,4225.385,4232.436,4227.0509999999995,4231.795,4233.462,4211.923,4209.872,4208.077,4221.154,4214.615,0,0
154,78,0,2919,4218.205,4245.128,4211.538,4231.41,4223.59,4233.205,4229.103,4220.0,4227.308,4198.205,4199.231,4204.872,4211.923,4207.821,0,0
155,79,0,3301,4217.9490000000005,4246.41,4211.795,4228.462,4224.615,4232.821,4221.538,4221.667,4222.9490000000005,4193.974,4196.41,4206.026,4210.385,4200.897,0,0
156,80,0,3207,4215.0,4243.974,4212.436,4221.154,4225.513,4230.0,4224.103,4230.255999999999,4219.744000000001,4194.744000000001,4197.821,4206.026,4213.077,4197.564,0,0
157,81,0,2069,4222.821,4248.718,4217.692,4230.897,4229.359,4231.923,4235.0,4233.59,4224.359,4202.821,4207.0509999999995,4208.205,4217.436,4208.846,0,0
158,82,0,2919,4235.385,4253.462,4223.333,4242.308,4234.231,4234.744000000001,4230.0,4235.128,4234.615,4213.333,4214.744000000001,4209.744000000001,4222.0509999999995,4219.872,0,0
159,83,0,3301,4226.41,4247.692,4217.9490000000005,4230.385,4233.462,4231.795,4226.667,4235.385,4229.103,4208.333,4205.0,4205.255999999999,4218.846,4208.462,0,0
160,84,0,3207,4219.487,4243.333,4210.897,4216.923,4231.154,4231.795,4240.897,4233.205,4221.154,4197.436,4201.026,4203.846,4215.255999999999,4200.641,0,0
161,85,0,2069,4231.795,4248.59,4217.692,4225.513,4234.872,4234.615,4240.385,4236.538,4231.795,4204.872,4217.821,4210.128,4218.846,4215.769,0,0
162,86,0,2919,4235.255999999999,4250.897,4220.641,4231.026,4233.718,4228.462,4215.385,4236.795,4231.667,4209.744000000001,4217.0509999999995,4210.385,4220.513,4221.41,0,0
163,87,0,3301,4228.846,4245.897,4213.846,4220.255999999999,4224.231,4221.667,4208.974,4228.077,4214.615,4195.385,4201.282,4205.385,4214.872,4209.231,0,0
164,88,0,3207,4229.103,4244.359,4214.744000000001,4216.026,4223.462,4226.923,4226.026,4231.154,4214.615,4190.513,4206.154,4204.487,4212.436,4210.0,0,0
165,89,0,2069,4223.077,4246.41,4217.692,4220.255999999999,4226.667,4232.0509999999995,4226.538,4231.795,4221.923,4195.513,4211.282,4204.487,4216.282,4212.821,0,0
166,90,0,2919,4215.255999999999,4243.59,4214.615,4218.974,4221.923,4225.641,4216.282,4220.641,4216.026,4194.744000000001,4199.872,4203.333,4216.154,4204.487,0,0
167,91,0,3301,4225.255999999999,4243.59,4219.359,4221.41,4217.692,4224.872,4218.077,4222.179,4212.0509999999995,4196.538,4198.333,4206.154,4212.179,4205.0,0,0
168,92,0,3207,4233.974,4245.897,4225.0,4226.154,4219.615,4229.231,4223.205,4231.154,4214.103,4199.359,4205.897,4209.231,4212.692,4214.615,0,0
169,93,0,2069,4229.872,4241.667,4220.641,4218.974,4218.59,4227.692,4229.487,4230.513,4213.59,4195.769,4205.897,4208.59,4214.487,4217.821,0,0
170,94,0,2919,4224.487,4237.692,4218.59,4215.769,4216.667,4227.436,4236.667,4231.154,4215.641,4194.103,4208.59,4208.205,4214.103,4210.513,0,0
171,95,0,3301,4222.436,4237.564,4218.077,4218.974,4219.615,4233.462,4233.974,4236.795,4219.359,4202.308,4212.821,4207.179,4215.769,4207.0509999999995,0,0
172,96,0,3207,4219.487,4233.205,4211.026,4215.255999999999,4218.333,4231.795,4228.462,4233.846,4217.308,4204.231,4206.538,4205.0,4216.923,4206.154,0,0
173,97,0,2069,4216.923,4228.077,4209.615,4212.308,4215.128,4222.436,4228.974,4229.231,4213.846,4195.128,4200.255999999999,4202.436,4213.205,4202.308,0,0
174,98,0,2919,4216.026,4231.154,4217.821,4216.282,4217.564,4225.385,4230.513,4233.974,4217.0509999999995,4195.513,4202.564,4203.846,4213.462,4200.0,0,0
175,99,0,3301,4216.154,4235.128,4218.59,4217.692,4219.103,4233.333,4233.077,4234.615,4215.897,4199.231,4203.974,4205.128,4212.179,4199.103,0,0
176,100,0,3207,4221.154,4237.436,4212.308,4216.154,4215.641,4227.821,4229.615,4222.436,4205.769,4189.487,4198.205,4201.538,4204.231,4201.154,0,0
177,101,0,2069,4231.667,4245.128,4213.59,4217.0509999999995,4214.487,4218.846,4217.179,4213.333,4207.436,4181.41,4199.359,4200.385,4201.538,4209.359,0,0
178,102,0,2919,4249.359,4257.821,4222.308,4224.103,4217.436,4219.744000000001,4210.769,4219.487,4219.231,4186.538,4208.718,4207.0509999999995,4204.487,4223.846,0,0
179,103,0,3301,4269.872,4271.282,4223.846,4231.923,4214.231,4218.077,4214.231,4219.872,4214.487,4186.282,4216.026,4210.641,4203.333,4240.0,0,0
180,104,0,3207,4289.103,4283.333,4221.41,4232.308,4209.359,4212.692,4214.615,4213.718,4205.385,4182.692,4222.436,4209.615,4201.026,4262.564,0,0
181,105,0,2069,4310.513,4292.308,4220.128,4233.462,4211.282,4213.846,4212.0509999999995,4215.897,4210.897,4186.026,4231.282,4211.923,4200.255999999999,4287.179,0,0
182,106,0,2919,4330.385,4297.9490000000005,4223.077,4241.667,4214.103,4216.41,4215.769,4216.538,4215.513,4187.821,4238.462,4218.846,4200.385,4303.846,0,0
183,107,0,3301,4342.179,4303.974,4229.487,4247.308,4214.615,4221.667,4224.359,4213.59,4214.231,4193.718,4243.846,4222.179,4201.795,4318.718,0,0
184,108,0,3207,4344.359,4308.205,4227.692,4247.0509999999995,4216.026,4227.564,4225.0,4217.564,4214.744000000001,4199.359,4248.846,4222.179,4202.0509999999995,4328.718,0,0
185,109,0,2069,4345.255999999999,4304.103,4224.872,4246.795,4218.077,4230.641,4224.103,4226.154,4217.564,4200.385,4253.205,4223.974,4207.692,4329.487,0,0
186,110,0,2919,4348.974,4299.744000000001,4231.154,4247.179,4218.974,4232.821,4235.128,4235.513,4227.0509999999995,4210.769,4261.026,4227.0509999999995,4216.923,4330.128,0,0
187,111,0,3301,4345.385,4294.872,4230.769,4245.0,4215.513,4228.333,4234.487,4241.667,4230.897,4214.103,4264.359,4226.795,4214.487,4330.769,0,0
188,112,0,3207,4333.077,4286.667,4222.821,4243.333,4214.487,4223.205,4224.615,4237.308,4220.255999999999,4204.872,4258.333,4224.359,4210.385,4323.077,0,0
189,113,0,2069,4327.308,4284.872,4227.821,4245.769,4222.821,4231.154,4236.795,4230.0,4218.333,4208.077,4255.255999999999,4225.385,4215.0,4314.744000000001,0,0
190,114,0,2919,4325.128,4284.744000000001,4235.385,4246.667,4224.872,4236.667,4243.333,4234.872,4229.744000000001,4220.385,4254.744000000001,4228.077,4216.538,4315.255999999999,0,0
191,115,0,3301,4316.026,4277.436,4235.641,4238.205,4215.641,4228.462,4224.487,4240.769,4232.0509999999995,4218.846,4250.641,4229.615,4213.974,4310.769,0,0
192,116,0,3207,4310.255999999999,4276.795,4238.59,4235.513,4216.282,4227.564,4221.41,4236.154,4229.359,4217.179,4251.282,4228.333,4216.282,4300.513,0,0
193,117,0,2069,4305.513,4280.513,4236.795,4243.718,4222.308,4234.103,4234.872,4228.462,4227.436,4220.641,4250.513,4225.128,4218.462,4294.231,0,0
194,118,0,2919,4288.846,4267.0509999999995,4227.0509999999995,4238.462,4217.564,4230.897,4231.667,4228.59,4221.41,4213.718,4238.333,4221.923,4216.795,4281.154,0,0
195,119,0,3301,4275.0,4249.872,4224.231,4223.974,4211.667,4227.179,4222.692,4231.026,4216.41,4208.846,4229.615,4220.128,4213.974,4264.744000000001,0,0
196,120,0,3207,4270.897,4247.9490000000005,4224.359,4225.0,4214.872,4230.513,4226.923,4229.103,4217.564,4214.487,4232.436,4218.462,4214.103,4262.692,0,0
197,121,0,2069,4265.255999999999,4249.231,4221.538,4231.667,4218.718,4233.333,4233.974,4230.255999999999,4222.179,4218.205,4232.821,4215.128,4217.179,4261.667,0,0
198,122,0,2919,4258.333,4244.872,4221.282,4226.026,4217.564,4232.179,4235.385,4242.692,4229.359,4220.255999999999,4232.692,4214.615,4218.59,4251.667,0,0
199,123,0,3301,4252.308,4237.179,4224.487,4219.103,4215.641,4231.41,4235.255999999999,4252.564,4235.0,4228.205,4236.795,4219.615,4223.718,4247.564,0,0
200,124,0,3207,4248.333,4233.205,4224.872,4219.487,4217.436,4232.179,4236.538,4250.385,4234.359,4235.897,4238.846,4222.179,4231.026,4250.769,0,0
201,125,0,2069,4247.179,4233.846,4222.0509999999995,4218.077,4217.9490000000005,4231.923,4235.385,4252.436,4234.615,4230.128,4236.026,4217.692,4227.0509999999995,4246.795,0,0
202,126,0,2919,4240.128,4234.872,4220.513,4217.0509999999995,4216.154,4230.769,4231.795,4247.564,4230.385,4218.59,4229.103,4211.41,4217.821,4237.179,0,0
203,127,0,52,4230.897,4232.179,4218.333,4217.436,4215.513,4229.231,4228.333,4224.103,4219.231,4212.9490000000005,4223.974,4208.846,4218.333,4230.641,0,0
204,0,0,2185,4230.513,4228.59,4214.872,4214.359,4214.359,4227.821,4226.667,4210.769,4214.744000000001,4213.205,4228.333,4212.308,4220.513,4232.0509999999995,0,0
205,1,0,2881,4228.718,4228.462,4213.462,4210.897,4212.179,4226.282,4230.0,4218.077,4217.564,4213.974,4230.641,4213.205,4218.462,4233.462,0,0
206,2,0,3217,4220.255999999999,4226.026,4213.333,4209.103,4214.103,4227.436,4232.564,4223.974,4222.436,4214.359,4220.641,4209.744000000001,4222.692,4228.462,0,0
207,3,0,2961,4216.41,4221.538,4209.744000000001,4206.795,4216.41,4229.872,4230.769,4227.564,4227.179,4215.255999999999,4215.128,4208.718,4229.744000000001,4226.154,0,0
208,4,0,3595,4216.026,4222.308,4208.846,4203.718,4215.769,4230.641,4228.974,4238.205,4232.0509999999995,4216.795,4225.385,4211.795,4232.308,4228.205,0,0
209,5,0,2994,4218.59,4228.974,4212.179,4203.462,4215.641,4231.667,4232.0509999999995,4247.821,4235.769,4225.128,4231.154,4211.923,4233.077,4229.487,0,0
210,6,0,3256,4224.615,4231.282,4215.641,4208.974,4217.692,4233.846,4235.897,4252.0509999999995,4238.974,4230.385,4224.872,4211.923,4233.462,4232.692,0,0
211,7,0,3234,4224.231,4228.846,4217.821,4215.0,4217.9490000000005,4233.462,4236.923,4241.538,4233.59,4220.641,4218.333,4211.026,4226.667,4231.026,0,0
212,8,1,3039,4222.692,4228.205,4216.923,4213.077,4217.0509999999995,4233.205,4235.385,4238.974,4230.897,4217.564,4215.897,4209.744000000001,4225.255999999999,4227.692,0,0
213,9,1,2844,4221.154,4227.564,4216.026,4211.154,4216.154,4232.9490000000005,4233.846,4236.41,4228.205,4214.487,4213.462,4208.462,4223.846,4224.359,0,0
214,10,1,2649,4219.615,4226.923,4215.128,4209.231,4215.255999999999,4232.692,4232.308,4233.846,4225.513,4211.41,4211.026,4207.179,4222.436,4221.026,0,0
215,11,1,2454,4218.077,4226.282,4214.231,4207.308,4214.359,4232.436,4230.769,4231.282,4222.821,4208.333,4208.59,4205.897,4221.026,4217.692,0,0
216,12,1,2259,4216.538,4225.641,4213.333,4205.385,4213.462,4232.179,4229.231,4228.718,4220.128,4205.255999999999,4206.154,4204.615,4219.615,4214.359,0,0
217,13,0,2064,4214.615,4224.487,4212.436,4203.205,4212.308,4231.923,4227.692,4226.026,4217.436,4201.538,4203.333,4203.077,4218.205,4210.513,0,0
218,14,0,2919,4204.872,4219.872,4210.513,4203.462,4208.462,4226.538,4221.923,4222.308,4219.231,4201.154,4198.205,4200.897,4216.154,4200.0,0,0
219,15,0,3296,4203.077,4214.487,4207.9490000000005,4201.41,4202.9490000000005,4216.026,4206.667,4212.821,4215.769,4197.564,4202.179,4201.282,4210.641,4201.154,0,0
220,16,0,0,4209.872,4213.718,4205.513,4199.487,4200.128,4212.179,4198.462,4198.846,4202.179,4191.282,4205.128,4200.128,4208.974,4212.564,0,0
221,17,0,0,4215.0,4222.692,4208.333,4205.769,4207.308,4216.154,4212.308,4204.872,4199.487,4196.154,4202.0509999999995,4201.667,4212.692,4216.795,0,0
222,18,0,0,4217.692,4230.513,4214.103,4213.333,4217.308,4220.769,4223.205,4222.308,4213.974,4208.077,4209.231,4208.333,4218.718,4218.333,0,0
223,19,0,0,4216.538,4226.667,4211.667,4209.231,4215.769,4218.974,4214.615,4217.564,4217.0509999999995,4207.821,4218.077,4210.385,4216.923,4218.462,0,0
224,20,0,0,4213.333,4225.128,4206.154,4207.179,4212.9490000000005,4218.462,4216.41,4212.821,4210.641,4203.846,4214.615,4206.282,4214.487,4216.282,0,0
225,21,0,0,4218.974,4231.282,4211.795,4217.308,4218.462,4224.103,4232.0509999999995,4230.641,4216.282,4215.255999999999,4214.359,4210.0,4219.615,4219.872,0,0
226,22,0,0,4218.462,4227.821,4214.359,4217.436,4215.255999999999,4222.9490000000005,4226.667,4235.128,4222.0509999999995,4221.795,4216.795,4211.667,4219.615,4217.436,0,0
227,23,0,0,4204.103,4215.128,4208.333,4203.077,4201.795,4213.462,4205.0,4220.769,4215.897,4207.179,4205.255999999999,4200.255999999999,4213.205,4203.205,0,0
228,24,0,0,4199.487,4214.615,4208.462,4200.255999999999,4198.846,4211.667,4196.538,4207.821,4208.718,4199.615,4197.0509999999995,4197.308,4212.821,4200.0,0,0
229,25,0,0,4210.641,4227.821,4215.513,4212.9490000000005,4205.769,4217.564,4210.513,4213.974,4213.974,4213.205,4210.641,4208.462,4219.615,4213.077,0,0
230,26,0,0,4216.41,4232.179,4215.897,4216.026,4205.769,4218.205,4220.385,4226.538,4221.538,4216.667,4215.385,4211.026,4218.974,4215.769,0,0
231,27,0,0,4210.0,4221.667,4211.41,4204.359,4199.744000000001,4214.615,4207.436,4215.255999999999,4212.9490000000005,4203.718,4202.564,4205.0,4213.077,4206.026,0,0
232,28,0,0,4203.333,4215.385,4208.462,4200.128,4198.718,4214.487,4196.538,4202.179,4205.897,4199.103,4199.744000000001,4201.667,4213.462,4201.538,0,0
233,29,0,0,4200.385,4216.667,4206.154,4202.179,4199.487,4215.128,4201.026,4212.436,4214.103,4203.077,4203.333,4197.308,4213.974,4201.667,0,0
234,30,0,0,4205.255999999999,4215.769,4210.255999999999,4200.0,4198.462,4214.872,4205.897,4219.231,4218.59,4202.821,4202.692,4197.436,4212.179,4206.41,0,0
235,31,0,0,4216.538,4222.436,4219.103,4204.231,4200.385,4214.103,4207.692,4206.282,4215.0,4204.744000000001,4208.974,4205.255999999999,4213.974,4215.897,0,0
236,32,0,0,4217.9490000000005,4231.154,4221.41,4213.333,4204.231,4214.487,4212.564,4201.41,4215.255999999999,4206.538,4215.0,4207.436,4218.333,4215.255999999999,0,0
237,33,0,0,4206.923,4225.0,4214.103,4215.897,4205.897,4216.154,4212.308,4204.744000000001,4216.026,4202.821,4205.769,4199.872,4217.564,4204.103,0,0
238,34,0,0,4199.615,4216.41,4209.231,4211.026,4204.872,4216.795,4210.897,4200.641,4212.436,4200.513,4198.333,4196.41,4210.897,4200.128,0,0
239,35,0,0,4203.974,4216.795,4213.462,4205.513,4204.103,4216.923,4216.41,4211.795,4216.667,4202.821,4202.692,4203.718,4208.462,4204.359,0,0
240,36,0,0,4209.487,4218.462,4219.872,4207.308,4204.359,4218.974,4222.0509999999995,4230.897,4224.487,4207.308,4205.0,4210.255999999999,4214.487,4207.308,0,0
241,37,0,0,4204.231,4212.821,4214.487,4210.255999999999,4202.0509999999995,4219.615,4221.282,4223.974,4222.821,4206.282,4200.897,4202.821,4214.359,4202.564,0,0
242,38,0,0,4190.255999999999,4203.205,4203.205,4198.462,4199.487,4216.538,4217.0509999999995,4203.974,4213.846,4193.718,4194.487,4192.179,4203.462,4189.103,0,0
243,39,0,0,4186.154,4200.513,4201.667,4185.769,4197.0509999999995,4215.769,4214.487,4201.154,4206.41,4183.974,4191.282,4192.308,4201.026,4185.255999999999,0,0
244,40,0,0,4189.615,4202.821,4205.513,4186.667,4192.179,4213.59,4208.462,4198.974,4199.872,4183.333,4188.077,4194.231,4204.103,4189.872,0,0
245,41,0,0,4185.897,4200.255999999999,4201.795,4187.821,4184.359,4202.436,4197.564,4193.333,4197.564,4181.41,4183.974,4189.744000000001,4198.846,4185.255999999999,0,0
246,42,0,0,4190.769,4204.744000000001,4202.179,4191.667,4185.385,4199.744000000001,4196.538,4206.026,4204.744000000001,4182.692,4191.795,4191.795,4198.462,4188.718,0,0
247,43,0,0,4201.41,4213.462,4210.128,4201.026,4197.0509999999995,4209.231,4204.359,4211.538,4208.333,4188.333,4199.615,4195.0,4206.154,4201.154,0,0
248,44,0,0,4194.872,4206.538,4209.615,4200.513,4196.026,4209.231,4201.923,4200.513,4203.59,4186.538,4190.897,4190.128,4205.255999999999,4194.615,0,0
249,45,0,0,4188.333,4197.0509999999995,4204.359,4197.308,4185.513,4204.487,4199.872,4203.077,4202.0509999999995,4183.205,4182.9490000000005,4189.103,4199.487,4183.846,0,0
250,46,0,0,4198.333,4201.923,4207.308,4199.615,4189.744000000001,4211.667,4210.897,4210.255999999999,4203.462,4186.667,4192.692,4193.974,4201.795,4192.436,0,0
251,47,0,0,4203.974,4207.308,4213.846,4203.333,4201.538,4218.205,4218.846,4207.564,4207.692,4187.179,4200.385,4198.462,4204.744000000001,4200.641,0,0
252,48,0,0,4199.359,4203.974,4211.795,4201.795,4201.41,4215.385,4217.564,4210.385,4212.821,4185.513,4191.923,4197.308,4202.308,4197.9490000000005,0,0
253,49,0,0,4199.231,4199.615,4211.538,4199.615,4199.231,4215.641,4211.41,4213.718,4210.128,4187.564,4186.026,4196.667,4200.513,4197.692,0,0
254,50,0,0,4201.795,4200.897,4218.333,4202.0509999999995,4201.667,4217.564,4206.538,4205.641,4202.821,4187.308,4192.308,4198.846,4200.641,4202.821,0,0
255,51,0,0,4207.564,4206.923,4221.538,4203.718,4197.821,4212.564,4202.692,4203.333,4201.154,4181.795,4199.615,4202.179,4199.615,4209.872,0,0
256,52,0,0,4216.154,4211.923,4216.41,4204.872,4196.667,4209.231,4198.974,4209.231,4203.333,4183.333,4201.667,4204.487,4201.154,4215.385,0,0
257,53,0,0,4212.821,4212.308,4213.59,4207.821,4204.103,4212.436,4205.513,4217.0509999999995,4208.205,4195.0,4201.795,4205.769,4203.718,4217.0509999999995,0,0
258,54,0,0,4203.846,4209.103,4215.385,4206.538,4204.615,4214.615,4217.564,4220.0,4210.128,4201.282,4201.923,4206.026,4202.692,4217.436,0,0
259,55,0,0,4207.0509999999995,4203.59,4216.282,4201.538,4197.9490000000005,4213.205,4215.128,4212.179,4204.615,4199.615,4207.436,4203.718,4202.564,4216.282,0,0
260,56,0,0,4206.667,4201.667,4212.9490000000005,4199.359,4198.59,4212.0509999999995,4201.795,4209.359,4202.0509999999995,4199.872,4208.718,4199.744000000001,4204.744000000001,4209.872,0,0
261,57,0,0,4190.513,4201.154,4202.821,4197.692,4199.872,4213.718,4202.0509999999995,4211.795,4203.846,4197.9490000000005,4194.103,4194.103,4203.077,4197.179,0,0
262,58,0,0,4180.769,4193.205,4195.897,4192.308,4191.667,4210.641,4204.615,4205.128,4202.308,4189.487,4181.538,4188.462,4199.231,4185.255999999999,0,0
263,59,0,0,4185.897,4191.026,4198.974,4188.462,4187.179,4206.154,4200.897,4198.846,4201.41,4185.385,4186.026,4190.255999999999,4199.231,4182.821,0,0
264,60,0,0,4184.359,4196.923,4199.615,4185.897,4189.872,4207.0509999999995,4207.308,4203.077,4201.923,4188.333,4189.487,4192.692,4200.513,4185.128,0,0
265,61,0,0,4173.718,4190.769,4193.846,4183.462,4186.154,4204.487,4207.564,4202.821,4200.769,4186.154,4185.255999999999,4189.359,4198.59,4181.923,0,0
266,62,0,0,4168.974,4181.41,4190.641,4183.974,4181.026,4198.974,4190.513,4200.641,4196.923,4181.667,4182.821,4186.923,4197.692,4178.718,0,0
267,63,0,0,4170.897,4185.641,4191.923,4182.9490000000005,4182.436,4197.821,4180.128,4201.795,4191.795,4182.821,4183.846,4189.872,4198.205,4183.846,0,0
268,64,0,2188,4178.333,4194.231,4197.0509999999995,4181.667,4182.564,4198.205,4185.513,4196.282,4190.128,4184.103,4190.0,4193.333,4198.462,4190.641,0,0
269,65,0,2881,4188.462,4199.103,4203.59,4188.974,4184.615,4198.59,4189.615,4203.59,4198.077,4186.923,4199.103,4196.026,4197.9490000000005,4196.923,0,0
270,66,0,3220,4191.923,4203.846,4207.0509999999995,4200.513,4190.769,4201.026,4185.769,4217.0509999999995,4206.41,4191.538,4195.641,4197.821,4196.667,4199.359,0,0
271,67,0,2959,4190.0,4204.872,4206.026,4199.615,4190.769,4201.538,4185.385,4202.436,4200.385,4191.154,4187.0509999999995,4193.846,4201.41,4194.744000000001,0,0
272,68,0,3595,4187.308,4201.282,4202.821,4188.333,4186.154,4198.718,4189.487,4182.0509999999995,4188.59,4185.897,4187.308,4192.436,4202.9490000000005,4188.846,0,0
273,69,0,2996,4184.359,4192.692,4196.538,4184.103,4183.59,4198.333,4190.255999999999,4187.436,4185.641,4178.718,4183.846,4193.205,4191.667,4186.538,0,0
274,70,0,3257,4183.846,4184.487,4194.744000000001,4185.513,4185.385,4200.0,4185.385,4197.9490000000005,4193.333,4178.077,4177.179,4188.077,4186.923,4182.436,0,0
275,71,0,3231,4179.359,4184.872,4195.769,4179.872,4181.795,4196.667,4182.308,4196.923,4199.872,4184.615,4179.615,4181.538,4197.308,4174.615,0,0
276,72,0,2897,4171.41,4184.231,4195.255999999999,4175.641,4173.462,4189.872,4186.282,4200.897,4198.974,4180.769,4181.538,4181.154,4200.255999999999,4174.359,0,0
277,73,0,3568,4176.923,4183.718,4197.308,4181.282,4175.769,4191.154,4188.846,4203.974,4195.255999999999,4172.308,4179.615,4185.513,4195.255999999999,4181.923,0,0
278,74,0,2919,4189.231,4191.538,4201.538,4186.154,4184.103,4198.462,4186.026,4195.641,4190.255999999999,4176.923,4184.103,4190.385,4197.308,4186.538,0,0
279,75,0,3297,4189.231,4196.41,4204.359,4183.205,4184.231,4200.0,4190.128,4194.487,4190.0,4182.9490000000005,4188.718,4191.026,4200.255999999999,4186.923,0,0
280,76,0,3203,4183.59,4195.0,4202.564,4181.795,4180.255999999999,4199.231,4201.667,4196.795,4191.026,4178.846,4184.359,4189.487,4199.487,4186.538,0,0
281,77,0,2063,4186.795,4197.692,4200.897,4186.154,4182.564,4200.641,4202.821,4194.487,4189.744000000001,4182.436,4186.282,4193.974,4196.795,4189.615,0,0
282,78,0,2919,4188.846,4196.538,4200.255999999999,4188.333,4185.128,4196.538,4189.744000000001,4197.564,4189.231,4184.359,4188.59,4192.564,4192.179,4187.308,0,0
283,79,0,3297,4178.077,4185.641,4196.41,4183.974,4181.795,4191.795,4182.436,4202.0509999999995,4188.59,4172.0509999999995,4175.897,4180.0,4182.821,4173.59,0,0
284,80,0,3203,4169.487,4185.641,4194.744000000001,4181.026,4181.667,4198.077,4197.308,4198.974,4186.538,4162.821,4166.667,4178.077,4172.692,4163.462,0,0
285,81,0,2063,4178.205,4199.744000000001,4199.487,4188.333,4187.692,4205.769,4208.205,4198.462,4186.538,4170.128,4171.923,4189.359,4175.385,4171.795,0,0
286,82,0,2919,4186.41,4205.128,4198.974,4194.231,4192.692,4199.231,4188.462,4196.41,4188.974,4179.744000000001,4176.154,4187.179,4185.897,4182.436,0,0
287,83,0,3297,4182.179,4198.205,4192.0509999999995,4188.333,4189.872,4191.026,4173.59,4183.462,4186.923,4178.59,4177.821,4177.0509999999995,4186.923,4183.077,0,0
288,84,0,3203,4183.077,4197.9490000000005,4190.897,4184.615,4185.897,4192.821,4182.436,4180.385,4182.179,4173.205,4182.692,4183.205,4182.436,4182.308,0,0
289,85,0,2063,4188.205,4208.462,4197.692,4192.564,4188.846,4195.513,4187.0509999999995,4186.026,4182.9490000000005,4172.821,4184.231,4194.487,4184.615,4185.897,0,0
290,86,0,2919,4187.308,4212.692,4201.538,4200.128,4194.359,4198.718,4185.0,4188.718,4188.333,4177.821,4183.974,4192.436,4187.308,4187.308,0,0
291,87,0,3297,4190.385,4203.718,4197.179,4199.231,4193.077,4202.436,4185.641,4193.59,4190.385,4182.564,4185.0,4187.821,4185.513,4184.359,0,0
292,88,0,3203,4195.769,4199.103,4193.846,4198.205,4186.923,4200.769,4185.0,4198.718,4186.282,4181.923,4182.9490000000005,4193.205,4185.385,4187.0509999999995,0,0
293,89,0,2063,4202.436,4211.026,4205.641,4203.462,4189.744000000001,4200.769,4193.846,4200.0,4188.846,4181.154,4190.513,4200.513,4191.923,4202.564,0,0
294,90,0,2919,4209.872,4215.128,4210.0,4206.923,4197.0509999999995,4203.718,4204.872,4201.667,4198.205,4184.872,4200.513,4199.103,4196.538,4214.487,0,0
295,91,0,3297,4207.9490000000005,4209.359,4199.359,4202.9490000000005,4197.821,4205.641,4200.641,4213.333,4203.718,4196.026,4201.667,4197.179,4195.0,4209.615,0,0
296,92,0,3203,4202.436,4211.282,4202.692,4201.667,4200.641,4212.692,4199.103,4217.9490000000005,4205.128,4208.333,4206.154,4205.641,4199.872,4202.821,0,0
297,93,0,2063,4200.255999999999,4209.487,4212.692,4203.974,4200.513,4217.564,4205.513,4202.692,4202.692,4209.487,4210.128,4208.59,4205.128,4199.744000000001,0,0
298,94,0,2919,4200.641,4200.513,4205.641,4198.974,4192.0509999999995,4214.231,4205.897,4191.282,4198.205,4199.103,4198.846,4196.538,4200.255999999999,4196.538,0,0
299,95,0,3297,4199.103,4198.59,4197.0509999999995,4189.103,4186.41,4214.231,4197.564,4192.179,4196.282,4193.718,4189.359,4190.385,4198.718,4199.487,0,0
300,96,0,3203,4190.897,4197.821,4195.255999999999,4183.846,4185.641,4214.744000000001,4182.436,4184.359,4191.41,4191.154,4193.333,4195.641,4198.974,4196.154,0,0
301,97,0,2063,4180.513,4192.9490000000005,4189.487,4185.128,4188.205,4213.205,4176.667,4177.0509999999995,4186.538,4184.872,4191.667,4191.41,4193.333,4184.487,0,0
302,98,0,2919,4190.897,4199.487,4194.231,4193.077,4197.308,4221.41,4193.846,4195.385,4194.103,4188.718,4185.897,4188.718,4190.385,4192.436,0,0
303,99,0,3297,4214.231,4206.282,4209.103,4201.154,4203.718,4230.769,4211.667,4218.077,4205.385,4200.641,4189.872,4201.923,4194.103,4216.41,0,0
304,100,0,3203,4214.231,4200.128,4213.205,4202.821,4200.769,4231.282,4214.103,4223.333,4205.897,4202.436,4192.179,4210.255999999999,4193.59,4216.795,0,0
305,101,0,2063,4203.205,4200.128,4209.487,4199.487,4199.359,4230.641,4214.103,4217.436,4202.0509999999995,4191.667,4187.436,4200.128,4189.359,4203.333,0,0
306,102,0,2919,4200.0,4201.41,4208.846,4193.333,4197.692,4233.333,4213.205,4214.487,4203.333,4185.769,4187.692,4193.718,4190.769,4202.436,0,0
307,103,0,3297,4186.667,4184.359,4202.9490000000005,4185.255999999999,4188.462,4231.795,4206.154,4216.538,4205.385,4188.718,4185.513,4195.255999999999,4192.308,4193.846,0,0
308,104,0,3203,4171.41,4178.077,4189.103,4180.0,4178.718,4221.41,4198.846,4208.59,4199.487,4181.538,4173.462,4188.974,4186.923,4174.359,0,0
309,105,0,2063,4175.255999999999,4201.154,4183.974,4181.026,4181.154,4217.692,4198.59,4196.795,4191.923,4168.974,4165.897,4176.667,4185.255999999999,4167.0509999999995,0,0
310,106,0,2919,4185.385,4219.744000000001,4190.513,4188.59,4189.744000000001,4224.615,4198.59,4197.692,4190.897,4168.205,4161.795,4173.59,4187.692,4168.718,0,0
311,107,0,3297,4190.0,4224.487,4193.333,4199.487,4193.462,4225.385,4194.872,4205.385,4192.179,4172.0509999999995,4153.846,4177.436,4180.513,4168.718,0,0
312,108,0,3203,4198.077,4231.282,4189.359,4201.282,4191.923,4217.692,4181.795,4195.0,4185.128,4167.436,4151.282,4178.333,4173.462,4170.769,0,0
313,109,0,2063,4199.359,4233.59,4189.872,4197.0509999999995,4189.744000000001,4215.0,4170.255999999999,4177.692,4181.282,4164.744000000001,4157.9490000000005,4179.615,4180.128,4174.231,0,0
314,110,0,2919,4194.487,4228.718,4196.282,4199.359,4193.846,4222.436,4178.59,4184.231,4192.9490000000005,4172.692,4162.0509999999995,4184.103,4188.077,4173.718,0,0
315,111,0,3297,4189.231,4222.436,4195.385,4197.436,4196.538,4225.897,4184.103,4199.872,4199.359,4174.744000000001,4159.872,4182.0509999999995,4187.564,4168.205,0,0
316,112,0,3203,4175.769,4214.487,4184.872,4186.154,4188.077,4222.0509999999995,4176.923,4198.333,4190.255999999999,4167.9490000000005,4155.385,4173.333,4182.308,4157.308,0,0
317,113,0,2063,4169.231,4212.179,4184.231,4185.769,4182.692,4224.615,4187.308,4194.487,4187.0509999999995,4166.538,4154.231,4174.872,4182.9490000000005,4150.897,0,0
318,114,0,2919,4178.974,4216.026,4192.821,4196.667,4192.0509999999995,4232.436,4200.128,4200.0,4192.9490000000005,4170.897,4158.462,4179.103,4181.923,4159.231,0,0
319,115,0,3297,4186.795,4222.821,4197.692,4202.436,4201.41,4233.077,4191.026,4196.154,4182.179,4168.333,4162.692,4177.436,4173.59,4170.513,0,0
320,116,0,3203,4188.205,4228.974,4197.436,4203.846,4203.974,4232.308,4185.0,4186.282,4168.59,4164.872,4165.255999999999,4180.255999999999,4169.872,4174.231,0,0
321,117,0,2063,4186.923,4222.436,4197.821,4204.744000000001,4207.821,4235.255999999999,4183.333,4185.897,4175.641,4168.846,4164.487,4185.385,4172.179,4173.077,0,0
322,118,0,2919,4181.026,4213.077,4191.667,4197.821,4202.179,4228.462,4175.385,4187.308,4180.0,4169.103,4158.205,4180.0,4173.462,4167.9490000000005,0,0
323,119,0,3297,4175.128,4214.615,4181.538,4187.179,4189.615,4222.564,4173.846,4183.077,4175.0,4166.154,4155.255999999999,4173.974,4178.846,4158.846,0,0
324,120,0,3203,4174.231,4212.821,4179.872,4185.385,4185.513,4227.308,4175.513,4181.41,4177.9490000000005,4171.795,4162.564,4174.359,4187.0509999999995,4155.769,0,0
325,121,0,2063,4171.538,4205.0,4180.641,4186.667,4186.667,4231.154,4176.923,4184.487,4183.718,4182.179,4169.744000000001,4176.282,4187.692,4162.308,0,0
326,122,0,2919,4168.333,4205.255999999999,4182.179,4186.026,4188.205,4240.0,4192.179,4187.0509999999995,4186.667,4187.436,4171.41,4179.359,4187.821,4169.359,0,0
327,123,0,3297,4171.667,4211.026,4187.9490000000005,4191.538,4194.231,4246.538,4205.513,4189.744000000001,4192.0509999999995,4187.179,4171.795,4180.769,4191.154,4170.0,0,0
328,124,0,3203,4180.128,4215.255999999999,4192.9490000000005,4200.128,4200.641,4239.487,4198.718,4195.255999999999,4191.538,4186.667,4173.205,4181.282,4190.128,4168.333,0,0
329,125,0,2063,4186.282,4216.795,4191.026,4200.769,4201.026,4232.0509999999995,4189.872,4202.308,4184.615,4186.154,4173.333,4183.846,4185.385,4173.205,0,0
330,126,0,2919,4186.282,4214.615,4189.872,4197.9490000000005,4199.231,4234.103,4187.821,4199.744000000001,4183.205,4179.103,4171.923,4181.795,4182.179,4177.179,0,0
331,127,0,52,4185.128,4215.0,4190.769,4197.9490000000005,4200.255999999999,4236.923,4189.744000000001,4189.231,4182.308,4170.128,4166.538,4177.692,4181.026,4172.179,0,0
332,0,0,2191,4183.077,4215.513,4184.615,4194.744000000001,4198.462,4232.436,4183.718,4182.179,4179.103,4165.897,4160.385,4176.154,4180.897,4164.744000000001,0,0
333,1,0,2880,4179.103,4215.385,4179.487,4193.462,4194.359,4231.282,4181.795,4185.641,4181.667,4168.077,4160.513,4174.103,4181.538,4164.103,0,0
334,2,0,3219,4187.179,4221.795,4186.795,4199.615,4198.718,4242.179,4199.231,4196.41,4192.692,4176.795,4165.769,4180.513,4183.974,4174.103,0,0
335,3,0,2961,4210.128,4233.077,4195.641,4204.744000000001,4205.128,4251.026,4205.641,4202.821,4199.487,4184.872,4178.205,4191.282,4190.513,4192.9490000000005,0,0
336,4,0,3595,4238.205,4248.718,4202.692,4212.9490000000005,4202.692,4248.205,4198.077,4215.641,4203.718,4194.231,4196.026,4198.846,4200.897,4215.255999999999,0,0
337,5,0,2996,4262.0509999999995,4268.59,4209.231,4229.359,4205.897,4249.744000000001,4209.872,4230.769,4211.026,4200.641,4204.872,4205.0,4202.179,4232.692,0,0
338,6,0,3258,4275.255999999999,4276.282,4212.564,4236.41,4217.9490000000005,4256.282,4229.359,4223.205,4208.846,4195.0,4201.026,4205.769,4190.769,4242.821,0,0
339,7,0,3228,4284.872,4274.744000000001,4210.641,4230.513,4218.974,4249.359,4217.179,4212.564,4198.846,4181.41,4199.744000000001,4198.974,4182.436,4249.359,0,0
340,8,0,2895,4303.333,4287.436,4212.564,4238.718,4214.231,4246.026,4197.0509999999995,4220.897,4199.359,4180.769,4202.821,4197.9490000000005,4186.154,4258.718,0,0
341,9,0,3565,4316.282,4299.359,4215.641,4250.641,4219.359,4256.154,4206.282,4210.255999999999,4200.513,4192.179,4201.795,4201.667,4188.333,4269.231,0,0
342,10,0,2917,4306.795,4287.692,4212.9490000000005,4240.513,4218.974,4256.923,4218.205,4182.0509999999995,4192.692,4195.897,4204.487,4197.9490000000005,4186.795,4270.897,0,0
343,11,0,3297,4295.641,4274.103,4209.359,4227.821,4207.564,4249.872,4208.846,4192.436,4196.026,4198.205,4215.0,4200.128,4193.462,4270.255999999999,0,0
344,12,0,3204,4298.718,4275.255999999999,4209.487,4231.282,4201.154,4248.718,4197.436,4214.103,4204.744000000001,4202.564,4222.9490000000005,4207.0509999999995,4202.0509999999995,4271.282,0,0
345,13,0,2062,4295.641,4275.385,4211.667,4233.333,4201.026,4248.333,4197.436,4205.641,4202.179,4203.59,4220.513,4203.974,4200.513,4269.103,0,0
346,14,0,2917,4279.359,4265.128,4209.744000000001,4227.9490000000005,4200.769,4244.487,4203.718,4202.179,4199.872,4207.179,4216.41,4198.59,4197.692,4263.462,0,0
347,15,0,3297,4261.538,4249.103,4205.0,4221.795,4195.897,4247.436,4216.41,4215.255999999999,4205.128,4215.385,4218.077,4200.897,4201.026,4258.205,0,0
348,16,0,0,4249.872,4233.205,4202.308,4209.615,4190.128,4251.026,4217.564,4219.231,4213.077,4218.974,4218.59,4198.077,4202.179,4250.897,0,0
349,17,0,0,4241.41,4228.077,4205.128,4205.255999999999,4192.821,4247.9490000000005,4203.59,4215.0,4215.385,4215.769,4215.641,4191.923,4199.615,4240.128,0,0
350,18,0,0,4236.026,4230.128,4208.718,4213.974,4201.154,4248.59,4201.282,4211.41,4208.846,4217.436,4216.41,4197.564,4201.923,4238.205,0,0
351,19,0,0,4237.436,4230.513,4211.923,4218.333,4201.923,4252.179,4206.923,4205.641,4203.846,4222.308,4221.154,4208.205,4203.077,4242.179,0,0
352,20,0,0,4244.744000000001,4233.974,4216.282,4218.974,4200.769,4252.436,4206.154,4202.821,4206.154,4221.667,4220.513,4207.821,4203.205,4240.641,0,0
353,21,0,0,4246.026,4238.718,4216.154,4221.923,4205.0,4251.41,4210.897,4208.59,4207.308,4218.718,4218.077,4201.795,4211.154,4233.718,0,0
354,22,0,0,4233.846,4233.077,4208.846,4217.0509999999995,4199.359,4250.897,4218.333,4215.0,4205.769,4217.564,4214.231,4198.077,4216.154,4223.974,0,0
355,23,0,0,4220.513,4227.0509999999995,4205.897,4210.897,4188.59,4249.103,4216.538,4217.564,4204.487,4212.308,4205.513,4197.436,4207.821,4217.179,0,0
356,24,0,0,4216.538,4226.923,4207.179,4212.692,4185.128,4247.436,4213.462,4214.615,4203.205,4203.59,4198.974,4194.103,4201.538,4211.923,0,0
357,25,0,0,4214.744000000001,4220.385,4205.128,4210.897,4187.564,4247.564,4213.846,4210.128,4201.538,4201.41,4197.308,4188.462,4205.385,4204.615,0,0
358,26,0,0,4213.077,4214.487,4205.513,4206.41,4194.487,4250.641,4217.9490000000005,4210.385,4200.897,4202.821,4197.564,4190.641,4203.846,4200.385,0,0
359,27,0,0,4210.0,4216.667,4207.308,4205.641,4202.179,4252.821,4222.0509999999995,4217.436,4201.667,4199.231,4198.077,4195.897,4197.564,4201.923,0,0
360,28,0,0,4204.359,4212.692,4207.821,4204.231,4201.538,4248.718,4213.462,4219.872,4203.846,4198.077,4199.231,4193.718,4198.974,4201.026,0,0
361,29,0,0,4201.154,4209.359,4205.385,4202.308,4198.718,4247.692,4204.872,4209.231,4204.744000000001,4202.308,4198.718,4190.641,4201.667,4200.769,0,0
362,30,0,0,4201.41,4214.359,4199.231,4201.154,4200.255999999999,4246.41,4203.462,4201.154,4201.538,4200.769,4196.923,4191.41,4198.462,4200.255999999999,0,0
363,31,0,0,4198.59,4213.974,4192.9490000000005,4198.974,4196.282,4238.462,4196.923,4199.359,4199.615,4195.128,4195.513,4190.0,4195.128,4190.769,0,0
364,32,0,0,4196.667,4205.769,4195.513,4196.667,4192.308,4236.667,4191.154,4196.795,4199.744000000001,4195.641,4192.436,4187.692,4198.462,4185.255999999999,0,0
365,33,0,0,4199.744000000001,4204.487,4201.795,4198.974,4199.103,4243.077,4199.872,4202.9490000000005,4202.179,4200.769,4193.974,4187.564,4201.923,4192.9490000000005,0,0
366,34,0,0,4201.41,4210.255999999999,4203.59,4205.255999999999,4204.103,4246.282,4207.564,4218.462,4210.513,4202.692,4200.385,4191.282,4201.667,4202.564,0,0
367,35,0,0,4201.795,4210.255999999999,4205.128,4206.41,4203.974,4246.795,4203.462,4218.462,4214.103,4200.897,4203.718,4195.385,4201.026,4201.923,0,0
368,36,0,0,4197.564,4205.255999999999,4206.538,4201.154,4208.59,4247.179,4201.667,4205.128,4208.718,4200.897,4202.9490000000005,4195.641,4201.41,4192.9490000000005,0,0
369,37,0,0,4189.487,4202.564,4203.333,4201.795,4210.255999999999,4244.487,4201.41,4204.231,4204.487,4203.077,4203.846,4193.333,4201.795,4186.41,0,0
370,38,0,0,4186.154,4203.462,4199.359,4204.872,4203.333,4242.308,4201.667,4201.282,4203.718,4201.154,4201.538,4190.128,4200.0,4182.564,0,0
371,39,0,0,4179.615,4202.179,4196.538,4200.513,4198.205,4238.846,4197.179,4185.513,4198.205,4193.462,4190.0,4183.462,4198.59,4175.385,0,0
372,40,0,0,4172.821,4200.0,4195.513,4197.179,4198.205,4233.333,4190.513,4187.564,4193.59,4187.564,4183.462,4183.333,4194.359,4170.641,0,0
373,41,0,0,4178.718,4202.692,4196.026,4200.513,4199.359,4234.103,4195.0,4202.308,4192.308,4185.641,4186.282,4186.667,4188.718,4173.718,0,0
374,42,0,0,4186.538,4203.974,4196.795,4200.513,4196.282,4236.282,4191.923,4189.615,4188.974,4184.231,4189.487,4186.026,4193.205,4178.205,0,0
375,43,0,0,4184.359,4202.179,4193.846,4197.9490000000005,4193.846,4228.718,4172.0509999999995,4166.026,4185.641,4184.103,4187.821,4186.923,4198.462,4182.308,0,0
376,44,0,0,4181.795,4201.795,4192.9490000000005,4198.462,4195.513,4221.538,4169.487,4171.923,4185.769,4183.846,4184.744000000001,4189.487,4192.0509999999995,4185.128,0,0
377,45,0,0,4182.692,4202.436,4194.872,4199.103,4192.821,4225.897,4186.795,4187.9490000000005,4190.769,4183.333,4190.897,4188.462,4184.231,4183.205,0,0
378,46,0,0,4185.385,4205.0,4196.026,4197.9490000000005,4186.282,4229.872,4188.718,4191.282,4197.179,4187.564,4201.282,4187.564,4187.692,4185.513,0,0
379,47,0,0,4191.538,4209.231,4199.231,4198.974,4190.255999999999,4228.462,4180.897,4190.255999999999,4198.846,4189.872,4200.0,4190.385,4192.9490000000005,4194.487,0,0
380,48,0,0,4195.385,4209.103,4197.692,4202.308,4199.103,4228.462,4182.9490000000005,4188.59,4197.436,4186.154,4195.128,4190.385,4193.077,4200.128,0,0
381,49,0,0,4199.744000000001,4210.641,4195.0,4205.128,4200.513,4231.026,4190.513,4188.718,4197.0509999999995,4193.462,4205.255999999999,4193.974,4192.9490000000005,4202.9490000000005,0,0
382,50,0,0,4207.564,4216.538,4198.846,4205.769,4202.0509999999995,4234.231,4200.769,4194.615,4199.615,4202.692,4212.9490000000005,4197.436,4193.333,4206.282,0,0
383,51,0,0,4205.0,4212.821,4200.0,4203.718,4202.436,4234.359,4201.282,4199.231,4201.282,4192.692,4203.718,4192.0509999999995,4189.103,4204.872,0,0
384,52,0,0,4191.154,4203.974,4194.103,4199.872,4196.795,4228.718,4191.154,4194.744000000001,4198.974,4186.026,4196.41,4186.667,4184.744000000001,4195.769,0,0
385,53,0,0,4183.205,4200.641,4192.179,4192.692,4187.436,4221.795,4181.026,4186.667,4197.308,4196.41,4200.128,4188.59,4193.974,4187.564,0,0
386,54,0,0,4183.846,4194.615,4192.179,4186.41,4182.0509999999995,4219.744000000001,4183.846,4182.692,4199.103,4198.462,4202.0509999999995,4189.615,4201.154,4187.9490000000005,0,0
387,55,0,0,4182.9490000000005,4190.897,4192.821,4191.795,4185.255999999999,4225.769,4196.026,4186.154,4197.564,4190.385,4199.615,4189.487,4190.641,4187.821,0,0
388,56,0,0,4180.385,4193.077,4194.872,4197.0509999999995,4188.333,4226.923,4192.564,4186.667,4188.077,4187.692,4201.154,4193.718,4183.718,4184.872,0,0
389,57,0,0,4184.487,4193.205,4192.179,4195.641,4185.0,4220.513,4182.9490000000005,4183.462,4181.795,4186.154,4201.795,4197.9490000000005,4186.154,4188.59,0,0
390,58,0,0,4191.41,4197.436,4195.255999999999,4198.718,4188.077,4222.308,4192.308,4191.538,4189.615,4190.897,4201.282,4198.974,4185.897,4196.154,0,0
391,59,0,0,4196.282,4204.615,4205.385,4205.128,4194.872,4228.718,4200.0,4203.846,4202.308,4203.59,4207.9490000000005,4198.59,4189.872,4198.846,0,0
392,60,0,0,4196.41,4205.897,4205.385,4205.897,4192.308,4224.872,4188.59,4206.282,4206.154,4206.41,4213.846,4196.154,4198.846,4197.436,0,0
393,61,0,0,4189.359,4200.0,4197.0509999999995,4197.436,4186.795,4218.974,4181.026,4196.795,4201.538,4200.641,4207.308,4191.667,4199.744000000001,4191.154,0,0
394,62,0,0,4178.59,4191.154,4194.615,4187.0509999999995,4185.255999999999,4222.692,4190.255999999999,4190.769,4198.205,4198.974,4198.718,4190.897,4197.436,4182.9490000000005,0,0
395,63,0,0,4172.821,4184.615,4196.154,4185.385,4185.255999999999,4230.255999999999,4203.333,4196.923,4201.923,4203.333,4200.385,4191.026,4198.333,4182.436,0,0
396,64,0,2192,4172.179,4186.538,4194.615,4188.846,4187.821,4232.821,4200.513,4200.128,4203.974,4201.538,4202.0509999999995,4187.564,4200.385,4184.872,0,0
397,65,0,2882,4171.538,4190.128,4191.154,4184.359,4186.41,4223.59,4184.231,4186.026,4195.0,4188.333,4197.692,4183.462,4196.923,4181.923,0,0
398,66,0,3219,4177.436,4189.872,4194.231,4187.821,4184.744000000001,4221.026,4193.077,4178.462,4190.128,4185.769,4197.179,4189.744000000001,4191.026,4184.872,0,0
399,67,0,2961,4182.9490000000005,4189.872,4199.615,4199.231,4194.231,4233.077,4212.436,4195.641,4199.231,4200.769,4202.0509999999995,4195.513,4193.205,4189.872,0,0
400,68,0,3595,4177.0509999999995,4187.308,4194.872,4195.0,4197.564,4229.359,4195.513,4201.41,4199.872,4199.615,4198.077,4186.282,4199.744000000001,4184.744000000001,0,0
401,69,0,2996,4164.487,4181.667,4183.846,4183.718,4187.179,4215.897,4174.103,4186.538,4191.154,4184.359,4186.923,4173.462,4199.359,4170.385,0,0
402,70,0,3266,4160.128,4179.872,4178.846,4183.462,4185.255999999999,4218.462,4179.103,4181.923,4190.128,4183.205,4182.692,4172.821,4193.077,4157.9490000000005,0,0
403,71,0,3235,4164.872,4183.974,4182.564,4187.564,4190.513,4225.128,4185.0,4184.359,4193.077,4185.769,4183.462,4179.359,4187.0509999999995,4158.974,0,0
404,72,0,2899,4169.744000000001,4188.333,4190.385,4187.821,4190.255999999999,4224.615,4180.513,4184.487,4193.59,4181.795,4183.59,4181.923,4184.744000000001,4168.205,0,0
405,73,0,3564,4171.282,4188.59,4194.615,4188.462,4192.9490000000005,4227.179,4180.255999999999,4188.077,4198.077,4185.128,4186.026,4179.615,4190.128,4171.026,0,0
406,74,0,2913,4169.872,4187.0509999999995,4195.0,4190.641,4199.744000000001,4231.923,4193.59,4191.538,4201.667,4189.359,4189.744000000001,4179.359,4197.308,4167.821,0,0
407,75,0,3299,4169.487,4184.872,4193.462,4188.846,4196.026,4229.487,4203.205,4186.41,4199.872,4190.513,4190.897,4180.255999999999,4199.487,4167.9490000000005,0,0
408,76,0,3209,4168.718,4183.974,4188.59,4188.59,4192.179,4224.487,4193.333,4182.564,4197.564,4193.846,4189.615,4178.205,4198.205,4167.564,0,0
409,77,0,2073,4168.974,4185.769,4189.359,4194.359,4199.744000000001,4226.667,4189.231,4191.923,4198.718,4194.487,4188.205,4175.897,4198.205,4161.667,0,0
410,78,0,2913,4168.077,4185.385,4189.231,4194.359,4201.282,4229.487,4203.974,4202.0509999999995,4198.333,4191.538,4185.769,4177.436,4199.231,4158.59,0,0
411,79,0,3299,4167.179,4185.0,4182.564,4186.41,4191.026,4221.154,4197.9490000000005,4194.487,4190.255999999999,4188.205,4182.436,4178.333,4193.59,4160.641,0,0
412,80,0,3209,4167.9490000000005,4180.897,4182.0509999999995,4182.821,4184.231,4213.59,4182.821,4177.308,4181.41,4183.718,4179.487,4176.667,4183.462,4163.59,0,0
413,81,0,2073,4162.436,4171.538,4185.513,4177.9490000000005,4181.538,4219.103,4193.59,4178.462,4182.179,4180.897,4176.538,4178.974,4182.564,4161.538,0,0
414,82,0,2913,4155.0,4168.205,4180.641,4169.487,4172.436,4217.308,4186.923,4186.41,4186.923,4178.846,4171.282,4180.128,4185.255999999999,4155.128,0,0
415,83,0,3299,4159.615,4175.128,4181.154,4173.59,4169.231,4207.436,4163.077,4183.077,4183.718,4172.9490000000005,4171.923,4179.487,4179.487,4157.179,0,0
416,84,0,3209,4168.974,4182.436,4188.333,4183.59,4176.154,4211.538,4173.718,4180.641,4176.282,4171.026,4181.795,4181.538,4175.769,4168.333,0,0
417,85,0,2073,4169.744000000001,4184.615,4190.385,4183.974,4178.718,4216.667,4187.564,4177.436,4177.179,4176.667,4186.538,4183.077,4181.923,4172.9490000000005,0,0
418,86,0,2913,4168.59,4181.154,4186.538,4181.026,4180.385,4210.769,4171.667,4172.0509999999995,4183.077,4177.179,4179.744000000001,4180.513,4187.0509999999995,4169.359,0,0
419,87,0,3299,4167.821,4172.821,4181.667,4177.179,4179.872,4206.923,4164.103,4170.897,4182.821,4173.205,4176.538,4178.718,4183.077,4166.41,0,0
420,88,0,3209,4165.513,4170.128,4180.513,4171.795,4177.308,4210.769,4175.0,4170.0,4177.821,4174.615,4183.333,4179.744000000001,4179.487,4165.513,0,0
421,89,0,2073,4165.255999999999,4171.026,4183.077,4170.513,4180.128,4212.9490000000005,4172.692,4162.9490000000005,4175.128,4175.255999999999,4185.255999999999,4177.9490000000005,4183.462,4161.667,0,0
422,90,0,2913,4162.9490000000005,4169.487,4182.564,4173.462,4183.974,4209.615,4167.821,4164.615,4177.308,4171.923,4180.385,4173.718,4184.615,4156.667,0,0
423,91,0,3299,4162.821,4175.385,4185.0,4178.974,4185.385,4211.282,4183.462,4181.795,4184.231,4176.026,4181.154,4174.103,4184.231,4159.744000000001,0,0
424,92,0,3209,4169.231,4185.0,4193.59,4186.154,4187.179,4214.744000000001,4197.308,4190.769,4186.538,4183.59,4184.615,4180.897,4186.667,4170.0,0,0
425,93,0,2073,4172.821,4184.359,4192.9490000000005,4187.9490000000005,4188.462,4212.9490000000005,4192.308,4185.769,4180.897,4182.436,4181.923,4182.436,4187.436,4173.462,0,0
426,94,0,2913,4170.255999999999,4180.255999999999,4189.103,4185.385,4184.231,4214.103,4188.462,4186.923,4183.333,4182.308,4182.436,4178.333,4186.154,4169.231,0,0
427,95,0,3299,4169.231,4185.0,4190.128,4186.923,4184.103,4216.026,4187.821,4188.077,4189.359,4187.692,4186.154,4176.667,4186.923,4168.974,0,0
428,96,0,3209,4169.231,4187.436,4186.923,4188.462,4185.513,4208.077,4175.513,4172.308,4184.103,4182.179,4179.103,4177.179,4189.103,4167.9490000000005,0,0
429,97,0,2073,4165.897,4179.487,4180.128,4182.308,4181.923,4199.615,4169.487,4163.462,4176.795,4170.255999999999,4170.641,4173.974,4185.385,4160.769,0,0
430,98,0,2913,4163.718,4176.923,4183.333,4178.333,4181.923,4206.282,4181.282,4174.615,4181.154,4174.872,4177.692,4174.872,4184.231,4164.103,0,0
431,99,0,3299,4168.077,4183.974,4190.897,4183.59,4186.154,4214.744000000001,4189.231,4188.205,4192.9490000000005,4191.667,4190.769,4181.154,4196.538,4179.615,0,0
432,100,0,3209,4182.564,4188.462,4193.205,4192.179,4188.333,4215.513,4187.692,4195.128,4194.872,4199.487,4192.564,4185.641,4203.462,4189.103,0,0
433,101,0,2073,4189.359,4186.795,4192.436,4195.897,4186.795,4213.59,4187.9490000000005,4192.179,4187.436,4199.744000000001,4188.59,4185.641,4194.487,4187.0509999999995,0,0
434,102,0,2913,4177.0509999999995,4187.692,4188.718,4192.436,4187.692,4214.872,4188.846,4184.231,4185.0,4199.744000000001,4187.821,4184.231,4189.872,4180.385,0,0
435,103,0,3299,4163.077,4185.0,4180.897,4187.0509999999995,4188.59,4213.974,4188.462,4183.462,4186.795,4191.538,4180.255999999999,4179.359,4191.795,4167.564,0,0
436,104,0,3209,4155.769,4172.308,4177.436,4183.846,4182.308,4204.487,4184.744000000001,4183.205,4182.9490000000005,4181.154,4168.333,4173.333,4186.41,4158.077,0,0
437,105,0,2073,4152.0509999999995,4165.641,4182.436,4180.255999999999,4177.564,4201.923,4185.128,4183.718,4182.179,4182.436,4172.821,4175.0,4183.974,4163.974,0,0
438,106,0,2913,4157.308,4175.0,4185.385,4176.154,4180.513,4205.897,4187.692,4191.282,4188.846,4185.769,4182.821,4175.0,4189.615,4170.641,0,0
439,107,0,3299,4167.821,4184.872,4184.872,4179.744000000001,4184.487,4204.487,4187.0509999999995,4185.897,4186.41,4183.718,4176.538,4169.744000000001,4187.0509999999995,4166.154,0,0
440,108,0,3209,4172.179,4182.9490000000005,4187.436,4185.769,4183.846,4203.205,4189.487,4177.436,4180.897,4177.9490000000005,4168.974,4170.769,4184.231,4164.615,0,0
441,109,0,2073,4170.385,4181.41,4189.872,4186.154,4183.205,4203.974,4183.718,4180.641,4183.462,4173.333,4176.41,4174.103,4190.255999999999,4169.487,0,0
442,110,0,2913,4174.615,4186.923,4190.128,4185.897,4183.974,4200.769,4171.282,4176.795,4187.0509999999995,4177.564,4182.821,4172.821,4194.103,4171.923,0,0
443,111,0,3299,4180.255999999999,4188.333,4192.308,4187.436,4184.487,4199.231,4170.255999999999,4166.795,4181.154,4180.897,4181.923,4175.385,4190.255999999999,4172.9490000000005,0,0
444,112,0,3209,4175.0,4183.333,4191.026,4184.872,4184.231,4201.026,4172.436,4166.026,4175.769,4177.179,4182.179,4177.564,4185.769,4170.255999999999,0,0
445,113,0,2073,4171.795,4182.692,4189.231,4181.923,4185.385,4200.513,4173.462,4175.0,4181.795,4180.641,4183.462,4177.0509999999995,4187.821,4170.128,0,0
446,114,0,2913,4181.026,4186.41,4190.641,4185.255999999999,4190.255999999999,4206.282,4184.487,4178.974,4183.718,4184.487,4183.718,4178.974,4192.308,4175.769,0,0
447,115,0,3299,4181.795,4185.255999999999,4190.641,4185.513,4190.769,4211.795,4189.744000000001,4172.9490000000005,4173.205,4174.615,4183.333,4177.179,4188.974,4175.513,0,0
448,116,0,3209,4172.821,4183.462,4191.667,4183.333,4187.179,4206.667,4184.872,4173.077,4172.9490000000005,4169.744000000001,4183.333,4174.615,4185.255999999999,4175.255999999999,0,0
449,117,0,2073,4176.41,4186.795,4197.308,4190.769,4188.205,4204.744000000001,4191.154,4191.026,4192.564,4182.564,4184.744000000001,4183.205,4192.692,4184.359,0,0
450,118,0,2913,4184.872,4188.59,4196.795,4198.974,4194.615,4214.103,4206.795,4205.641,4202.821,4196.923,4193.462,4189.103,4200.0,4190.385,0,0
451,119,0,3299,4185.385,4187.308,4194.487,4199.359,4198.974,4220.255999999999,4214.231,4204.744000000001,4198.846,4201.282,4200.255999999999,4185.641,4200.128,4186.41,0,0
452,120,0,3209,4182.436,4185.769,4195.897,4193.846,4194.359,4210.897,4203.333,4202.0509999999995,4195.513,4193.462,4190.897,4181.795,4200.255999999999,4183.718,0,0
453,121,0,2073,4180.513,4182.821,4195.513,4187.9490000000005,4184.872,4200.897,4184.615,4193.718,4192.692,4187.564,4181.795,4179.231,4196.282,4184.359,0,0
454,122,0,2913,4180.769,4181.795,4196.026,4186.795,4185.385,4203.333,4183.333,4181.923,4185.641,4184.744000000001,4184.615,4178.718,4186.667,4182.308,0,0
455,123,0,3299,4181.154,4185.255999999999,4194.359,4188.846,4194.744000000001,4205.128,4188.462,4183.205,4180.641,4177.308,4182.564,4176.795,4184.872,4174.744000000001,0,0
456,124,0,3209,4177.179,4185.513,4188.205,4186.41,4195.0,4199.872,4181.538,4183.718,4183.59,4176.282,4172.9490000000005,4171.923,4189.872,4167.0509999999995,0,0
457,125,0,2073,4176.667,4183.333,4187.692,4183.462,4190.385,4199.744000000001,4179.359,4172.436,4181.923,4181.41,4171.282,4171.026,4188.333,4174.359,0,0
458,126,0,2913,4182.692,4182.9490000000005,4192.308,4186.282,4190.255999999999,4204.103,4185.769,4171.154,4169.359,4175.0,4176.41,4175.385,4183.333,4184.872,0,0
459,127,0,52,4180.897,4182.564,4192.564,4187.308,4189.103,4202.821,4183.718,4184.231,4166.282,4165.897,4181.154,4175.897,4183.205,4182.0509999999995,0,0
460,0,0,2195,4175.513,4183.59,4190.0,4186.538,4186.154,4200.897,4180.769,4189.487,4181.154,4173.974,4185.769,4175.0,4187.821,4174.615,0,0
461,1,0,2882,4171.154,4179.231,4182.9490000000005,4178.974,4184.744000000001,4201.026,4185.255999999999,4183.974,4181.538,4181.282,4180.897,4170.255999999999,4186.923,4170.128,0,0
462,2,0,3221,4166.282,4171.667,4177.564,4173.077,4184.615,4200.255999999999,4186.282,4183.59,4169.231,4174.744000000001,4170.385,4166.667,4180.897,4166.923,0,0
463,3,0,2963,4168.974,4173.59,4182.564,4179.231,4184.615,4196.795,4175.385,4187.308,4178.462,4176.667,4173.974,4174.103,4182.436,4169.359,0,0
464,4,0,3595,4171.923,4182.308,4188.333,4183.59,4185.0,4196.026,4169.359,4186.923,4187.436,4186.923,4185.769,4182.179,4189.359,4180.0,0,0
465,5,0,2996,4171.026,4184.872,4188.974,4180.897,4183.718,4196.923,4177.564,4180.385,4177.821,4182.9490000000005,4187.0509999999995,4179.231,4187.821,4181.795,0,0
466,6,0,3265,4175.769,4184.359,4190.641,4181.923,4183.718,4192.436,4180.513,4175.641,4173.974,4175.0,4182.436,4176.795,4181.154,4175.128,0,0
467,7,0,3238,4180.128,4186.026,4190.769,4185.255999999999,4184.231,4187.308,4171.41,4179.103,4181.154,4182.179,4184.615,4179.744000000001,4183.205,4177.308,0,0
468,8,0,2899,4173.718,4184.231,4189.359,4183.59,4181.667,4186.667,4167.9490000000005,4178.205,4183.718,4187.179,4188.462,4180.769,4187.308,4185.0,0,0
469,9,0,3565,4170.641,4182.179,4187.564,4182.692,4180.897,4187.179,4170.128,4170.0,4180.769,4183.077,4188.333,4177.564,4185.0,4182.179,0,0
470,10,0,2914,4170.641,4184.231,4180.0,4183.974,4184.231,4187.692,4172.436,4165.897,4171.923,4181.795,4185.385,4174.359,4181.667,4171.026,0,0
471,11,0,3300,4167.308,4184.744000000001,4178.718,4186.154,4186.667,4188.974,4172.0509999999995,4170.255999999999,4166.154,4180.897,4182.179,4174.615,4181.282,4165.641,0,0
472,12,0,3209,4175.385,4185.513,4185.128,4188.205,4186.41,4187.692,4170.255999999999,4179.872,4175.641,4182.436,4184.359,4175.641,4182.308,4172.179,0,0
473,13,0,2071,4186.667,4191.41,4189.487,4188.205,4188.462,4188.974,4179.744000000001,4187.692,4184.487,4186.667,4187.821,4177.821,4183.077,4182.308,0,0
474,14,0,2914,4185.513,4193.974,4189.615,4188.333,4189.872,4190.255999999999,4188.718,4189.872,4183.205,4188.077,4188.333,4179.872,4183.333,4184.872,0,0
475,15,0,3300,4184.103,4188.205,4187.564,4186.41,4186.41,4185.513,4177.0509999999995,4188.462,4179.872,4186.923,4187.9490000000005,4181.154,4184.487,4184.615,0,0
476,16,0,0,4182.0509999999995,4185.255999999999,4181.795,4182.564,4183.077,4184.231,4169.231,4187.564,4178.462,4184.487,4187.0509999999995,4178.974,4183.462,4186.026,0,0
477,17,0,0,4178.59,4186.923,4182.564,4183.333,4183.077,4187.564,4178.718,4187.308,4180.513,4182.436,4186.538,4177.821,4179.615,4184.487,0,0
478,18,0,0,4182.308,4181.41,4188.333,4181.923,4184.359,4187.308,4178.077,4183.846,4183.974,4186.667,4186.923,4178.59,4180.897,4184.231,0,0
479,19,0,0,4181.795,4175.641,4185.513,4176.538,4181.282,4185.897,4169.615,4174.231,4178.205,4184.872,4184.359,4177.308,4182.308,4182.564,0,0
480,20,0,0,4174.487,4180.255999999999,4181.923,4178.59,4180.897,4185.0,4176.282,4163.205,4167.9490000000005,4172.0509999999995,4180.385,4172.436,4173.077,4176.154,0,0
481,21,0,0,4178.59,4186.795,4182.9490000000005,4185.897,4192.308,4187.436,4183.205,4161.538,4165.255999999999,4167.0509999999995,4183.077,4170.128,4166.795,4176.795,0,0
482,22,0,0,4185.897,4186.41,4181.026,4186.154,4198.718,4191.795,4182.179,4165.0,4165.255999999999,4172.692,4187.0509999999995,4173.205,4174.487,4185.513,0,0
483,23,0,0,4184.487,4184.359,4183.333,4182.9490000000005,4191.795,4191.795,4184.487,4168.462,4166.538,4178.974,4187.692,4178.077,4182.821,4188.59,0,0
484,24,0,0,4186.154,4186.41,4188.333,4184.231,4187.436,4188.846,4183.205,4169.487,4169.615,4183.205,4192.179,4180.897,4183.205,4187.564,0,0
485,25,0,0,4187.692,4186.667,4186.923,4185.513,4190.385,4187.9490000000005,4176.667,4168.205,4168.077,4183.718,4193.333,4176.923,4181.795,4189.103,0,0
486,26,0,0,4183.718,4186.41,4186.538,4185.255999999999,4189.359,4187.0509999999995,4173.974,4177.179,4172.9490000000005,4182.821,4185.769,4174.487,4182.0509999999995,4183.462,0,0
487,27,0,0,4184.103,4185.897,4190.255999999999,4187.308,4185.641,4184.615,4176.154,4191.667,4184.231,4187.9490000000005,4183.974,4176.026,4185.897,4173.462,0,0
488,28,0,0,4180.513,4183.205,4186.538,4188.077,4184.487,4184.231,4176.026,4185.513,4179.359,4190.769,4183.59,4170.641,4184.872,4166.923,0,0
489,29,0,0,4168.077,4182.821,4180.255999999999,4184.231,4185.385,4185.513,4175.0,4167.692,4166.538,4182.692,4175.0,4162.0509999999995,4177.692,4159.872,0,0
490,30,0,0,4165.128,4184.359,4178.846,4180.769,4186.667,4185.897,4174.231,4163.077,4167.179,4173.205,4170.385,4161.923,4172.821,4158.462,0,0
491,31,0,0,4168.077,4183.846,4176.154,4181.923,4183.974,4183.846,4169.487,4160.0,4166.923,4168.718,4170.897,4164.231,4172.692,4164.359,0,0
492,32,0,0,4170.385,4182.9490000000005,4177.692,4183.077,4183.974,4182.308,4164.359,4159.615,4167.0509999999995,4174.744000000001,4171.923,4167.9490000000005,4177.821,4171.026,0,0
493,33,0,0,4178.333,4186.154,4182.564,4183.462,4187.179,4184.615,4167.436,4176.026,4180.513,4185.0,4179.103,4174.231,4185.0,4174.615,0,0
494,34,0,0,4185.0,4189.231,4185.641,4185.128,4186.923,4186.538,4179.359,4189.359,4187.692,4189.487,4186.667,4174.872,4189.231,4179.615,0,0
495,35,0,0,4182.0509999999995,4189.615,4186.795,4186.154,4189.872,4186.667,4186.795,4190.0,4185.897,4195.385,4186.795,4175.128,4191.026,4179.103,0,0
496,36,0,0,4181.282,4187.821,4187.308,4186.41,4198.205,4191.41,4186.795,4191.41,4190.255999999999,4201.923,4185.641,4179.103,4191.154,4174.487,0,0
497,37,0,0,4185.128,4187.9490000000005,4187.821,4185.897,4199.359,4195.385,4184.872,4187.9490000000005,4186.282,4195.641,4186.538,4175.128,4187.0509999999995,4177.9490000000005,0,0
498,38,0,0,4185.128,4191.538,4188.846,4184.872,4192.0509999999995,4190.513,4183.974,4179.615,4175.641,4183.846,4187.0509999999995,4171.667,4183.846,4183.077,0,0
499,39,0,0,4185.255999999999,4192.9490000000005,4189.487,4187.436,4189.872,4186.282,4194.744000000001,4186.538,4180.641,4186.795,4188.462,4176.026,4187.9490000000005,4185.769,0,0
500,40,0,0,4186.538,4189.487,4186.667,4188.462,4190.641,4187.0509999999995,4196.154,4190.385,4185.769,4187.436,4186.41,4175.769,4185.128,4182.564,0,0
501,41,0,0,4184.359,4184.231,4182.179,4183.974,4186.41,4185.513,4178.462,4171.41,4172.692,4172.564,4182.436,4172.179,4173.718,4173.974,0,0
502,42,0,0,4182.179,4183.333,4178.974,4182.692,4181.41,4183.077,4172.692,4162.0509999999995,4167.436,4167.564,4183.205,4173.974,4172.564,4173.077,0,0
503,43,0,0,4183.333,4185.769,4178.974,4182.308,4180.897,4183.718,4184.615,4180.128,4179.487,4180.641,4187.564,4177.436,4182.308,4181.667,0,0
504,44,0,0,4183.333,4181.282,4179.615,4174.359,4181.154,4183.974,4187.179,4192.564,4186.795,4186.795,4190.513,4179.231,4185.769,4185.128,0,0
505,45,0,0,4178.59,4173.077,4179.487,4167.821,4180.385,4184.359,4181.667,4188.205,4186.026,4184.615,4190.0,4180.0,4184.359,4181.026,0,0
506,46,0,0,4172.9490000000005,4171.282,4179.872,4169.872,4181.667,4185.255999999999,4182.308,4185.769,4185.897,4184.615,4189.359,4174.872,4189.231,4180.513,0,0
507,47,0,0,4169.744000000001,4170.128,4178.077,4175.513,4182.436,4183.59,4185.128,4186.41,4181.795,4177.821,4186.154,4169.231,4185.255999999999,4173.846,0,0
508,48,0,0,4173.333,4170.255999999999,4179.103,4181.41,4182.0509999999995,4183.462,4187.436,4183.462,4176.795,4167.9490000000005,4176.667,4171.026,4171.667,4166.795,0,0
509,49,0,0,4182.9490000000005,4180.255999999999,4188.462,4185.897,4183.718,4183.333,4187.9490000000005,4182.564,4179.744000000001,4171.154,4172.436,4175.385,4174.744000000001,4174.615,0,0
510,50,0,0,4188.718,4188.077,4192.821,4185.897,4185.0,4182.564,4186.41,4188.974,4187.179,4176.026,4178.077,4175.769,4185.385,4183.333,0,0
511,51,0,0,4186.923,4185.897,4188.59,4185.255999999999,4185.128,4183.974,4185.897,4192.692,4187.179,4174.231,4183.718,4178.077,4183.718,4182.0509999999995,0,0
512,52,0,0,4184.359,4179.615,4186.538,4185.0,4184.103,4183.846,4182.179,4184.231,4176.026,4173.077,4183.333,4177.9490000000005,4180.255999999999,4178.718,0,0
513,53,0,0,4184.359,4178.333,4188.077,4183.59,4182.0509999999995,4183.205,4182.0509999999995,4177.308,4168.718,4170.769,4181.154,4171.923,4181.667,4181.538,0,0
514,54,0,0,4186.795,4185.0,4186.923,4183.974,4183.333,4187.821,4194.231,4190.769,4178.462,4174.615,4182.436,4170.513,4182.9490000000005,4180.897,0,0
515,55,0,0,4182.821,4185.385,4183.205,4185.128,4184.872,4191.41,4205.897,4198.846,4183.846,4182.9490000000005,4182.0509999999995,4175.897,4185.513,4173.718,0,0
516,56,0,0,4170.769,4173.462,4179.615,4179.487,4176.667,4184.231,4186.154,4181.41,4172.821,4176.026,4173.846,4173.462,4182.308,4166.795,0,0
517,57,0,0,4166.923,4168.205,4177.564,4172.564,4166.538,4178.846,4156.667,4172.436,4171.538,4166.923,4167.821,4168.333,4175.769,4165.769,0,0
518,58,0,0,4171.282,4172.564,4179.359,4173.333,4172.0509999999995,4183.205,4163.205,4185.641,4182.564,4173.205,4172.9490000000005,4173.974,4180.128,4170.128,0,0
519,59,0,0,4170.255999999999,4170.255999999999,4181.026,4177.564,4182.436,4185.641,4185.769,4196.41,4183.59,4175.128,4176.41,4177.692,4185.897,4172.0509999999995,0,0
520,60,0,0,4174.487,4172.179,4183.59,4181.154,4185.255999999999,4188.205,4194.872,4198.205,4180.897,4171.538,4178.59,4178.59,4183.59,4177.564,0,0
521,61,0,0,4187.821,4181.282,4188.333,4185.128,4185.769,4194.103,4199.744000000001,4204.487,4185.385,4181.154,4192.821,4184.231,4182.436,4193.462,0,0
522,62,0,0,4190.385,4180.0,4189.487,4184.359,4186.667,4192.692,4201.282,4206.154,4185.897,4187.9490000000005,4199.231,4186.282,4184.744000000001,4201.41,0,0
523,63,0,0,4184.231,4172.308,4187.821,4181.41,4185.769,4186.667,4198.462,4200.641,4185.255999999999,4184.487,4190.769,4180.769,4186.154,4190.641,0,0
524,64,0,2197,4183.59,4172.0509999999995,4190.513,4184.103,4185.897,4187.692,4196.026,4197.436,4184.359,4184.872,4181.667,4178.718,4181.667,4182.0509999999995,0,0
525,65,0,2885,4182.179,4174.359,4188.846,4181.923,4186.538,4189.231,4189.487,4191.538,4175.385,4183.718,4176.41,4179.744000000001,4176.667,4184.487,0,0
526,66,0,3221,4180.641,4172.692,4183.205,4176.026,4185.128,4183.846,4188.205,4187.821,4173.333,4179.615,4178.077,4177.308,4181.282,4184.231,0,0
527,67,0,2968,4182.179,4172.436,4182.564,4179.231,4186.795,4183.974,4198.333,4193.462,4182.821,4181.923,4185.128,4175.769,4186.026,4182.9490000000005,0,0
528,68,0,3595,4182.436,4173.59,4183.462,4185.513,4190.897,4195.769,4206.154,4201.154,4188.333,4186.923,4187.0509999999995,4178.333,4183.333,4185.385,0,0
529,69,0,2996,4181.154,4172.821,4182.9490000000005,4179.744000000001,4190.513,4197.308,4204.744000000001,4202.9490000000005,4184.487,4187.0509999999995,4183.205,4180.897,4181.667,4186.667,0,0
530,70,0,3262,4181.282,4169.231,4187.308,4169.615,4186.154,4188.59,4193.718,4202.436,4181.538,4185.769,4183.846,4183.59,4183.974,4187.0509999999995,0,0
531,71,0,3234,4183.974,4167.179,4189.487,4171.026,4184.744000000001,4189.359,4183.077,4201.795,4183.333,4189.103,4184.872,4182.436,4186.026,4189.103,0,0
532,72,0,2899,4180.641,4170.128,4182.564,4174.615,4186.154,4192.821,4184.487,4200.513,4184.359,4190.385,4180.769,4176.41,4186.154,4184.615,0,0
533,73,0,3570,4172.436,4172.0509999999995,4176.41,4170.255999999999,4185.0,4187.179,4186.154,4195.385,4181.923,4183.974,4178.333,4174.231,4182.179,4173.333,0,0
534,74,0,2921,4173.846,4169.744000000001,4177.436,4167.308,4183.333,4182.0509999999995,4178.333,4193.718,4180.385,4182.308,4180.641,4176.154,4181.41,4170.128,0,0
535,75,0,3305,4180.641,4173.077,4183.462,4174.487,4183.077,4183.718,4183.333,4195.897,4181.41,4184.615,4183.59,4180.0,4185.0,4178.333,0,0
536,76,0,3209,4186.667,4182.692,4189.359,4183.333,4188.846,4190.128,4200.897,4200.255999999999,4183.077,4187.564,4184.615,4183.462,4185.513,4187.9490000000005,0,0
537,77,0,2068,4194.359,4189.487,4192.821,4187.308,4200.0,4197.564,4203.333,4210.0,4187.0509999999995,4194.359,4188.846,4183.846,4186.154,4191.923,0,0
538,78,0,2921,4194.744000000001,4188.974,4190.255999999999,4186.41,4200.513,4192.821,4191.41,4205.641,4187.308,4194.359,4186.026,4178.846,4188.077,4190.255999999999,0,0
539,79,0,3305,4184.359,4183.205,4183.59,4182.436,4187.9490000000005,4182.436,4182.564,4184.615,4182.0509999999995,4184.872,4176.41,4175.128,4187.0509999999995,4184.231,0,0
540,80,0,3209,4183.974,4184.103,4179.231,4181.154,4183.846,4184.231,4184.872,4184.103,4180.128,4181.41,4177.692,4175.128,4185.641,4183.718,0,0
541,81,0,2068,4190.255999999999,4192.0509999999995,4182.9490000000005,4183.59,4190.769,4188.59,4193.205,4202.692,4183.846,4188.333,4186.026,4178.59,4185.641,4193.333,0,0
542,82,0,2921,4188.077,4192.308,4189.103,4186.667,4190.641,4186.154,4196.795,4204.231,4186.538,4197.564,4185.897,4181.282,4186.667,4198.077,0,0
543,83,0,3305,4191.154,4188.205,4190.255999999999,4185.769,4187.436,4183.59,4192.436,4197.436,4186.538,4199.487,4181.667,4179.103,4190.897,4195.385,0,0
544,84,0,3209,4194.744000000001,4191.538,4187.821,4183.718,4192.308,4184.487,4189.359,4201.538,4185.769,4192.0509999999995,4183.333,4179.103,4192.564,4194.744000000001,0,0
545,85,0,2068,4188.718,4191.538,4186.667,4183.333,4192.436,4186.282,4190.513,4205.641,4187.179,4187.821,4184.103,4183.333,4187.436,4198.59,0,0
546,86,0,2921,4185.0,4180.641,4185.513,4180.513,4185.255999999999,4185.385,4188.077,4206.026,4188.462,4190.513,4177.692,4180.897,4182.436,4199.744000000001,0,0
547,87,0,3305,4186.667,4177.436,4184.103,4177.0509999999995,4184.231,4182.0509999999995,4183.974,4198.59,4186.282,4186.795,4169.744000000001,4177.308,4180.897,4194.744000000001,0,0
548,88,0,3209,4183.718,4184.615,4185.641,4179.359,4185.513,4180.385,4182.0509999999995,4187.436,4184.615,4182.564,4171.795,4178.59,4183.462,4192.436,0,0
549,89,0,2068,4185.641,4187.308,4188.462,4184.487,4186.154,4185.0,4188.205,4186.41,4182.821,4188.718,4181.282,4178.846,4187.308,4196.282,0,0
550,90,0,2921,4194.103,4186.282,4190.385,4186.41,4192.821,4187.821,4201.41,4197.564,4182.308,4197.0509999999995,4185.385,4178.974,4185.769,4202.436,0,0
551,91,0,3305,4191.795,4187.308,4191.026,4186.41,4200.769,4187.436,4204.872,4214.744000000001,4191.538,4200.641,4185.128,4180.128,4187.9490000000005,4203.462,0,0
552,92,0,3209,4188.846,4185.769,4189.103,4184.231,4199.872,4191.154,4196.795,4214.103,4195.255999999999,4199.231,4181.923,4182.564,4195.255999999999,4198.59,0,0
553,93,0,2068,4196.026,4186.41,4188.59,4184.744000000001,4198.59,4194.359,4200.255999999999,4205.897,4190.255999999999,4199.615,4183.462,4186.41,4195.385,4200.385,0,0
554,94,0,2921,4200.769,4190.641,4193.846,4191.538,4202.179,4192.308,4212.821,4217.179,4194.744000000001,4205.128,4193.974,4192.0509999999995,4193.846,4213.974,0,0
555,95,0,3305,4200.513,4190.385,4195.0,4190.769,4197.564,4187.9490000000005,4200.255999999999,4210.769,4196.41,4205.255999999999,4196.026,4192.9490000000005,4199.231,4216.923,0,0
556,96,0,3209,4200.769,4192.564,4191.795,4185.513,4191.282,4186.026,4178.205,4179.872,4186.282,4198.974,4186.154,4189.103,4199.744000000001,4206.667,0,0
557,97,0,2068,4204.359,4201.923,4192.0509999999995,4193.846,4197.692,4188.077,4190.769,4182.9490000000005,4183.846,4197.436,4185.769,4184.615,4192.564,4208.974,0,0
558,98,0,2921,4211.41,4205.897,4194.359,4204.615,4205.385,4190.385,4206.667,4207.179,4188.718,4201.538,4194.103,4183.846,4194.615,4219.487,0,0
559,99,0,3305,4214.872,4202.308,4196.154,4201.154,4201.41,4186.41,4190.385,4201.282,4184.487,4199.872,4190.128,4185.0,4195.897,4218.205,0,0
560,100,0,3209,4215.385,4202.308,4198.846,4198.974,4198.59,4183.846,4185.897,4196.026,4183.974,4197.0509999999995,4187.564,4184.487,4192.821,4216.538,0,0
561,101,0,2068,4216.282,4202.179,4197.564,4199.615,4201.538,4187.0509999999995,4202.9490000000005,4211.026,4194.872,4201.41,4196.795,4185.255999999999,4194.103,4221.154,0,0
562,102,0,2921,4209.872,4199.231,4193.333,4190.769,4198.718,4185.128,4197.179,4211.923,4196.923,4205.0,4194.487,4186.538,4193.59,4215.255999999999,0,0
563,103,0,3305,4200.897,4197.0509999999995,4192.692,4184.872,4198.846,4182.821,4180.128,4193.077,4188.077,4199.872,4184.615,4182.179,4190.0,4204.744000000001,0,0
564,104,0,3209,4199.359,4189.744000000001,4192.692,4186.154,4198.333,4183.846,4182.308,4182.692,4180.769,4188.974,4185.128,4178.59,4187.0509999999995,4201.795,0,0
565,105,0,2068,4200.255999999999,4184.359,4193.462,4185.769,4190.255999999999,4183.718,4190.513,4192.0509999999995,4182.9490000000005,4188.333,4191.154,4185.128,4186.667,4206.154,0,0
566,106,0,2921,4199.231,4186.41,4195.641,4186.154,4188.205,4182.821,4191.667,4199.744000000001,4186.538,4194.744000000001,4190.769,4188.846,4186.154,4206.026,0,0
567,107,0,3305,4196.667,4186.154,4194.872,4187.0509999999995,4190.641,4183.846,4189.103,4196.667,4185.385,4191.795,4186.538,4181.795,4188.59,4200.0,0,0
568,108,0,3209,4192.0509999999995,4182.179,4192.821,4185.128,4188.333,4183.846,4185.0,4190.769,4182.179,4182.179,4184.231,4177.692,4187.821,4196.795,0,0
569,109,0,2068,4198.846,4188.205,4195.897,4190.255999999999,4188.205,4182.436,4190.385,4195.255999999999,4182.436,4183.077,4189.487,4183.205,4183.205,4199.359,0,0
570,110,0,2921,4211.41,4200.769,4195.641,4199.744000000001,4193.077,4185.385,4201.282,4211.923,4188.59,4193.974,4200.513,4186.923,4190.0,4207.692,0,0
571,111,0,3305,4212.692,4204.359,4193.462,4200.897,4189.231,4183.077,4196.923,4209.487,4189.103,4198.205,4199.487,4186.538,4196.795,4213.462,0,0
572,112,0,3209,4221.795,4208.462,4197.9490000000005,4200.385,4183.718,4172.179,4179.103,4185.769,4183.718,4195.0,4197.821,4186.795,4192.692,4222.692,0,0
573,113,0,2068,4254.872,4232.179,4207.821,4210.897,4190.769,4171.795,4175.641,4184.487,4183.205,4200.769,4215.641,4192.9490000000005,4193.077,4249.103,0,0
574,114,0,2921,4289.231,4258.077,4214.487,4227.564,4200.128,4182.9490000000005,4187.821,4201.667,4186.923,4210.255999999999,4234.744000000001,4201.667,4196.667,4283.974,0,0
575,115,0,3305,4309.872,4264.359,4213.846,4232.179,4200.385,4185.513,4188.974,4199.872,4184.744000000001,4206.923,4238.718,4205.128,4190.128,4305.0,0,0
576,116,0,3209,4334.103,4269.231,4213.718,4230.128,4199.872,4181.282,4185.897,4204.872,4187.436,4205.641,4240.641,4205.128,4190.897,4320.897,0,0
577,117,0,2068,4363.846,4287.179,4222.0509999999995,4239.872,4202.821,4183.974,4193.846,4219.615,4193.974,4216.41,4252.821,4210.385,4200.897,4347.692,0,0
578,118,0,2921,4378.59,4298.077,4227.564,4252.436,4204.231,4186.282,4203.462,4208.205,4188.718,4216.154,4261.538,4211.667,4194.487,4364.359,0,0
579,119,0,3305,4377.821,4296.282,4223.846,4250.641,4209.103,4187.436,4204.872,4204.872,4190.513,4213.205,4263.205,4209.103,4188.205,4363.205,0,0
580,120,0,3209,4375.769,4295.385,4223.333,4246.41,4215.255999999999,4191.795,4202.179,4224.359,4204.231,4228.462,4271.538,4215.0,4201.795,4366.026,0,0
581,121,0,2068,4371.667,4291.154,4223.846,4249.231,4214.615,4191.154,4198.846,4227.564,4206.923,4240.128,4280.255999999999,4218.333,4207.0509999999995,4367.436,0,0
582,122,0,2921,4357.179,4281.923,4217.308,4245.897,4211.41,4189.231,4199.487,4210.897,4201.154,4230.385,4272.821,4212.436,4199.744000000001,4350.513,0,0
583,123,0,3305,4335.385,4270.897,4208.333,4237.308,4206.667,4189.231,4199.359,4202.308,4198.59,4220.128,4252.692,4206.41,4201.923,4330.513,0,0
584,124,0,3209,4313.974,4255.385,4202.179,4227.821,4200.0,4186.026,4193.077,4202.308,4193.59,4214.103,4237.308,4201.026,4199.744000000001,4308.59,0,0
585,125,0,2068,4292.564,4240.897,4201.538,4217.179,4197.821,4182.821,4193.846,4200.0,4186.026,4203.846,4229.359,4193.333,4186.154,4283.205,0,0
586,126,0,2921,4278.59,4232.821,4203.462,4213.462,4200.513,4185.385,4205.769,4199.103,4185.513,4198.846,4227.9490000000005,4193.718,4186.41,4271.667,0,0
587,127,0,52,4275.0,4230.641,4201.667,4218.205,4205.385,4187.564,4208.205,4201.538,4191.282,4207.436,4228.205,4195.897,4198.59,4271.667,0,0
588,0,0,2195,4270.128,4232.821,4202.9490000000005,4221.795,4214.103,4189.103,4199.231,4207.308,4198.846,4215.897,4222.692,4193.974,4200.0,4263.59,0,0
589,1,0,2889,4256.923,4229.744000000001,4203.846,4217.9490000000005,4213.974,4193.077,4200.128,4205.128,4198.718,4213.205,4215.769,4194.359,4196.41,4252.821,0,0
590,2,0,3216,4247.9490000000005,4218.59,4198.974,4214.231,4204.872,4191.795,4207.0509999999995,4200.0,4197.308,4210.0,4214.744000000001,4194.744000000001,4202.0509999999995,4245.513,0,0
591,3,0,2963,4243.846,4213.846,4195.513,4210.385,4200.128,4186.154,4201.154,4204.359,4200.769,4208.59,4214.615,4192.692,4201.026,4236.154,0,0
592,4,0,3595,4236.282,4218.205,4196.026,4203.974,4199.487,4182.179,4184.487,4198.205,4194.103,4203.205,4207.436,4190.0,4191.667,4232.564,0,0
593,5,0,3000,4230.769,4216.154,4194.615,4202.0509999999995,4200.769,4182.9490000000005,4179.615,4185.128,4184.744000000001,4201.154,4200.641,4186.282,4189.231,4231.41,0,0
594,6,0,3266,4225.897,4207.308,4190.513,4203.846,4198.077,4185.897,4194.487,4190.641,4185.641,4201.282,4200.769,4183.205,4189.872,4223.718,0,0
595,7,0,3234,4212.9490000000005,4197.564,4184.359,4198.077,4187.564,4180.128,4197.692,4203.462,4186.026,4193.077,4197.0509999999995,4179.103,4186.41,4209.872,0,0
596,8,0,2899,4200.128,4189.872,4179.615,4189.487,4181.41,4171.154,4184.359,4201.154,4184.615,4185.769,4187.9490000000005,4173.205,4183.59,4200.513,0,0
597,9,0,3569,4193.974,4184.231,4177.308,4182.308,4185.0,4172.9490000000005,4185.128,4196.795,4186.795,4188.974,4184.744000000001,4174.359,4186.923,4199.615,0,0
598,10,0,2921,4188.205,4177.179,4175.641,4174.744000000001,4185.255999999999,4176.795,4191.923,4196.154,4187.0509999999995,4188.974,4186.41,4175.513,4187.9490000000005,4191.667,0,0
599,11,0,3299,4180.641,4172.0509999999995,4177.308,4173.718,4181.41,4173.333,4184.615,4185.513,4184.615,4184.744000000001,4183.077,4170.128,4187.308,4181.795,0,0
600,12,0,3207,4174.487,4172.692,4177.179,4174.103,4178.846,4171.667,4180.513,4182.0509999999995,4185.513,4185.0,4179.615,4168.974,4188.718,4183.462,0,0
601,13,0,2070,4169.872,4170.385,4173.462,4167.308,4173.333,4173.59,4186.923,4194.872,4186.923,4187.308,4181.538,4173.333,4187.0509999999995,4182.564,0,0
602,14,0,2921,4163.59,4162.0509999999995,4173.462,4164.231,4170.513,4174.872,4186.923,4202.436,4188.205,4191.282,4186.41,4169.615,4190.385,4173.846,0,0
603,15,0,3299,4157.0509999999995,4157.179,4175.0,4167.436,4172.179,4173.462,4186.026,4201.026,4189.615,4192.0509999999995,4182.179,4162.179,4196.667,4168.59,0,0
604,16,0,0,4152.564,4157.436,4169.744000000001,4165.769,4169.359,4169.103,4184.615,4195.255999999999,4187.821,4186.154,4170.513,4160.0,4192.564,4161.538,0,0
605,17,0,0,4152.308,4162.821,4169.872,4166.538,4169.744000000001,4172.564,4184.231,4190.513,4183.974,4180.769,4165.769,4162.436,4184.744000000001,4156.538,0,0
606,18,0,0,4160.513,4169.615,4177.9490000000005,4173.333,4180.897,4183.718,4192.692,4191.795,4184.615,4182.436,4170.0,4164.359,4187.436,4161.795,0,0
607,19,0,0,4168.462,4169.487,4180.385,4171.667,4182.564,4184.872,4191.282,4188.59,4186.41,4181.538,4171.795,4163.333,4188.846,4164.359,0,0
608,20,0,0,4170.769,4173.974,4178.077,4170.255999999999,4175.385,4180.385,4182.692,4180.641,4183.718,4178.333,4170.128,4161.795,4184.744000000001,4164.487,0,0
609,21,0,0,4177.308,4183.846,4180.897,4180.0,4180.385,4183.205,4186.923,4182.692,4183.205,4182.308,4170.385,4167.692,4189.103,4171.923,0,0
610,22,0,0,4187.692,4185.255999999999,4184.231,4188.077,4187.179,4183.59,4190.897,4188.333,4187.0509999999995,4188.974,4172.436,4171.795,4193.205,4175.385,0,0
611,23,0,0,4183.718,4183.205,4181.795,4186.667,4185.385,4175.897,4183.846,4183.333,4183.462,4184.487,4171.667,4165.769,4188.077,4173.59,0,0
612,24,0,0,4170.255999999999,4182.9490000000005,4179.359,4179.231,4183.333,4172.0509999999995,4180.897,4181.538,4177.564,4171.923,4164.615,4161.538,4181.41,4170.0,0,0
613,25,0,0,4167.0509999999995,4173.333,4178.333,4172.9490000000005,4179.487,4173.077,4184.359,4189.744000000001,4179.487,4168.718,4161.026,4164.872,4177.564,4162.692,0,0
614,26,0,0,4168.205,4163.974,4178.718,4171.282,4174.744000000001,4172.308,4185.513,4199.103,4182.821,4170.769,4164.744000000001,4168.974,4172.692,4161.667,0,0
615,27,0,0,4167.564,4168.462,4180.385,4175.385,4180.641,4172.564,4186.41,4204.487,4182.436,4172.436,4172.564,4171.026,4168.077,4168.205,0,0
616,28,0,0,4171.795,4172.436,4184.103,4181.667,4186.282,4174.231,4185.641,4192.0509999999995,4177.9490000000005,4177.692,4182.0509999999995,4174.744000000001,4173.333,4176.795,0,0
617,29,0,0,4180.641,4170.513,4188.077,4185.513,4183.462,4171.923,4184.872,4188.846,4179.359,4184.359,4187.821,4175.385,4182.436,4183.846,0,0
618,30,0,0,4184.231,4175.769,4187.179,4186.282,4184.615,4170.769,4186.667,4203.333,4182.821,4185.255999999999,4187.0509999999995,4175.513,4183.333,4187.692,0,0
619,31,0,0,4180.769,4182.308,4181.538,4185.385,4188.718,4171.282,4181.923,4190.0,4174.615,4183.333,4187.692,4177.436,4181.795,4188.974,0,0
620,32,0,0,4173.974,4175.897,4182.564,4185.897,4187.0509999999995,4168.974,4178.462,4170.385,4167.821,4183.462,4191.923,4177.436,4185.769,4188.205,0,0
621,33,0,0,4167.436,4169.231,4187.821,4184.103,4185.255999999999,4170.128,4186.923,4181.538,4172.308,4183.462,4185.641,4174.359,4185.255999999999,4182.564,0,0
622,34,0,0,4171.667,4177.692,4189.744000000001,4186.923,4190.128,4170.897,4183.077,4188.462,4172.564,4182.821,4180.641,4174.744000000001,4180.641,4181.795,0,0
623,35,0,0,4183.205,4186.795,4188.59,4197.564,4198.077,4171.41,4180.0,4185.255999999999,4173.205,4183.718,4191.667,4180.897,4182.9490000000005,4192.436,0,0
624,36,0,0,4188.846,4188.846,4189.615,4200.128,4200.769,4180.641,4201.795,4200.769,4184.615,4192.179,4201.026,4182.9490000000005,4186.923,4200.385,0,0
625,37,0,0,4197.692,4196.667,4190.641,4198.077,4198.077,4182.436,4200.0,4202.821,4184.872,4196.41,4197.0509999999995,4179.487,4183.974,4205.513,0,0
626,38,0,0,4224.487,4214.744000000001,4193.718,4208.333,4197.179,4171.154,4172.0509999999995,4191.154,4183.205,4196.795,4201.282,4183.718,4185.255999999999,4226.154,0,0
627,39,0,0,4263.59,4237.564,4202.0509999999995,4224.103,4200.385,4171.795,4177.821,4205.385,4195.641,4209.487,4223.59,4194.615,4195.0,4262.821,0,0
628,40,0,0,4301.282,4260.255999999999,4209.359,4234.231,4203.846,4179.744000000001,4197.564,4208.205,4195.385,4216.538,4235.128,4197.9490000000005,4194.487,4297.0509999999995,0,0
629,41,0,0,4332.9490000000005,4280.385,4212.9490000000005,4243.59,4208.462,4173.718,4184.359,4183.718,4182.0509999999995,4203.333,4232.9490000000005,4197.0509999999995,4185.0,4320.769,0,0
630,42,0,0,4358.462,4295.513,4214.359,4251.923,4215.769,4172.692,4176.154,4183.59,4181.923,4200.0,4239.872,4201.795,4184.103,4337.0509999999995,0,0
631,43,0,0,4369.487,4300.385,4213.974,4251.795,4216.282,4180.128,4191.282,4204.231,4188.846,4211.538,4247.308,4203.846,4188.462,4340.769,0,0
632,44,0,0,4358.846,4288.846,4208.333,4245.0,4205.769,4175.255999999999,4190.0,4195.0,4184.615,4206.026,4237.0509999999995,4197.692,4184.487,4333.59,0,0
633,45,0,0,4344.872,4277.0509999999995,4205.0,4241.795,4199.615,4174.103,4187.179,4178.59,4179.359,4195.255999999999,4228.846,4194.487,4180.0,4326.667,0,0
634,46,0,0,4341.282,4281.026,4206.41,4242.564,4203.205,4180.385,4193.462,4191.154,4184.615,4201.41,4235.385,4194.103,4183.205,4322.308,0,0
635,47,0,0,4336.923,4282.9490000000005,4207.179,4240.641,4203.718,4177.9490000000005,4191.667,4203.205,4189.103,4201.538,4230.897,4192.9490000000005,4184.744000000001,4312.564,0,0
636,48,0,0,4321.026,4269.872,4205.255999999999,4237.436,4198.462,4170.0,4190.513,4197.9490000000005,4185.255999999999,4187.821,4217.692,4189.103,4181.795,4296.282,0,0
637,49,0,0,4299.487,4257.564,4199.615,4232.308,4197.9490000000005,4171.667,4198.205,4193.59,4180.897,4182.692,4211.538,4184.231,4181.154,4276.667,0,0
638,50,0,0,4280.513,4249.487,4194.359,4223.077,4198.333,4177.821,4201.282,4198.077,4190.385,4190.0,4207.179,4182.564,4186.154,4259.744000000001,0,0
639,51,0,0,4262.308,4232.564,4192.9490000000005,4215.128,4192.564,4176.026,4197.692,4207.0509999999995,4200.255999999999,4191.923,4201.795,4182.821,4188.333,4247.308,0,0
640,52,0,0,4243.333,4216.538,4187.179,4210.385,4188.333,4170.513,4190.769,4200.385,4193.59,4189.103,4198.462,4177.564,4186.795,4233.205,0,0
641,53,0,0,4229.615,4214.231,4181.923,4203.462,4187.179,4168.846,4184.231,4179.744000000001,4182.9490000000005,4186.923,4197.692,4172.9490000000005,4186.923,4220.513,0,0
642,54,0,0,4220.897,4213.077,4187.308,4199.615,4185.0,4172.179,4189.615,4183.974,4186.667,4186.667,4196.667,4175.385,4187.564,4212.564,0,0
643,55,0,0,4208.974,4204.487,4189.103,4200.385,4185.0,4172.9490000000005,4193.462,4205.513,4198.718,4191.667,4192.564,4176.282,4187.308,4205.897,0,0
644,56,0,0,4195.128,4194.359,4181.795,4195.641,4187.308,4172.821,4186.282,4202.821,4197.308,4192.564,4186.795,4175.0,4184.615,4197.9490000000005,0,0
645,57,0,0,4186.923,4186.923,4179.872,4187.0509999999995,4186.282,4170.769,4181.923,4191.282,4186.026,4184.231,4184.744000000001,4173.974,4183.59,4189.615,0,0
646,58,0,0,4185.769,4184.872,4185.128,4185.255999999999,4184.359,4171.282,4184.744000000001,4194.487,4189.615,4186.41,4183.846,4174.103,4191.667,4185.128,0,0
647,59,0,0,4184.615,4188.077,4185.385,4187.821,4185.513,4180.0,4193.59,4202.564,4201.026,4202.0509999999995,4185.0,4175.255999999999,4200.255999999999,4187.564,0,0
648,60,0,0,4176.026,4185.769,4182.0509999999995,4187.179,4186.026,4178.462,4196.154,4199.744000000001,4196.795,4201.282,4182.436,4174.744000000001,4193.846,4184.231,0,0
649,61,0,0,4167.692,4176.667,4181.667,4182.9490000000005,4184.359,4169.615,4179.872,4183.077,4182.564,4185.128,4172.179,4172.179,4183.846,4173.846,0,0
650,62,0,0,4171.538,4177.564,4190.255999999999,4183.846,4183.333,4173.974,4178.59,4182.9490000000005,4182.9490000000005,4186.026,4173.077,4176.41,4189.231,4177.308,0,0
651,63,0,0,4175.641,4181.41,4194.872,4190.385,4186.026,4185.0,4202.9490000000005,4210.769,4198.077,4202.436,4186.538,4180.897,4199.615,4185.641,0,0
652,64,0,2192,4167.9490000000005,4173.59,4184.744000000001,4187.564,4187.564,4185.0,4205.0,4214.615,4201.667,4207.179,4189.359,4174.744000000001,4200.128,4177.436,0,0
653,65,0,2884,4154.231,4162.692,4173.205,4174.359,4184.103,4176.154,4182.436,4186.923,4190.641,4196.282,4178.205,4165.385,4198.205,4160.0,0,0
654,66,0,3217,4143.205,4159.744000000001,4171.026,4167.821,4182.436,4170.769,4177.821,4185.769,4191.923,4194.103,4172.0509999999995,4164.103,4201.282,4153.205,0,0
655,67,0,2962,4140.641,4158.59,4172.436,4170.513,4182.179,4172.436,4190.128,4203.333,4201.667,4198.718,4171.154,4164.615,4198.846,4153.333,0,0
656,68,0,3595,4138.59,4155.128,4170.255999999999,4169.359,4176.026,4173.462,4188.846,4196.667,4195.0,4192.0509999999995,4167.9490000000005,4157.821,4188.718,4143.718,0,0
657,69,0,3000,4130.641,4153.59,4165.255999999999,4163.718,4172.692,4169.359,4182.0509999999995,4182.692,4184.487,4184.103,4166.41,4153.077,4186.026,4134.231,0,0
658,70,0,3263,4129.487,4152.821,4166.667,4163.333,4174.744000000001,4169.615,4185.0,4184.615,4186.667,4184.615,4166.154,4156.154,4188.59,4136.154,0,0
659,71,0,3234,4132.179,4152.692,4175.385,4166.538,4171.923,4172.692,4184.744000000001,4188.59,4185.385,4180.769,4161.795,4160.255999999999,4184.744000000001,4139.872,0,0
660,72,0,2901,4128.974,4151.282,4175.641,4168.462,4167.9490000000005,4171.538,4185.0,4188.846,4183.077,4171.41,4155.128,4159.359,4179.103,4136.41,0,0
661,73,0,3569,4130.513,4151.41,4168.846,4168.846,4168.974,4170.255999999999,4185.128,4185.255999999999,4181.026,4171.538,4152.9490000000005,4155.513,4181.667,4134.359,0,0
662,74,0,2921,4138.333,4153.333,4170.897,4168.846,4168.59,4168.333,4175.385,4181.795,4176.795,4174.615,4154.103,4158.205,4187.179,4136.41,0,0
663,75,0,3299,4139.359,4154.744000000001,4177.821,4170.513,4168.59,4166.923,4170.385,4184.615,4175.385,4172.179,4156.026,4163.205,4182.821,4139.231,0,0
664,76,0,3206,4138.205,4154.872,4177.821,4171.41,4171.154,4170.128,4181.282,4179.487,4173.718,4169.487,4154.487,4160.897,4176.667,4139.744000000001,0,0
665,77,0,2073,4140.128,4154.231,4178.077,4171.154,4172.821,4171.923,4185.897,4174.103,4171.026,4169.103,4151.667,4158.974,4178.333,4135.513,0,0
666,78,0,2921,4140.769,4155.255999999999,4180.385,4172.821,4174.487,4170.641,4181.538,4179.103,4172.9490000000005,4172.436,4155.385,4162.0509999999995,4178.846,4136.795,0,0
667,79,0,3299,4146.923,4156.667,4180.769,4174.487,4173.333,4169.103,4183.718,4177.179,4173.077,4172.564,4157.9490000000005,4163.846,4171.795,4146.667,0,0
668,80,0,3206,4152.436,4154.231,4181.154,4172.0509999999995,4170.769,4168.077,4179.487,4170.255999999999,4167.436,4169.615,4158.846,4163.333,4169.231,4151.282,0,0
669,81,0,2073,4153.333,4154.615,4185.385,4175.641,4177.436,4169.615,4173.59,4177.821,4172.308,4176.026,4168.205,4167.179,4178.846,4153.462,0,0
670,82,0,2921,4157.0509999999995,4163.205,4186.154,4180.897,4186.538,4172.0509999999995,4178.59,4189.231,4183.974,4187.0509999999995,4176.41,4169.744000000001,4187.0509999999995,4159.103,0,0
671,83,0,3299,4161.026,4169.615,4183.59,4179.359,4187.9490000000005,4172.9490000000005,4186.538,4195.128,4186.282,4190.641,4173.718,4168.462,4187.564,4164.359,0,0
672,84,0,3206,4158.333,4163.59,4180.385,4175.641,4186.154,4173.59,4190.255999999999,4197.821,4185.641,4188.718,4170.897,4165.769,4186.026,4163.718,0,0
673,85,0,2073,4153.205,4155.513,4177.821,4174.487,4184.487,4171.795,4185.513,4188.077,4185.255999999999,4188.333,4171.41,4163.718,4187.308,4157.9490000000005,0,0
674,86,0,2921,4155.128,4161.026,4178.59,4177.0509999999995,4182.436,4169.231,4180.769,4180.128,4184.231,4187.436,4169.744000000001,4163.718,4188.462,4155.255999999999,0,0
675,87,0,3299,4156.795,4170.513,4179.487,4183.077,4183.462,4170.128,4185.513,4186.026,4185.385,4186.667,4168.974,4163.718,4185.385,4156.41,0,0
676,88,0,3206,4153.333,4166.667,4177.0509999999995,4182.692,4185.641,4170.128,4185.513,4183.205,4184.487,4187.179,4169.615,4163.333,4186.41,4156.026,0,0
677,89,0,2073,4150.255999999999,4160.385,4173.205,4174.615,4181.41,4163.333,4166.667,4169.615,4175.255999999999,4185.128,4169.359,4162.564,4189.359,4152.692,0,0
678,90,0,2921,4152.436,4165.0,4174.231,4172.9490000000005,4173.462,4156.538,4151.795,4165.769,4172.308,4183.205,4169.359,4162.692,4186.538,4154.103,0,0
679,91,0,3299,4153.462,4169.231,4178.077,4176.026,4168.077,4156.795,4160.513,4173.077,4180.513,4183.846,4171.026,4162.308,4181.795,4158.333,0,0
680,92,0,3206,4149.872,4167.308,4180.897,4177.436,4171.667,4163.462,4176.282,4182.0509999999995,4185.769,4185.255999999999,4170.769,4162.308,4182.692,4154.231,0,0
681,93,0,2073,4150.641,4167.9490000000005,4177.9490000000005,4178.077,4180.255999999999,4169.487,4185.641,4190.641,4188.718,4186.795,4170.769,4162.308,4186.795,4151.282,0,0
682,94,0,2921,4152.436,4169.744000000001,4176.41,4180.128,4185.769,4170.255999999999,4188.846,4189.231,4190.0,4189.744000000001,4172.436,4163.718,4188.59,4155.0,0,0
683,95,0,3299,4150.641,4168.59,4177.692,4180.385,4181.154,4166.41,4178.462,4170.0,4179.359,4182.0509999999995,4165.385,4162.821,4184.359,4153.205,0,0
684,96,0,3206,4155.255999999999,4172.0509999999995,4176.538,4177.821,4174.744000000001,4166.026,4172.564,4168.462,4172.9490000000005,4167.564,4156.154,4159.231,4172.692,4151.795,0,0
685,97,0,2073,4179.744000000001,4187.692,4180.385,4184.872,4178.205,4171.282,4181.923,4192.308,4184.103,4169.359,4166.538,4163.462,4166.538,4176.795,0,0
686,98,0,2921,4224.615,4214.487,4195.641,4203.077,4183.077,4172.308,4180.769,4192.692,4187.821,4184.231,4194.744000000001,4181.282,4176.795,4224.231,0,0
687,99,0,3299,4270.128,4239.359,4208.077,4219.744000000001,4187.821,4166.026,4169.615,4177.564,4183.59,4195.641,4217.436,4195.0,4187.692,4264.487,0,0
688,100,0,3206,4308.462,4259.231,4214.487,4234.359,4198.077,4167.692,4179.103,4194.231,4194.359,4204.487,4232.821,4198.974,4187.9490000000005,4294.615,0,0
689,101,0,2073,4340.513,4276.41,4222.0509999999995,4249.103,4204.359,4177.821,4196.923,4215.513,4206.026,4212.179,4245.769,4206.282,4187.821,4320.513,0,0
690,102,0,2921,4357.308,4283.718,4222.821,4250.641,4204.231,4182.9490000000005,4199.615,4209.872,4202.692,4215.769,4248.846,4210.0,4193.205,4332.179,0,0
691,103,0,3299,4359.872,4282.9490000000005,4219.487,4247.308,4206.41,4184.231,4197.179,4204.103,4200.513,4215.0,4246.923,4207.0509999999995,4194.615,4332.308,0,0
692,104,0,3206,4361.026,4283.974,4218.462,4248.59,4207.9490000000005,4182.436,4191.795,4203.333,4199.872,4207.9490000000005,4246.41,4206.41,4187.179,4332.179,0,0
693,105,0,2073,4360.513,4283.462,4214.615,4248.59,4202.564,4175.128,4189.487,4207.179,4196.667,4199.487,4246.795,4207.436,4181.154,4333.205,0,0
694,106,0,2921,4353.59,4283.846,4211.282,4247.821,4202.821,4173.974,4199.231,4219.744000000001,4199.872,4203.718,4248.205,4206.795,4185.0,4330.385,0,0
695,107,0,3299,4345.641,4281.667,4212.179,4243.59,4204.359,4178.462,4201.154,4213.077,4201.154,4209.615,4244.487,4205.513,4190.897,4321.923,0,0
696,108,0,3206,4331.538,4261.538,4210.128,4237.308,4196.923,4175.641,4195.385,4203.462,4197.0509999999995,4206.282,4235.0,4200.769,4188.077,4309.103,0,0
697,109,0,2073,4308.846,4243.846,4208.846,4231.026,4193.077,4170.255999999999,4196.923,4213.077,4199.487,4203.718,4230.897,4197.692,4185.255999999999,4296.667,0,0
698,110,0,2921,4291.282,4245.897,4206.026,4223.718,4195.0,4171.538,4196.923,4210.641,4200.897,4208.205,4231.282,4196.41,4188.59,4284.615,0,0
699,111,0,3299,4272.308,4239.615,4196.923,4214.103,4191.538,4172.0509999999995,4187.821,4194.359,4194.231,4206.795,4222.179,4191.282,4187.9490000000005,4265.255999999999,0,0
700,112,0,3206,4246.538,4217.308,4189.231,4205.128,4186.795,4172.0509999999995,4188.846,4195.385,4193.59,4198.333,4212.564,4184.231,4184.615,4244.487,0,0
701,113,0,2073,4228.333,4201.538,4192.0509999999995,4200.385,4187.179,4172.692,4191.923,4201.795,4201.154,4204.487,4215.255999999999,4182.308,4186.538,4231.41,0,0
702,114,0,2921,4216.41,4195.255999999999,4193.205,4197.564,4186.154,4170.0,4178.974,4198.462,4200.897,4213.59,4214.872,4182.0509999999995,4188.846,4222.821,0,0
703,115,0,3299,4204.231,4194.359,4186.026,4197.821,4186.154,4168.718,4173.333,4197.692,4195.128,4205.513,4203.077,4181.154,4185.897,4212.9490000000005,0,0
704,116,0,3206,4198.462,4196.154,4186.923,4199.231,4190.897,4175.0,4186.667,4198.846,4197.0509999999995,4200.128,4198.846,4179.487,4186.154,4204.615,0,0
705,117,0,2073,4192.9490000000005,4188.974,4190.897,4195.897,4191.026,4180.769,4193.462,4202.179,4202.0509999999995,4205.255999999999,4206.282,4178.462,4194.487,4195.0,0,0
706,118,0,2921,4174.103,4175.385,4183.462,4186.923,4186.667,4177.308,4186.026,4202.692,4198.974,4205.0,4199.744000000001,4176.795,4197.564,4179.231,0,0
707,119,0,3299,4155.513,4168.846,4175.255999999999,4181.538,4179.744000000001,4169.615,4179.872,4187.692,4193.077,4196.41,4182.308,4168.974,4190.769,4167.564,0,0
708,120,0,3206,4154.359,4166.282,4179.872,4179.615,4174.231,4167.308,4184.615,4182.0509999999995,4197.692,4193.333,4180.0,4165.128,4188.59,4163.462,0,0
709,121,0,2073,4151.41,4158.846,4181.154,4173.59,4172.9490000000005,4170.897,4185.513,4195.385,4200.128,4191.923,4182.308,4168.59,4192.0509999999995,4160.769,0,0
710,122,0,2921,4137.821,4150.641,4173.718,4165.128,4170.128,4166.667,4173.077,4188.59,4188.59,4186.154,4171.154,4166.923,4189.103,4153.077,0,0
711,123,0,3299,4133.077,4151.154,4170.897,4160.128,4167.9490000000005,4157.821,4162.692,4159.744000000001,4180.897,4180.897,4161.538,4159.103,4184.872,4141.667,0,0
712,124,0,3206,4137.436,4152.9490000000005,4173.718,4162.821,4171.026,4161.538,4168.974,4155.0,4183.974,4182.308,4164.487,4160.513,4188.205,4137.564,0,0
713,125,0,2073,4130.641,4144.359,4174.487,4166.667,4170.641,4166.026,4174.487,4168.59,4179.487,4182.821,4164.744000000001,4164.231,4188.718,4137.692,0,0
714,126,0,2921,4118.974,4136.154,4174.744000000001,4165.513,4166.795,4162.9490000000005,4170.641,4170.769,4175.385,4175.128,4158.333,4159.231,4185.513,4131.41,0,0
715,127,0,52,4121.538,4138.333,4172.564,4161.41,4164.744000000001,4162.179,4171.026,4170.897,4182.692,4173.333,4155.128,4157.308,4184.487,4125.385,0,0
716,0,0,2197,4124.103,4138.974,4169.103,4155.255999999999,4159.744000000001,4160.769,4173.846,4178.333,4183.59,4176.795,4154.615,4160.255999999999,4185.641,4128.846,0,0
717,1,0,2881,4112.436,4128.59,4166.923,4149.103,4156.41,4155.769,4172.308,4183.974,4179.615,4173.205,4151.667,4158.077,4185.897,4123.974,0,0
718,2,0,3222,4108.205,4123.59,4166.282,4152.308,4157.692,4155.385,4169.487,4180.897,4180.0,4171.154,4150.385,4158.974,4183.974,4117.564,0,0
719,3,0,2963,4114.103,4133.333,4166.282,4152.564,4154.359,4156.923,4167.436,4170.897,4175.897,4172.9490000000005,4153.205,4162.564,4182.821,4130.513,0,0
720,4,0,3595,4107.692,4134.872,4164.487,4144.615,4150.641,4156.923,4166.923,4165.769,4168.974,4173.462,4155.255999999999,4157.692,4183.59,4130.128,0,0
721,5,0,3001,4105.385,4130.897,4163.59,4146.667,4158.974,4163.59,4169.103,4168.718,4168.718,4170.641,4151.154,4153.462,4183.974,4114.487,0,0
722,6,0,3259,4127.179,4142.821,4162.692,4155.385,4163.974,4169.615,4173.974,4171.41,4174.359,4168.205,4150.0,4158.333,4182.308,4133.205,0,0
723,7,0,3238,4145.769,4156.026,4164.744000000001,4159.615,4160.897,4165.769,4174.872,4178.718,4182.308,4175.0,4163.846,4160.385,4182.692,4168.846,0,0
724,8,0,2901,4160.513,4161.667,4170.641,4166.667,4164.872,4160.769,4172.0509999999995,4190.769,4187.9490000000005,4185.513,4177.308,4160.513,4186.026,4176.923,0,0
725,9,0,3569,4206.026,4188.333,4178.846,4184.872,4172.564,4163.462,4172.179,4185.769,4185.0,4184.744000000001,4183.077,4168.846,4185.641,4197.179,0,0
726,10,0,2921,4260.255999999999,4223.077,4186.41,4199.872,4177.821,4169.359,4173.846,4168.59,4180.897,4180.897,4199.359,4174.487,4184.359,4248.974,0,0
727,11,0,3297,4282.9490000000005,4233.974,4191.154,4201.795,4183.077,4169.359,4174.359,4165.641,4178.718,4184.359,4217.9490000000005,4176.923,4184.615,4269.744000000001,0,0
728,12,0,3207,4293.974,4239.359,4192.308,4204.872,4185.513,4166.667,4173.974,4170.769,4173.59,4185.128,4219.615,4184.103,4179.615,4266.154,0,0
729,13,0,2074,4311.795,4253.718,4192.436,4213.718,4184.231,4167.436,4174.744000000001,4168.462,4170.769,4182.692,4220.641,4191.538,4175.0,4281.41,0,0
730,14,0,2921,4323.077,4263.462,4200.128,4219.487,4184.359,4169.487,4180.128,4171.538,4176.41,4182.9490000000005,4228.077,4191.026,4179.744000000001,4297.821,0,0
731,15,0,3297,4336.026,4264.231,4211.538,4224.615,4185.897,4171.026,4189.103,4190.769,4188.205,4186.41,4234.103,4193.205,4184.231,4304.359,0,0
732,16,0,0,4350.769,4264.359,4211.795,4232.308,4190.255999999999,4171.282,4185.641,4201.667,4192.179,4194.487,4244.103,4201.923,4182.436,4315.255999999999,0,0
733,17,0,0,4349.359,4273.718,4210.897,4238.333,4197.0509999999995,4170.255999999999,4174.872,4195.385,4188.974,4200.513,4250.385,4205.0,4183.205,4324.615,0,0
734,18,0,0,4342.436,4278.718,4213.333,4243.077,4200.897,4171.923,4178.205,4189.872,4189.231,4199.744000000001,4246.026,4200.641,4184.872,4319.231,0,0
735,19,0,0,4343.846,4270.385,4211.538,4246.026,4203.077,4175.641,4189.487,4190.255999999999,4190.769,4199.487,4246.667,4200.0,4184.872,4312.564,0,0
736,20,0,0,4346.795,4267.564,4208.846,4241.923,4200.769,4174.487,4189.872,4185.128,4185.513,4200.128,4250.641,4203.718,4186.282,4313.59,0,0
737,21,0,0,4348.718,4271.538,4211.923,4240.897,4199.231,4169.103,4184.359,4184.744000000001,4184.872,4199.231,4248.59,4206.41,4184.359,4320.128,0,0
738,22,0,0,4350.641,4264.359,4213.974,4243.59,4201.923,4169.231,4188.077,4191.795,4193.205,4200.769,4249.615,4208.974,4182.308,4329.359,0,0
739,23,0,0,4344.359,4261.41,4212.308,4237.179,4195.769,4170.255999999999,4185.385,4181.923,4185.641,4200.641,4248.462,4206.923,4185.897,4325.641,0,0
740,24,0,0,4334.872,4270.641,4211.282,4227.692,4185.128,4165.641,4170.385,4162.436,4166.667,4195.897,4241.154,4200.641,4182.436,4312.308,0,0
741,25,0,0,4334.744000000001,4270.385,4211.026,4231.154,4189.744000000001,4165.255999999999,4166.41,4164.872,4170.641,4195.128,4241.026,4200.897,4174.615,4313.077,0,0
742,26,0,0,4337.692,4264.103,4212.692,4239.487,4200.0,4169.615,4175.769,4182.179,4189.103,4201.538,4247.179,4207.179,4179.872,4327.308,0,0
743,27,0,0,4336.923,4263.205,4211.538,4235.385,4197.436,4167.692,4179.744000000001,4185.513,4188.333,4206.667,4249.744000000001,4205.513,4186.154,4330.128,0,0
744,28,0,0,4335.0,4264.487,4209.872,4230.769,4193.846,4164.744000000001,4181.795,4179.103,4180.897,4202.308,4245.513,4199.487,4180.513,4325.128,0,0
745,29,0,0,4336.026,4265.0,4211.41,4234.103,4199.103,4167.564,4185.897,4185.385,4191.026,4202.308,4236.923,4197.9490000000005,4179.359,4324.231,0,0
746,30,0,0,4336.538,4262.436,4211.795,4234.103,4199.231,4169.231,4183.205,4195.897,4197.9490000000005,4209.487,4234.487,4201.154,4185.897,4316.795,0,0
747,31,0,0,4333.59,4260.255999999999,4208.718,4230.769,4196.026,4171.923,4192.179,4205.0,4196.795,4210.255999999999,4243.077,4204.615,4185.385,4310.0,0,0
748,32,0,0,4330.255999999999,4265.385,4207.821,4230.513,4200.769,4176.282,4201.667,4203.462,4195.255999999999,4210.769,4251.154,4205.385,4183.205,4312.821,0,0
749,33,0,0,4325.513,4261.41,4206.923,4232.179,4199.231,4172.436,4185.0,4187.308,4190.769,4210.897,4247.308,4202.692,4185.128,4312.436,0,0
750,34,0,0,4328.205,4249.872,4205.255999999999,4232.692,4191.923,4167.0509999999995,4174.872,4188.59,4190.128,4207.9490000000005,4238.846,4202.0509999999995,4185.0,4308.333,0,0
751,35,0,0,4332.564,4254.744000000001,4210.385,4232.821,4196.41,4171.026,4188.462,4200.385,4191.923,4207.564,4234.231,4203.718,4184.487,4309.487,0,0
752,36,0,0,4330.255999999999,4268.333,4217.308,4233.077,4204.103,4176.795,4193.462,4187.436,4188.462,4207.692,4233.205,4205.128,4184.872,4313.077,0,0
753,37,0,0,4329.231,4265.385,4216.795,4234.103,4202.179,4175.769,4186.41,4181.923,4190.255999999999,4205.769,4233.205,4207.0509999999995,4186.41,4312.0509999999995,0,0
754,38,0,0,4325.385,4254.615,4210.128,4233.718,4199.615,4173.974,4184.872,4202.821,4201.795,4211.667,4234.872,4209.872,4187.821,4307.436,0,0
755,39,0,0,4315.769,4251.667,4207.564,4228.974,4201.282,4174.103,4185.385,4202.692,4202.0509999999995,4215.513,4237.692,4209.103,4186.795,4300.641,0,0
756,40,0,0,4307.0509999999995,4249.615,4208.718,4225.897,4198.718,4172.692,4189.103,4190.385,4195.128,4208.333,4233.205,4202.9490000000005,4186.923,4291.795,0,0
757,41,0,0,4291.41,4247.308,4202.692,4221.282,4191.795,4168.462,4185.385,4189.872,4191.667,4200.769,4217.9490000000005,4195.513,4182.436,4274.487,0,0
758,42,0,0,4260.641,4237.9490000000005,4191.923,4207.692,4185.385,4164.231,4167.564,4175.641,4179.744000000001,4189.103,4201.154,4187.821,4170.255999999999,4249.103,0,0
759,43,0,0,4233.333,4207.9490000000005,4192.564,4200.769,4180.128,4164.487,4166.026,4172.308,4174.487,4182.821,4196.795,4182.9490000000005,4170.897,4227.0509999999995,0,0
760,44,0,0,4216.667,4186.795,4195.641,4201.154,4180.128,4168.462,4184.615,4191.538,4186.667,4192.9490000000005,4199.615,4181.154,4185.0,4208.59,0,0
761,45,0,0,4191.154,4192.0509999999995,4182.436,4185.385,4186.026,4169.744000000001,4190.128,4184.103,4183.205,4194.487,4188.462,4175.769,4186.154,4182.821,0,0
762,46,0,0,4158.974,4185.769,4168.333,4165.897,4185.255999999999,4163.846,4172.308,4161.282,4167.179,4179.231,4166.41,4164.359,4179.103,4153.718,0,0
763,47,0,0,4138.462,4156.667,4173.205,4166.795,4172.692,4156.026,4157.821,4162.436,4173.462,4172.308,4155.0,4161.282,4182.436,4136.795,0,0
764,48,0,0,4128.077,4139.615,4176.667,4166.795,4167.564,4154.103,4161.923,4170.385,4182.692,4178.846,4154.487,4164.359,4185.513,4128.718,0,0
765,49,0,0,4114.359,4131.795,4166.923,4154.359,4173.205,4158.205,4178.205,4170.255999999999,4179.231,4182.179,4153.333,4161.667,4183.077,4117.821,0,0
766,50,0,0,4100.385,4117.821,4163.846,4152.564,4171.667,4159.231,4182.436,4173.205,4181.538,4183.333,4152.436,4158.974,4183.077,4106.538,0,0
767,51,0,0,4098.333,4116.282,4172.308,4157.308,4167.308,4157.0509999999995,4174.359,4172.308,4179.103,4179.103,4148.974,4161.282,4183.462,4101.923,0,0
768,52,0,0,4105.128,4122.692,4177.308,4157.564,4168.846,4160.128,4178.462,4171.795,4172.9490000000005,4174.487,4144.487,4164.359,4183.846,4105.769,0,0
769,53,0,0,4105.385,4115.513,4176.795,4159.615,4170.385,4161.923,4180.641,4175.897,4182.9490000000005,4176.923,4144.231,4165.255999999999,4183.59,4106.795,0,0
770,54,0,0,4097.436,4114.487,4177.179,4162.308,4169.103,4156.154,4167.308,4172.308,4184.615,4178.205,4142.436,4162.0509999999995,4182.0509999999995,4097.436,0,0
771,55,0,0,4091.538,4121.795,4174.103,4161.667,4169.615,4152.692,4160.769,4165.0,4172.179,4171.667,4136.282,4155.128,4181.41,4089.8720000000003,0,0
