,COUNTER, INTERPOLATED, RAW_CQ, AF3, F7, F3, FC5, T7, P7, O1, O2, P8, T8, FC6, F4, F8, AF4, MARKER_HARDWARE, MARKER
0,107,0,3311,4220.641,4187.692,4190.385,4186.923,4182.436,4196.41,4197.179,4183.59,4205.255999999999,4233.333,4202.564,4184.872,4200.513,4234.103,0,0
1,108,0,3209,4216.026,4182.9490000000005,4185.897,4187.821,4182.0509999999995,4197.821,4201.026,4189.103,4211.154,4231.667,4205.255999999999,4182.821,4198.59,4231.923,0,0
2,109,0,2086,4217.436,4189.103,4183.974,4188.59,4185.897,4200.513,4211.538,4193.974,4215.128,4231.154,4204.872,4182.308,4199.231,4233.205,0,0
3,110,0,2790,4214.231,4190.0,4186.795,4187.308,4186.026,4200.513,4212.9490000000005,4194.615,4213.718,4234.103,4201.795,4182.179,4201.923,4227.436,0,0
4,111,0,3311,4207.179,4182.0509999999995,4184.872,4181.154,4181.538,4200.255999999999,4207.0509999999995,4189.872,4206.667,4232.308,4197.821,4182.564,4202.9490000000005,4217.9490000000005,0,0
5,112,0,3209,4196.795,4172.308,4176.538,4172.692,4177.436,4199.744000000001,4204.615,4185.641,4200.385,4222.436,4191.667,4178.846,4200.897,4205.513,0,0
6,113,0,2086,4186.154,4170.385,4174.359,4170.513,4176.026,4196.923,4200.513,4182.9490000000005,4203.205,4217.821,4186.667,4176.667,4195.641,4200.769,0,0
7,114,0,2790,4180.513,4168.077,4172.308,4167.9490000000005,4171.795,4192.179,4185.513,4170.513,4197.692,4213.205,4178.205,4172.308,4188.077,4197.308,0,0
8,115,0,3311,4178.333,4160.513,4167.692,4163.718,4167.179,4186.154,4168.59,4157.179,4184.231,4204.103,4168.462,4165.255999999999,4182.9490000000005,4183.718,0,0
9,116,0,3209,4177.9490000000005,4161.923,4169.872,4168.077,4173.846,4188.205,4166.282,4163.077,4190.385,4206.154,4174.487,4166.795,4185.255999999999,4183.974,0,0
10,117,0,2086,4180.128,4170.769,4173.974,4173.333,4185.385,4198.462,4180.255999999999,4178.59,4203.718,4217.692,4187.179,4173.205,4192.692,4198.974,0,0
11,118,0,2790,4183.077,4171.923,4173.077,4172.179,4185.769,4199.487,4190.0,4181.154,4201.282,4217.0509999999995,4187.692,4171.923,4197.564,4197.9490000000005,0,0
12,119,0,3311,4181.282,4167.0509999999995,4173.333,4170.897,4180.255999999999,4195.0,4189.231,4180.128,4198.974,4214.615,4184.487,4170.769,4199.359,4188.59,0,0
13,120,0,3209,4184.744000000001,4170.385,4176.795,4173.846,4183.718,4198.59,4193.718,4185.769,4203.974,4224.487,4187.0509999999995,4178.462,4201.667,4200.385,0,0
14,121,0,2086,4195.385,4177.692,4181.154,4177.564,4188.846,4202.821,4202.436,4187.564,4203.205,4225.641,4192.9490000000005,4183.205,4201.41,4214.615,0,0
15,122,0,2790,4193.333,4177.0509999999995,4182.564,4176.026,4185.385,4200.128,4204.359,4178.205,4197.436,4214.872,4187.308,4179.872,4196.538,4209.615,0,0
16,123,0,3311,4182.692,4169.872,4181.538,4172.9490000000005,4181.667,4196.795,4197.308,4170.897,4195.385,4212.436,4171.795,4178.718,4195.769,4200.128,0,0
17,124,0,3209,4181.41,4167.179,4177.179,4171.154,4184.615,4197.0509999999995,4185.0,4173.077,4196.154,4215.769,4172.0509999999995,4180.0,4198.077,4198.718,0,0
18,125,0,2086,4185.255999999999,4169.744000000001,4175.769,4170.0,4187.821,4200.641,4180.641,4177.692,4198.718,4216.282,4186.026,4181.667,4198.974,4201.026,0,0
19,126,0,2790,4182.564,4168.205,4178.077,4174.744000000001,4185.513,4200.641,4187.308,4183.462,4203.333,4222.436,4188.205,4178.462,4200.769,4200.255999999999,0,0
20,127,0,52,4181.795,4167.436,4179.615,4182.564,4183.974,4200.128,4189.103,4184.615,4207.9490000000005,4229.231,4183.974,4175.385,4203.205,4199.615,0,0
21,0,0,2421,4187.0509999999995,4170.385,4180.255999999999,4178.59,4186.923,4200.385,4185.128,4184.231,4208.462,4224.359,4186.282,4178.205,4202.564,4203.846,0,0
22,1,0,2934,4183.974,4169.231,4177.436,4172.692,4184.359,4192.821,4185.255999999999,4187.179,4202.564,4215.0,4180.769,4176.538,4198.205,4201.538,0,0
23,2,0,3194,4179.872,4167.821,4180.641,4180.128,4181.667,4190.128,4193.59,4187.821,4200.255999999999,4214.615,4172.308,4176.026,4195.769,4195.128,0,0
24,3,0,2991,4193.718,4171.154,4187.564,4186.667,4192.0509999999995,4201.282,4202.9490000000005,4188.333,4210.0,4224.872,4183.846,4185.769,4200.255999999999,4204.103,0,0
25,4,0,3588,4202.436,4172.9490000000005,4187.821,4185.769,4198.974,4205.0,4201.795,4188.462,4215.128,4233.077,4195.769,4189.872,4204.103,4215.0,0,0
26,5,0,3157,4189.744000000001,4168.718,4184.615,4185.641,4190.769,4198.333,4196.923,4184.487,4205.769,4229.103,4186.795,4180.385,4200.385,4208.077,0,0
27,6,0,3309,4189.103,4172.179,4188.333,4186.667,4191.923,4198.974,4199.615,4180.897,4198.974,4221.154,4181.282,4179.231,4197.692,4206.538,0,0
28,7,0,3330,4200.385,4179.359,4192.436,4187.179,4203.718,4203.205,4202.436,4180.128,4201.026,4220.641,4187.564,4182.0509999999995,4197.0509999999995,4217.564,0,0
29,8,0,3147,4195.255999999999,4173.718,4189.103,4186.923,4197.308,4200.641,4200.641,4181.282,4201.026,4216.154,4186.538,4180.513,4193.333,4216.795,0,0
30,9,0,3558,4193.846,4172.436,4188.974,4186.026,4188.59,4197.564,4199.231,4185.0,4199.231,4215.128,4190.385,4186.41,4194.744000000001,4215.513,0,0
31,10,0,2791,4204.231,4179.487,4191.538,4186.923,4195.513,4199.615,4201.923,4188.59,4204.231,4224.615,4202.0509999999995,4192.0509999999995,4202.9490000000005,4223.462,0,0
32,11,0,3311,4192.692,4170.255999999999,4186.667,4185.0,4194.615,4199.231,4204.615,4187.179,4204.231,4224.103,4195.385,4182.821,4203.077,4214.103,0,0
33,12,0,3214,4179.487,4167.9490000000005,4179.103,4182.564,4184.744000000001,4190.128,4193.846,4177.9490000000005,4196.538,4214.103,4176.41,4173.462,4198.333,4197.692,0,0
34,13,0,2086,4193.974,4191.795,4179.231,4186.667,4191.026,4185.769,4184.487,4182.821,4201.41,4211.538,4177.308,4176.795,4197.0509999999995,4199.487,0,0
35,14,0,2791,4203.462,4207.564,4180.385,4189.615,4198.333,4187.179,4184.615,4187.308,4200.0,4205.255999999999,4176.026,4175.385,4190.513,4196.667,0,0
36,15,0,3311,4193.718,4203.846,4171.282,4185.128,4186.795,4182.564,4168.205,4161.026,4178.462,4186.41,4152.692,4160.513,4181.795,4177.308,0,0
37,16,0,0,4192.692,4204.487,4167.9490000000005,4183.077,4180.513,4179.231,4146.667,4137.179,4167.692,4178.974,4140.897,4153.846,4182.692,4167.308,0,0
38,17,0,0,4197.0509999999995,4204.231,4177.692,4182.564,4185.513,4181.923,4152.436,4146.667,4173.846,4183.077,4149.744000000001,4163.077,4186.282,4170.385,0,0
39,18,0,0,4194.231,4204.231,4183.718,4186.795,4186.026,4183.846,4176.41,4162.9490000000005,4176.923,4183.59,4154.872,4167.564,4182.564,4170.641,0,0
40,19,0,0,4196.282,4211.154,4183.718,4197.9490000000005,4186.41,4185.128,4187.692,4167.179,4175.769,4183.59,4154.103,4165.385,4179.872,4174.231,0,0
41,20,0,0,4202.0509999999995,4206.667,4187.179,4197.564,4186.923,4185.513,4182.436,4169.744000000001,4179.103,4186.154,4158.462,4168.718,4183.077,4182.0509999999995,0,0
42,21,0,0,4199.487,4202.821,4191.667,4190.641,4185.641,4183.077,4175.641,4169.359,4181.538,4187.436,4158.846,4172.308,4183.846,4184.744000000001,0,0
43,22,0,0,4201.923,4213.59,4191.154,4196.538,4192.692,4186.282,4182.9490000000005,4175.128,4181.795,4185.255999999999,4159.487,4172.9490000000005,4181.667,4187.179,0,0
44,23,0,0,4213.462,4220.0,4191.923,4204.744000000001,4203.333,4197.564,4199.103,4189.615,4185.255999999999,4187.821,4167.9490000000005,4177.0509999999995,4184.103,4193.333,0,0
45,24,0,0,4212.308,4216.282,4193.333,4201.538,4202.564,4200.0,4198.205,4192.821,4191.154,4198.462,4171.282,4179.103,4189.103,4193.59,0,0
46,25,0,0,4207.436,4216.282,4194.615,4202.0509999999995,4198.846,4191.667,4190.513,4182.821,4191.282,4202.564,4169.231,4176.154,4189.103,4189.231,0,0
47,26,0,0,4210.641,4217.9490000000005,4194.103,4206.923,4198.205,4187.308,4190.128,4177.564,4181.667,4191.667,4168.59,4173.205,4185.513,4187.436,0,0
48,27,0,0,4208.718,4215.255999999999,4187.436,4201.41,4194.615,4188.59,4187.308,4187.692,4184.359,4183.974,4169.359,4173.974,4185.769,4186.795,0,0
49,28,0,0,4201.154,4211.282,4182.9490000000005,4196.795,4194.103,4186.41,4182.821,4186.795,4187.308,4185.255999999999,4162.564,4173.846,4181.41,4188.205,0,0
50,29,0,0,4200.513,4205.897,4186.026,4201.154,4197.821,4185.641,4183.718,4173.077,4173.974,4183.462,4154.744000000001,4170.385,4176.282,4184.359,0,0
51,30,0,0,4196.538,4202.9490000000005,4184.744000000001,4198.718,4197.821,4190.897,4185.513,4167.436,4166.667,4178.077,4149.231,4165.128,4179.359,4173.462,0,0
52,31,0,0,4183.846,4201.154,4177.821,4189.872,4196.154,4191.282,4183.077,4162.308,4169.359,4173.333,4143.718,4159.359,4178.718,4165.0,0,0
53,32,0,0,4180.255999999999,4201.282,4178.462,4189.231,4198.718,4188.846,4181.538,4155.769,4169.487,4177.179,4146.41,4160.897,4175.513,4164.872,0,0
54,33,0,0,4188.846,4204.103,4184.359,4192.179,4200.641,4189.872,4184.872,4168.462,4174.744000000001,4187.308,4157.564,4168.974,4182.436,4175.641,0,0
55,34,0,0,4192.564,4204.487,4187.692,4191.538,4198.077,4193.077,4192.564,4185.769,4184.103,4190.128,4160.0,4175.255999999999,4183.718,4181.923,0,0
56,35,0,0,4190.0,4202.564,4190.641,4196.538,4198.077,4197.308,4196.795,4183.718,4182.692,4182.692,4152.692,4174.872,4172.821,4174.872,0,0
57,36,0,0,4191.667,4202.564,4194.487,4200.0,4200.128,4200.255999999999,4196.795,4185.513,4183.718,4183.333,4151.667,4172.9490000000005,4174.359,4171.026,0,0
58,37,0,0,4193.462,4204.103,4193.846,4192.179,4201.923,4200.769,4198.205,4193.462,4192.179,4192.436,4153.333,4172.564,4185.255999999999,4174.872,0,0
59,38,0,0,4185.769,4201.667,4191.538,4187.0509999999995,4202.436,4202.436,4202.179,4188.462,4193.333,4194.103,4152.692,4173.333,4187.308,4171.41,0,0
60,39,0,0,4182.9490000000005,4201.41,4190.0,4187.692,4200.641,4201.282,4203.718,4188.974,4194.872,4195.255999999999,4156.41,4174.744000000001,4186.538,4169.487,0,0
61,40,0,0,4195.769,4206.923,4190.255999999999,4186.282,4198.59,4191.667,4188.974,4191.923,4195.255999999999,4198.462,4162.308,4175.385,4186.538,4180.385,0,0
62,41,0,0,4200.128,4208.077,4191.667,4186.026,4197.308,4185.128,4170.641,4175.769,4185.128,4193.718,4160.513,4170.897,4186.41,4185.769,0,0
63,42,0,0,4189.872,4203.077,4188.846,4187.692,4198.077,4188.333,4174.231,4163.846,4180.128,4187.179,4154.744000000001,4166.282,4186.41,4182.0509999999995,0,0
64,43,0,0,4185.0,4199.872,4180.385,4187.821,4199.487,4191.795,4184.615,4167.821,4183.974,4186.41,4151.667,4162.692,4187.436,4173.077,0,0
65,44,0,0,4185.128,4201.41,4175.0,4185.0,4201.795,4190.641,4185.641,4170.128,4183.59,4187.692,4151.026,4160.513,4186.026,4167.0509999999995,0,0
66,45,0,0,4185.769,4198.846,4176.538,4186.923,4203.205,4187.9490000000005,4190.513,4175.769,4183.718,4192.692,4158.846,4159.744000000001,4186.667,4177.564,0,0
67,46,0,0,4187.821,4191.538,4178.974,4189.231,4198.846,4186.026,4189.487,4184.359,4188.205,4201.026,4170.513,4161.923,4193.462,4190.0,0,0
68,47,0,0,4188.974,4182.821,4177.179,4182.692,4190.385,4185.128,4180.897,4186.41,4187.308,4202.821,4174.615,4163.718,4197.308,4189.615,0,0
69,48,0,0,4182.179,4177.308,4175.0,4174.359,4186.795,4186.795,4185.769,4186.667,4186.41,4202.308,4170.0,4162.821,4194.231,4187.564,0,0
70,49,0,0,4173.077,4172.0509999999995,4175.513,4171.282,4189.872,4186.41,4189.872,4179.359,4186.41,4199.231,4158.846,4161.538,4189.872,4182.9490000000005,0,0
71,50,0,0,4168.846,4167.821,4173.846,4171.923,4192.821,4185.385,4183.718,4171.41,4184.103,4191.026,4153.077,4158.846,4187.9490000000005,4171.154,0,0
72,51,0,0,4174.872,4174.744000000001,4175.0,4177.436,4195.385,4188.59,4182.436,4182.308,4185.513,4191.667,4163.718,4160.641,4185.385,4172.0509999999995,0,0
73,52,0,0,4184.231,4185.128,4184.872,4185.897,4199.615,4194.231,4188.333,4189.872,4187.179,4200.641,4171.154,4165.385,4187.821,4184.231,0,0
74,53,0,0,4189.359,4192.0509999999995,4192.179,4191.41,4202.436,4192.0509999999995,4192.179,4182.692,4186.154,4200.897,4168.974,4169.103,4192.308,4187.308,0,0
75,54,0,0,4196.538,4198.59,4189.615,4193.462,4201.667,4185.385,4192.9490000000005,4188.077,4190.897,4199.103,4177.179,4172.179,4190.128,4190.641,0,0
76,55,0,0,4208.974,4201.282,4195.255999999999,4196.923,4201.667,4192.9490000000005,4209.744000000001,4204.872,4200.897,4206.795,4190.255999999999,4180.128,4193.59,4202.9490000000005,0,0
77,56,0,0,4210.769,4195.385,4201.667,4194.744000000001,4203.846,4200.0,4218.462,4205.897,4203.333,4209.231,4191.538,4184.872,4198.846,4208.974,0,0
78,57,0,0,4194.615,4186.41,4189.103,4186.41,4197.564,4188.59,4191.282,4197.564,4196.282,4199.615,4179.487,4175.255999999999,4191.41,4199.487,0,0
79,58,0,0,4183.333,4182.692,4177.436,4183.205,4186.282,4180.513,4181.795,4200.385,4192.821,4197.436,4171.154,4164.103,4182.564,4189.487,0,0
80,59,0,0,4183.333,4183.718,4180.255999999999,4183.462,4186.538,4185.897,4201.538,4193.077,4188.974,4202.308,4173.846,4165.897,4190.513,4190.385,0,0
81,60,0,0,4183.718,4184.231,4184.615,4183.974,4189.103,4185.897,4194.744000000001,4176.282,4183.59,4199.487,4176.282,4173.462,4196.538,4197.179,0,0
82,61,0,0,4189.615,4181.795,4187.9490000000005,4184.103,4185.128,4180.513,4175.641,4188.846,4190.769,4196.923,4177.308,4176.026,4189.359,4200.641,0,0
83,62,0,0,4194.359,4182.9490000000005,4192.179,4185.385,4188.077,4181.538,4183.718,4201.026,4196.282,4201.667,4183.59,4177.308,4187.564,4199.872,0,0
84,63,0,0,4194.744000000001,4186.795,4193.718,4186.41,4198.462,4188.718,4195.128,4190.513,4189.487,4204.231,4188.333,4180.0,4189.615,4200.255999999999,0,0
85,64,0,2416,4194.872,4186.923,4193.205,4186.538,4201.41,4196.026,4198.077,4190.128,4188.462,4203.333,4181.026,4180.255999999999,4187.692,4197.692,0,0
86,65,0,2929,4193.846,4185.128,4191.538,4185.128,4196.282,4192.692,4198.846,4196.667,4195.897,4202.308,4176.538,4178.462,4185.513,4197.821,0,0
87,66,0,3194,4194.744000000001,4192.179,4191.41,4183.205,4194.744000000001,4184.744000000001,4195.255999999999,4196.282,4201.154,4203.462,4183.846,4184.231,4187.692,4207.564,0,0
88,67,0,2991,4201.41,4202.821,4196.667,4186.667,4196.923,4189.872,4202.179,4204.359,4201.41,4204.615,4187.9490000000005,4192.308,4187.821,4211.667,0,0
89,68,0,3588,4202.9490000000005,4197.436,4198.205,4191.026,4199.487,4198.333,4207.179,4202.692,4192.9490000000005,4201.538,4178.333,4186.538,4187.308,4202.692,0,0
90,69,0,3157,4197.692,4189.103,4191.282,4191.667,4200.897,4195.769,4195.641,4180.769,4181.538,4197.179,4166.667,4175.385,4189.231,4197.0509999999995,0,0
91,70,0,3312,4200.641,4196.282,4191.154,4188.077,4198.462,4191.154,4188.718,4179.359,4183.333,4197.9490000000005,4168.59,4176.41,4182.821,4201.795,0,0
92,71,0,3324,4204.615,4199.487,4195.385,4187.821,4196.41,4191.795,4192.564,4193.462,4188.846,4199.872,4172.179,4179.615,4175.769,4205.385,0,0
93,72,0,3147,4203.077,4192.692,4194.487,4194.359,4196.923,4190.255999999999,4189.744000000001,4183.462,4183.846,4194.359,4170.897,4177.564,4179.359,4202.692,0,0
94,73,0,3558,4201.667,4196.41,4192.564,4197.179,4198.205,4184.615,4177.692,4168.077,4180.641,4190.641,4170.0,4176.667,4184.487,4199.872,0,0
95,74,0,2789,4199.359,4202.821,4193.718,4196.667,4199.231,4189.615,4181.282,4178.333,4185.513,4197.436,4171.795,4179.103,4183.974,4200.385,0,0
96,75,0,3311,4198.333,4196.026,4192.179,4193.333,4200.0,4198.718,4196.923,4200.641,4191.282,4203.077,4173.974,4177.564,4184.872,4198.077,0,0
97,76,0,3213,4197.308,4192.821,4190.255999999999,4188.846,4198.59,4192.308,4194.359,4202.564,4191.795,4200.769,4173.077,4174.359,4184.872,4194.231,0,0
98,77,0,2085,4199.231,4199.103,4193.205,4191.282,4199.615,4190.0,4183.205,4190.641,4189.615,4200.385,4172.9490000000005,4175.385,4181.795,4194.359,0,0
99,78,0,2789,4199.872,4196.026,4191.667,4191.923,4203.462,4198.846,4188.077,4183.333,4186.282,4200.641,4170.0,4175.0,4183.718,4192.564,0,0
100,79,0,3311,4194.359,4185.255999999999,4187.564,4185.769,4200.513,4196.026,4200.385,4183.974,4183.462,4198.59,4165.769,4173.077,4185.385,4188.462,0,0
101,80,0,3213,4193.462,4186.795,4189.487,4184.231,4197.564,4188.077,4201.667,4192.821,4192.179,4201.538,4173.846,4177.821,4183.974,4197.564,0,0
102,81,0,2085,4197.9490000000005,4194.231,4195.128,4187.821,4202.692,4190.513,4198.59,4197.692,4199.359,4206.667,4187.692,4188.59,4185.769,4212.0509999999995,0,0
103,82,0,2789,4193.462,4188.077,4193.974,4183.333,4199.231,4189.744000000001,4198.462,4196.026,4193.333,4204.744000000001,4186.282,4191.538,4184.872,4210.255999999999,0,0
104,83,0,3311,4183.59,4179.744000000001,4190.769,4180.897,4189.103,4184.872,4195.769,4202.564,4188.077,4196.795,4173.205,4186.154,4173.205,4200.255999999999,0,0
105,84,0,3213,4186.026,4184.744000000001,4188.974,4185.897,4191.667,4184.359,4184.744000000001,4201.154,4188.462,4194.487,4169.359,4182.179,4168.205,4198.974,0,0
106,85,0,2085,4191.795,4195.769,4189.231,4188.077,4201.538,4186.538,4180.385,4186.923,4185.255999999999,4196.795,4171.667,4180.255999999999,4177.9490000000005,4202.179,0,0
107,86,0,2789,4190.385,4199.615,4190.128,4190.897,4204.231,4195.897,4198.59,4193.846,4186.026,4192.821,4172.436,4179.231,4181.795,4202.179,0,0
108,87,0,3311,4191.795,4193.462,4186.282,4194.487,4202.179,4200.255999999999,4206.154,4202.436,4186.538,4185.769,4171.795,4180.255999999999,4177.9490000000005,4199.103,0,0
109,88,0,3213,4190.0,4185.385,4179.359,4191.154,4199.744000000001,4188.846,4179.872,4175.0,4174.103,4183.974,4167.9490000000005,4176.923,4181.667,4192.821,0,0
110,89,0,2085,4184.872,4190.128,4182.436,4186.282,4195.769,4181.795,4165.255999999999,4157.564,4168.59,4185.385,4166.154,4174.872,4186.026,4189.615,0,0
111,90,0,2789,4189.359,4198.462,4191.026,4186.923,4190.897,4187.436,4184.359,4175.255999999999,4178.333,4186.667,4169.872,4178.462,4183.205,4196.41,0,0
112,91,0,3311,4193.333,4192.0509999999995,4190.769,4186.282,4185.128,4182.821,4187.179,4186.41,4184.231,4186.795,4172.692,4177.821,4181.923,4202.692,0,0
113,92,0,3213,4188.718,4183.205,4188.846,4183.462,4183.205,4172.692,4170.128,4187.436,4184.487,4187.821,4171.538,4175.897,4184.487,4199.231,0,0
114,93,0,2085,4185.255999999999,4183.59,4188.59,4185.255999999999,4181.538,4173.077,4168.974,4186.923,4183.974,4190.128,4171.282,4180.0,4184.615,4190.641,0,0
115,94,0,2789,4182.436,4182.692,4186.923,4184.359,4176.795,4174.103,4175.0,4177.308,4179.872,4187.564,4169.744000000001,4180.513,4179.359,4183.846,0,0
116,95,0,3311,4180.897,4182.692,4185.255999999999,4181.538,4179.744000000001,4177.821,4179.744000000001,4178.205,4180.769,4185.128,4168.077,4177.0509999999995,4178.077,4187.821,0,0
117,96,0,3213,4185.0,4188.718,4187.308,4185.769,4187.179,4180.385,4180.897,4187.9490000000005,4186.538,4187.436,4170.0,4177.9490000000005,4179.103,4194.231,0,0
118,97,0,2085,4185.897,4188.846,4187.0509999999995,4187.9490000000005,4187.564,4174.744000000001,4178.462,4186.282,4184.487,4188.077,4170.769,4176.026,4177.308,4190.385,0,0
119,98,0,2789,4184.231,4185.897,4184.615,4185.128,4185.255999999999,4172.821,4179.487,4184.615,4182.692,4192.308,4170.128,4174.487,4180.385,4189.744000000001,0,0
120,99,0,3311,4184.615,4186.923,4180.769,4184.103,4184.487,4175.128,4178.846,4183.718,4186.923,4198.077,4170.255999999999,4179.231,4186.667,4195.385,0,0
121,100,0,3213,4184.615,4186.282,4180.385,4186.795,4183.846,4174.872,4176.026,4174.744000000001,4189.744000000001,4200.0,4170.255999999999,4181.026,4185.769,4195.128,0,0
122,101,0,2085,4186.026,4183.077,4184.487,4187.0509999999995,4185.769,4179.872,4183.077,4173.333,4188.462,4200.128,4169.615,4177.179,4183.333,4190.128,0,0
123,102,0,2789,4185.641,4182.0509999999995,4182.9490000000005,4184.103,4186.795,4188.333,4188.718,4180.255999999999,4185.0,4194.103,4169.487,4176.923,4184.487,4190.0,0,0
124,103,0,3311,4185.255999999999,4183.462,4183.59,4185.385,4192.564,4186.282,4186.538,4185.897,4184.872,4190.0,4170.897,4181.795,4183.077,4197.564,0,0
125,104,0,3213,4191.154,4186.795,4191.923,4190.897,4198.974,4184.487,4193.718,4189.872,4188.462,4194.744000000001,4171.154,4186.154,4183.846,4204.103,0,0
126,105,0,2085,4192.0509999999995,4187.692,4195.0,4191.667,4191.41,4186.795,4193.333,4185.385,4185.128,4191.538,4168.974,4184.359,4182.436,4204.487,0,0
127,106,0,2789,4186.538,4183.718,4188.333,4185.0,4180.769,4180.0,4180.897,4188.205,4181.538,4182.179,4169.744000000001,4182.564,4175.385,4200.0,0,0
128,107,0,3311,4183.077,4182.436,4180.385,4182.564,4184.487,4175.513,4189.231,4205.897,4187.308,4183.718,4168.333,4182.692,4173.846,4194.103,0,0
129,108,0,3213,4176.538,4183.333,4178.205,4184.487,4183.846,4175.0,4190.128,4194.231,4184.615,4181.026,4156.538,4174.103,4174.744000000001,4183.462,0,0
130,109,0,2085,4172.821,4182.564,4177.9490000000005,4183.59,4172.9490000000005,4169.744000000001,4164.744000000001,4164.231,4179.103,4173.974,4150.769,4166.154,4171.538,4176.795,0,0
131,110,0,2789,4181.667,4184.744000000001,4180.0,4183.718,4175.513,4166.538,4158.59,4171.282,4184.872,4182.436,4159.231,4173.462,4173.59,4183.718,0,0
132,111,0,3311,4188.59,4187.692,4180.897,4185.255999999999,4184.103,4168.718,4170.897,4175.769,4179.231,4184.103,4159.872,4179.744000000001,4177.821,4188.59,0,0
133,112,0,3213,4183.333,4185.769,4178.077,4185.128,4185.128,4170.128,4163.59,4151.795,4164.359,4170.513,4152.0509999999995,4171.923,4174.231,4183.974,0,0
134,113,0,2085,4181.282,4184.231,4178.59,4184.615,4187.179,4174.744000000001,4158.077,4153.974,4171.667,4170.128,4153.077,4168.59,4174.487,4180.385,0,0
135,114,0,2789,4191.282,4188.974,4184.359,4187.436,4192.436,4186.026,4180.0,4174.615,4187.436,4184.103,4159.103,4174.744000000001,4182.0509999999995,4184.872,0,0
136,115,0,3311,4201.154,4190.0,4188.077,4188.205,4190.128,4187.564,4190.255999999999,4171.923,4186.923,4187.308,4163.59,4177.9490000000005,4183.59,4194.231,0,0
137,116,0,3213,4200.897,4186.154,4183.333,4184.744000000001,4184.872,4177.436,4173.077,4171.538,4183.205,4183.718,4167.308,4176.026,4180.897,4201.282,0,0
138,117,0,2085,4199.487,4187.0509999999995,4180.385,4183.59,4186.282,4171.538,4167.308,4185.128,4185.769,4186.538,4166.795,4172.9490000000005,4184.231,4199.359,0,0
139,118,0,2789,4203.59,4189.744000000001,4181.026,4182.9490000000005,4183.333,4170.385,4181.282,4187.692,4185.897,4187.179,4160.897,4171.667,4182.9490000000005,4192.564,0,0
140,119,0,3311,4204.615,4188.205,4182.308,4181.282,4174.103,4168.333,4182.9490000000005,4182.821,4181.282,4182.308,4156.154,4173.718,4173.718,4193.205,0,0
141,120,0,3213,4202.0509999999995,4187.564,4182.308,4182.564,4169.872,4165.769,4170.513,4181.154,4178.59,4181.538,4159.487,4174.744000000001,4173.59,4198.077,0,0
142,121,0,2085,4202.436,4190.255999999999,4182.179,4187.0509999999995,4173.846,4167.179,4172.564,4185.385,4183.077,4186.154,4168.077,4178.077,4181.282,4200.897,0,0
143,122,0,2789,4202.9490000000005,4188.333,4184.744000000001,4186.923,4178.718,4169.615,4178.333,4186.282,4188.077,4187.436,4170.641,4181.923,4184.744000000001,4201.667,0,0
144,123,0,3311,4201.282,4188.333,4189.231,4186.41,4181.154,4170.128,4172.9490000000005,4171.795,4181.41,4184.487,4167.564,4179.231,4183.205,4199.231,0,0
145,124,0,3213,4200.641,4195.0,4192.179,4191.41,4185.385,4178.846,4182.0509999999995,4176.538,4180.769,4186.026,4168.333,4176.667,4184.359,4197.436,0,0
146,125,0,2085,4201.667,4194.872,4190.897,4191.667,4188.718,4184.359,4194.359,4211.538,4195.641,4190.255999999999,4170.897,4179.103,4183.974,4196.667,0,0
147,126,0,2789,4200.255999999999,4188.59,4188.205,4185.897,4186.282,4173.59,4179.487,4205.897,4195.128,4187.564,4169.872,4178.718,4183.333,4196.923,0,0
148,127,0,52,4198.59,4187.0509999999995,4188.077,4185.0,4183.077,4167.179,4168.462,4166.923,4179.231,4181.41,4168.077,4176.667,4185.641,4199.872,0,0
149,0,0,2422,4198.718,4188.718,4187.179,4185.897,4182.9490000000005,4171.795,4175.385,4168.718,4178.205,4183.462,4167.9490000000005,4178.077,4182.0509999999995,4201.026,0,0
150,1,0,2925,4201.154,4190.769,4188.077,4188.718,4182.436,4169.487,4170.0,4192.308,4185.641,4185.385,4169.744000000001,4181.282,4176.923,4198.59,0,0
151,2,0,3194,4209.872,4198.718,4195.128,4198.974,4184.615,4166.026,4165.513,4186.154,4182.9490000000005,4182.9490000000005,4175.255999999999,4188.59,4179.744000000001,4206.154,0,0
152,3,0,2991,4217.308,4204.744000000001,4199.359,4205.513,4191.923,4174.359,4178.59,4176.667,4181.154,4191.795,4183.846,4191.538,4184.872,4218.205,0,0
153,4,0,3588,4214.487,4201.795,4194.359,4199.103,4193.462,4177.692,4186.795,4193.205,4187.436,4200.897,4183.333,4187.436,4184.359,4218.59,0,0
154,5,0,3164,4212.692,4198.205,4192.436,4197.308,4187.692,4172.0509999999995,4183.59,4206.667,4190.128,4194.872,4174.487,4186.667,4183.333,4212.0509999999995,0,0
155,6,0,3312,4212.9490000000005,4200.513,4196.026,4201.026,4186.795,4177.436,4184.744000000001,4196.026,4185.897,4186.795,4170.897,4186.282,4182.0509999999995,4207.692,0,0
156,7,0,3324,4202.821,4199.359,4188.205,4193.462,4188.205,4183.333,4184.744000000001,4176.538,4173.205,4179.487,4163.718,4175.128,4174.615,4198.205,0,0
157,8,0,3151,4193.462,4190.769,4176.923,4182.692,4185.897,4174.359,4182.0509999999995,4173.462,4166.282,4168.718,4150.897,4165.128,4168.333,4185.769,0,0
158,9,0,3563,4198.59,4187.821,4180.641,4185.641,4183.974,4168.462,4184.103,4186.282,4178.077,4172.564,4151.154,4169.615,4172.564,4185.128,0,0
159,10,0,2790,4201.282,4193.846,4189.872,4189.103,4183.846,4173.462,4186.282,4189.103,4183.974,4181.41,4155.385,4176.923,4176.538,4194.615,0,0
160,11,0,3311,4199.487,4197.436,4191.026,4185.769,4184.872,4172.179,4181.923,4180.0,4172.821,4175.769,4153.333,4176.795,4173.205,4202.692,0,0
161,12,0,3213,4206.538,4198.077,4191.41,4192.436,4187.0509999999995,4168.974,4177.692,4175.255999999999,4166.026,4175.128,4157.692,4175.255999999999,4176.154,4203.462,0,0
162,13,0,2085,4209.872,4196.538,4194.103,4198.846,4188.077,4175.128,4181.282,4177.308,4170.641,4182.308,4163.333,4177.308,4181.667,4202.179,0,0
163,14,0,2790,4204.615,4193.205,4191.282,4191.41,4188.205,4180.769,4193.333,4187.436,4178.718,4185.128,4158.846,4178.974,4181.667,4203.59,0,0
164,15,0,3311,4199.103,4190.255999999999,4188.333,4187.436,4188.59,4182.179,4194.231,4196.154,4185.769,4183.846,4155.769,4177.9490000000005,4180.385,4198.59,0,0
165,16,0,0,4189.231,4184.231,4184.359,4187.179,4187.564,4181.795,4180.0,4184.487,4183.462,4176.538,4151.795,4173.205,4176.538,4185.513,0,0
166,17,0,0,4186.282,4180.513,4182.179,4183.462,4187.308,4183.59,4187.564,4185.513,4181.154,4174.231,4149.744000000001,4171.667,4170.641,4185.385,0,0
167,18,0,0,4198.077,4186.154,4187.436,4183.974,4188.846,4184.359,4202.436,4203.333,4189.359,4184.872,4161.667,4175.128,4175.897,4200.513,0,0
168,19,0,0,4202.821,4188.846,4190.513,4184.615,4184.872,4172.692,4177.9490000000005,4183.846,4182.821,4186.538,4169.872,4178.846,4184.487,4201.923,0,0
169,20,0,0,4198.333,4183.718,4190.385,4181.667,4180.385,4163.974,4156.154,4166.41,4171.282,4181.282,4165.769,4182.436,4183.333,4198.205,0,0
170,21,0,0,4202.821,4185.513,4197.0509999999995,4188.718,4185.513,4174.231,4180.0,4196.026,4184.231,4190.0,4167.692,4187.179,4185.641,4209.231,0,0
171,22,0,0,4198.205,4189.744000000001,4195.513,4193.333,4186.667,4179.615,4189.231,4196.41,4190.255999999999,4192.308,4171.282,4183.205,4188.333,4208.333,0,0
172,23,0,0,4183.974,4181.154,4186.923,4181.41,4182.821,4177.179,4177.821,4170.513,4180.769,4188.846,4170.255999999999,4180.769,4185.641,4199.103,0,0
173,24,0,0,4190.255999999999,4180.641,4193.333,4182.436,4192.564,4187.179,4195.897,4195.385,4191.795,4202.692,4174.872,4190.641,4188.205,4208.462,0,0
174,25,0,0,4206.41,4195.769,4199.487,4197.0509999999995,4199.615,4191.41,4205.385,4214.872,4201.282,4204.487,4172.308,4190.385,4187.564,4212.821,0,0
175,26,0,0,4206.667,4207.436,4190.128,4197.821,4192.308,4181.282,4185.769,4187.308,4180.255999999999,4179.103,4153.846,4173.333,4175.128,4199.615,0,0
176,27,0,0,4200.513,4213.205,4181.923,4193.59,4194.231,4181.282,4179.615,4176.923,4165.897,4165.128,4146.026,4167.821,4167.308,4197.308,0,0
177,28,0,0,4203.718,4213.718,4186.026,4200.0,4201.795,4186.154,4188.077,4189.359,4172.308,4172.564,4153.718,4176.41,4171.41,4201.026,0,0
178,29,0,0,4205.513,4209.872,4185.897,4203.077,4193.718,4176.026,4182.179,4189.359,4173.462,4173.974,4152.308,4175.385,4172.692,4192.0509999999995,0,0
179,30,0,0,4200.641,4208.333,4181.795,4196.795,4187.436,4167.9490000000005,4173.077,4181.667,4166.026,4167.564,4140.385,4166.41,4169.487,4185.641,0,0
180,31,0,0,4199.231,4207.436,4183.718,4195.641,4196.538,4176.923,4179.615,4180.769,4166.667,4166.282,4134.359,4162.179,4168.974,4186.282,0,0
181,32,0,0,4196.538,4202.9490000000005,4186.282,4199.487,4202.564,4187.692,4196.667,4191.282,4177.436,4167.9490000000005,4135.769,4161.026,4168.846,4182.9490000000005,0,0
182,33,0,0,4189.872,4200.513,4180.128,4196.923,4201.795,4187.308,4202.436,4203.59,4185.641,4169.744000000001,4138.333,4159.487,4168.333,4179.231,0,0
183,34,0,0,4190.255999999999,4201.41,4176.795,4194.103,4200.128,4185.128,4191.41,4201.41,4185.0,4171.538,4141.795,4160.769,4170.769,4179.359,0,0
184,35,0,0,4202.308,4206.026,4186.026,4198.59,4196.795,4186.41,4181.154,4194.872,4182.692,4174.615,4144.744000000001,4163.974,4171.026,4187.0509999999995,0,0
185,36,0,0,4213.462,4215.641,4193.718,4205.769,4195.385,4181.026,4179.231,4204.103,4187.9490000000005,4181.667,4148.59,4170.255999999999,4169.359,4198.846,0,0
186,37,0,0,4216.795,4219.231,4194.103,4205.641,4197.436,4174.615,4178.846,4203.205,4193.718,4190.385,4161.026,4176.154,4177.9490000000005,4203.974,0,0
187,38,0,0,4213.846,4218.462,4195.513,4205.128,4201.923,4180.641,4185.641,4185.769,4185.128,4191.795,4171.41,4176.282,4185.255999999999,4202.564,0,0
188,39,0,0,4207.436,4214.103,4192.0509999999995,4202.564,4200.128,4183.846,4191.923,4183.077,4171.923,4181.154,4162.179,4169.872,4175.769,4197.308,0,0
189,40,0,0,4198.333,4202.821,4184.615,4191.538,4189.744000000001,4171.282,4178.59,4185.897,4168.846,4169.615,4144.359,4162.564,4166.538,4186.282,0,0
190,41,0,0,4192.821,4198.333,4180.128,4185.128,4184.231,4165.128,4168.462,4180.128,4170.897,4165.769,4137.179,4158.205,4168.462,4178.462,0,0
191,42,0,0,4195.385,4203.333,4182.179,4188.59,4187.564,4175.641,4181.795,4187.179,4173.974,4168.846,4139.744000000001,4159.744000000001,4169.744000000001,4179.744000000001,0,0
192,43,0,0,4193.077,4200.385,4180.897,4190.385,4190.769,4183.974,4197.308,4202.436,4180.385,4170.128,4137.821,4158.718,4168.333,4174.487,0,0
193,44,0,0,4183.205,4192.821,4175.897,4185.641,4193.333,4186.026,4201.026,4199.103,4183.718,4168.333,4135.641,4153.205,4170.255999999999,4168.462,0,0
194,45,0,0,4182.436,4195.769,4180.641,4188.077,4199.487,4187.692,4202.692,4195.255999999999,4183.077,4172.564,4145.0,4154.359,4169.872,4176.282,0,0
195,46,0,0,4188.59,4205.255999999999,4188.59,4200.0,4202.179,4185.513,4204.872,4206.026,4185.897,4178.205,4154.231,4159.487,4168.205,4183.846,0,0
196,47,0,0,4186.795,4203.205,4184.615,4199.103,4197.564,4182.0509999999995,4193.205,4203.077,4187.179,4173.846,4147.436,4161.154,4170.128,4179.487,0,0
197,48,0,0,4181.41,4191.282,4175.897,4185.769,4188.974,4182.436,4182.9490000000005,4186.795,4180.255999999999,4167.564,4138.59,4158.974,4166.667,4171.154,0,0
198,49,0,0,4181.795,4186.41,4180.128,4184.615,4184.615,4184.231,4190.0,4188.333,4174.744000000001,4167.692,4140.0,4158.846,4159.359,4169.615,0,0
199,50,0,0,4182.0509999999995,4190.641,4183.205,4191.538,4192.692,4187.308,4197.179,4201.282,4177.308,4167.179,4145.385,4158.718,4160.513,4175.897,0,0
200,51,0,0,4188.462,4197.308,4180.513,4191.923,4198.59,4190.769,4188.205,4195.897,4183.077,4171.538,4151.667,4161.923,4169.487,4184.744000000001,0,0
201,52,0,0,4200.255999999999,4202.308,4185.385,4193.333,4196.154,4188.718,4185.128,4186.795,4185.255999999999,4184.744000000001,4155.513,4165.255999999999,4171.538,4188.718,0,0
202,53,0,0,4204.103,4202.436,4187.692,4198.077,4197.692,4187.436,4196.923,4194.487,4185.897,4184.615,4152.564,4163.59,4168.205,4187.308,0,0
203,54,0,0,4199.615,4202.0509999999995,4183.846,4199.103,4201.41,4188.59,4198.718,4197.821,4185.0,4174.103,4150.769,4159.615,4169.487,4186.026,0,0
204,55,0,0,4199.487,4205.385,4190.0,4200.641,4199.231,4187.308,4197.692,4198.205,4183.462,4175.513,4153.333,4161.154,4170.897,4186.154,0,0
205,56,0,0,4203.333,4206.923,4196.795,4202.308,4196.41,4187.692,4204.103,4209.615,4188.718,4183.462,4158.205,4165.641,4170.128,4188.718,0,0
206,57,0,0,4201.154,4203.077,4192.9490000000005,4200.769,4194.487,4183.205,4197.308,4210.0,4190.385,4182.436,4159.231,4163.333,4171.795,4187.0509999999995,0,0
207,58,0,0,4197.9490000000005,4203.462,4191.154,4200.897,4192.821,4173.846,4185.0,4194.231,4184.487,4180.769,4157.436,4158.974,4178.846,4184.615,0,0
208,59,0,0,4205.255999999999,4205.128,4190.255999999999,4203.846,4192.179,4176.026,4184.872,4188.718,4182.821,4182.308,4161.667,4160.897,4183.718,4191.41,0,0
209,60,0,0,4215.255999999999,4204.359,4185.255999999999,4203.205,4189.744000000001,4180.769,4188.205,4186.026,4183.205,4180.385,4169.744000000001,4164.103,4181.538,4200.255999999999,0,0
210,61,0,0,4216.41,4204.231,4187.9490000000005,4197.436,4188.974,4177.564,4192.436,4181.795,4180.385,4178.974,4170.385,4165.128,4179.231,4201.41,0,0
211,62,0,0,4211.667,4203.718,4198.462,4197.308,4195.0,4181.026,4205.641,4201.538,4187.179,4184.359,4167.179,4167.692,4173.974,4197.821,0,0
212,63,0,0,4207.821,4202.821,4203.846,4205.128,4195.385,4183.59,4197.692,4206.923,4190.769,4186.923,4170.0,4168.59,4171.154,4197.179,0,0
213,64,0,2421,4205.641,4202.436,4199.872,4201.667,4188.077,4171.795,4170.255999999999,4173.205,4177.0509999999995,4175.641,4166.795,4164.103,4172.821,4198.333,0,0
214,65,0,2928,4202.821,4193.974,4193.59,4189.744000000001,4186.667,4169.487,4171.026,4170.0,4174.744000000001,4169.615,4157.564,4163.59,4172.308,4195.769,0,0
215,66,0,3194,4201.282,4183.846,4196.026,4188.077,4186.538,4173.846,4186.667,4201.026,4187.0509999999995,4181.667,4161.154,4171.026,4172.436,4196.795,0,0
216,67,0,2990,4203.462,4184.872,4201.282,4192.436,4181.923,4168.59,4190.0,4202.564,4191.538,4191.41,4175.128,4175.0,4181.154,4206.538,0,0
217,68,0,3588,4203.205,4183.462,4200.255999999999,4190.897,4184.359,4173.718,4195.641,4199.103,4196.282,4200.128,4186.795,4175.641,4194.744000000001,4215.641,0,0
218,69,0,3164,4193.333,4166.154,4193.718,4180.897,4185.255999999999,4181.538,4204.103,4217.436,4205.513,4215.128,4195.769,4175.641,4197.9490000000005,4216.538,0,0
219,70,0,3310,4183.718,4149.487,4186.282,4172.821,4174.615,4179.103,4204.359,4208.333,4202.9490000000005,4214.615,4200.128,4172.821,4194.872,4216.795,0,0
220,71,0,3328,4184.359,4144.744000000001,4179.487,4169.103,4168.077,4178.462,4197.179,4183.846,4195.255999999999,4204.231,4200.255999999999,4171.923,4194.872,4220.255999999999,0,0
221,72,0,3152,4187.308,4141.667,4178.333,4159.744000000001,4168.846,4176.795,4188.205,4188.59,4196.923,4208.974,4200.769,4175.769,4198.846,4223.846,0,0
222,73,0,3563,4180.641,4136.282,4178.718,4151.282,4165.128,4168.846,4183.59,4200.385,4199.231,4210.769,4194.231,4175.0,4196.538,4219.103,0,0
223,74,0,2790,4169.487,4135.641,4176.41,4158.333,4164.231,4172.564,4183.846,4201.795,4201.154,4202.0509999999995,4185.641,4168.077,4190.641,4207.436,0,0
224,75,0,3311,4172.308,4142.564,4178.333,4170.641,4172.564,4183.846,4182.692,4201.282,4204.487,4207.308,4190.0,4163.462,4193.333,4204.615,0,0
225,76,0,3216,4182.308,4148.333,4186.41,4171.795,4173.59,4182.436,4187.564,4202.179,4201.667,4212.564,4198.205,4166.795,4193.846,4214.487,0,0
226,77,0,2086,4186.795,4148.846,4191.795,4170.385,4169.615,4180.769,4198.077,4207.821,4197.436,4201.923,4198.718,4175.513,4185.385,4226.282,0,0
227,78,0,2790,4195.0,4152.821,4190.128,4172.821,4177.9490000000005,4185.255999999999,4201.667,4218.077,4206.41,4204.744000000001,4200.641,4178.846,4186.154,4231.41,0,0
228,79,0,3311,4200.128,4157.436,4188.59,4173.59,4182.821,4186.923,4201.026,4219.744000000001,4214.103,4215.385,4203.718,4178.077,4196.923,4226.41,0,0
229,80,0,3216,4188.974,4152.0509999999995,4187.9490000000005,4172.436,4175.513,4185.385,4200.897,4211.026,4205.385,4207.436,4196.667,4174.744000000001,4193.846,4214.231,0,0
230,81,0,2086,4176.923,4146.795,4185.385,4171.026,4177.0509999999995,4185.0,4200.513,4207.179,4199.487,4198.59,4186.923,4168.974,4183.077,4205.0,0,0
231,82,0,2790,4177.564,4149.231,4183.205,4170.0,4185.385,4185.769,4203.205,4214.487,4204.615,4203.718,4185.641,4166.154,4185.641,4202.692,0,0
232,83,0,3311,4182.564,4152.179,4184.487,4171.795,4182.308,4189.359,4205.128,4219.231,4205.513,4205.641,4188.59,4173.462,4196.026,4206.026,0,0
233,84,0,3216,4186.154,4154.487,4189.359,4175.255999999999,4180.897,4195.0,4203.846,4206.667,4201.923,4202.821,4187.821,4178.462,4197.9490000000005,4213.974,0,0
234,85,0,2086,4186.923,4156.154,4188.846,4174.744000000001,4186.026,4193.846,4201.282,4197.179,4201.923,4202.9490000000005,4186.923,4170.513,4190.769,4217.9490000000005,0,0
235,86,0,2790,4182.0509999999995,4152.564,4182.436,4170.897,4178.846,4187.308,4204.231,4210.255999999999,4200.513,4200.513,4187.821,4163.333,4186.41,4210.897,0,0
236,87,0,3311,4174.744000000001,4148.462,4180.385,4167.821,4170.513,4185.255999999999,4210.385,4215.385,4200.255999999999,4199.872,4185.769,4164.872,4187.692,4201.795,0,0
237,88,0,3216,4170.641,4151.154,4181.538,4167.308,4173.718,4186.667,4201.154,4206.795,4202.9490000000005,4202.564,4184.103,4163.333,4187.0509999999995,4200.513,0,0
238,89,0,2086,4176.026,4153.333,4178.846,4170.385,4174.359,4185.897,4183.59,4203.462,4198.333,4198.846,4182.564,4158.077,4182.436,4200.513,0,0
239,90,0,2790,4184.872,4155.769,4176.154,4171.667,4173.974,4185.255999999999,4186.923,4200.897,4192.436,4193.333,4182.692,4161.282,4182.179,4201.923,0,0
240,91,0,3311,4188.205,4162.9490000000005,4182.436,4173.333,4181.154,4186.154,4202.436,4205.513,4197.179,4199.231,4192.0509999999995,4170.641,4183.718,4213.462,0,0
241,92,0,3216,4188.462,4163.59,4191.282,4178.59,4188.205,4188.333,4199.103,4218.718,4206.41,4212.692,4199.359,4176.538,4186.154,4219.487,0,0
242,93,0,2086,4186.026,4157.0509999999995,4187.821,4177.0509999999995,4186.667,4190.128,4190.897,4212.821,4204.487,4213.718,4191.282,4173.59,4189.744000000001,4207.308,0,0
243,94,0,2790,4181.795,4153.462,4181.026,4168.974,4182.821,4188.974,4193.077,4192.436,4193.846,4197.179,4179.487,4164.487,4187.821,4196.923,0,0
244,95,0,3311,4182.692,4154.615,4183.462,4168.846,4183.077,4184.872,4190.385,4195.255999999999,4193.718,4189.103,4181.282,4162.692,4183.333,4200.385,0,0
245,96,0,3216,4187.0509999999995,4154.359,4187.0509999999995,4172.308,4184.615,4183.59,4187.179,4210.769,4201.026,4196.923,4186.154,4170.0,4184.487,4203.846,0,0
246,97,0,2086,4185.128,4153.846,4184.744000000001,4172.0509999999995,4184.744000000001,4187.179,4194.615,4209.487,4200.128,4202.0509999999995,4185.385,4172.179,4186.795,4202.9490000000005,0,0
247,98,0,2790,4182.436,4156.667,4185.0,4174.744000000001,4183.59,4189.231,4203.846,4209.744000000001,4200.897,4205.255999999999,4190.128,4173.333,4186.795,4204.231,0,0
248,99,0,3311,4185.128,4156.282,4184.615,4175.513,4183.333,4188.077,4201.538,4223.718,4210.385,4215.769,4201.026,4178.077,4193.462,4207.308,0,0
249,100,0,3216,4185.128,4154.231,4181.795,4171.41,4185.513,4186.923,4191.538,4221.41,4208.333,4217.0509999999995,4203.846,4179.231,4199.487,4205.641,0,0
250,101,0,2086,4179.744000000001,4152.692,4179.487,4168.718,4181.41,4184.744000000001,4185.513,4204.359,4197.179,4204.744000000001,4192.0509999999995,4169.872,4191.667,4201.667,0,0
251,102,0,2790,4181.667,4153.205,4178.974,4170.128,4174.872,4182.564,4191.026,4211.795,4200.513,4201.667,4184.103,4166.154,4183.462,4205.385,0,0
252,103,0,3311,4192.9490000000005,4157.0509999999995,4184.615,4174.103,4178.462,4185.0,4200.641,4221.795,4203.718,4207.821,4192.179,4174.487,4190.641,4215.385,0,0
253,104,0,3216,4202.564,4161.923,4189.744000000001,4176.667,4185.641,4188.205,4203.205,4206.41,4199.872,4207.0509999999995,4202.436,4181.282,4196.41,4220.513,0,0
254,105,0,2086,4197.692,4160.385,4182.821,4174.359,4181.154,4186.795,4197.0509999999995,4197.308,4198.59,4203.077,4198.59,4176.154,4188.718,4214.487,0,0
255,106,0,2790,4185.128,4155.513,4175.897,4170.641,4172.692,4180.769,4184.744000000001,4196.154,4191.282,4200.0,4187.564,4168.205,4182.692,4204.231,0,0
256,107,0,3311,4183.718,4162.692,4176.795,4173.077,4175.128,4175.385,4180.769,4192.821,4187.308,4200.641,4187.308,4166.795,4187.436,4202.9490000000005,0,0
257,108,0,3216,4189.231,4168.846,4178.59,4175.513,4177.9490000000005,4172.436,4184.103,4197.308,4197.179,4203.718,4189.487,4168.077,4191.282,4206.026,0,0
258,109,0,2086,4185.897,4158.462,4176.282,4169.744000000001,4173.077,4171.026,4181.026,4201.026,4199.231,4199.744000000001,4186.667,4168.974,4185.0,4203.077,0,0
259,110,0,2790,4180.769,4154.744000000001,4175.0,4166.538,4174.872,4175.513,4185.385,4199.359,4194.615,4199.231,4191.282,4170.0,4186.41,4198.846,0,0
260,111,0,3311,4185.513,4167.692,4182.308,4175.641,4186.026,4184.744000000001,4203.974,4219.615,4207.9490000000005,4211.667,4200.385,4174.487,4196.282,4201.923,0,0
261,112,0,3216,4188.462,4171.282,4188.462,4183.333,4188.59,4187.821,4203.846,4230.255999999999,4216.282,4214.615,4198.462,4175.641,4194.872,4204.744000000001,0,0
262,113,0,2086,4185.513,4165.897,4186.795,4183.59,4183.846,4184.231,4183.59,4200.513,4199.359,4202.692,4195.897,4173.205,4187.692,4206.538,0,0
263,114,0,2790,4188.718,4170.255999999999,4184.872,4184.231,4188.846,4185.769,4180.513,4185.128,4192.9490000000005,4201.282,4200.385,4173.462,4188.59,4212.9490000000005,0,0
264,115,0,3311,4188.718,4171.667,4184.487,4185.255999999999,4192.308,4189.744000000001,4189.615,4198.077,4197.436,4205.513,4197.308,4172.436,4191.026,4213.59,0,0
265,116,0,3216,4183.974,4168.846,4185.769,4183.59,4186.41,4188.846,4187.9490000000005,4203.846,4193.59,4201.282,4195.255999999999,4171.667,4187.179,4209.744000000001,0,0
266,117,0,2086,4191.667,4174.872,4191.282,4185.128,4184.872,4186.538,4187.0509999999995,4200.0,4190.641,4200.0,4198.59,4176.154,4184.872,4214.615,0,0
267,118,0,2790,4201.41,4176.026,4189.359,4188.333,4186.026,4184.103,4186.026,4195.128,4187.9490000000005,4199.359,4191.795,4176.282,4184.103,4217.179,0,0
268,119,0,3311,4198.846,4169.487,4180.513,4185.897,4184.231,4183.205,4183.077,4197.821,4183.974,4194.103,4188.462,4171.795,4183.205,4211.923,0,0
269,120,0,3216,4198.462,4171.923,4182.9490000000005,4186.154,4185.385,4186.282,4196.538,4211.795,4189.872,4197.179,4196.538,4173.974,4183.718,4210.897,0,0
270,121,0,2086,4202.821,4175.128,4189.744000000001,4188.974,4187.821,4187.9490000000005,4200.513,4215.385,4193.077,4197.9490000000005,4192.692,4174.359,4183.59,4209.487,0,0
271,122,0,2790,4198.846,4170.255999999999,4187.308,4185.769,4184.744000000001,4184.744000000001,4187.308,4205.128,4189.103,4191.41,4179.103,4168.974,4182.436,4199.231,0,0
272,123,0,3311,4198.333,4174.231,4190.255999999999,4186.538,4184.615,4185.255999999999,4195.128,4215.513,4199.103,4196.538,4183.718,4170.769,4185.128,4197.9490000000005,0,0
273,124,0,3216,4203.333,4179.615,4194.615,4191.923,4187.564,4188.462,4202.436,4230.255999999999,4210.255999999999,4207.821,4197.9490000000005,4176.538,4192.821,4210.513,0,0
274,125,0,2086,4199.872,4174.231,4187.436,4188.718,4185.385,4186.154,4185.897,4216.026,4202.9490000000005,4207.0509999999995,4200.255999999999,4176.026,4198.462,4215.513,0,0
275,126,0,2790,4197.564,4172.436,4185.255999999999,4183.974,4184.359,4184.359,4183.205,4200.0,4199.872,4206.026,4199.615,4178.077,4200.641,4214.231,0,0
276,127,0,52,4203.846,4175.0,4189.615,4187.564,4185.513,4186.026,4195.641,4203.205,4201.667,4207.179,4199.872,4180.385,4197.179,4215.255999999999,0,0
277,0,0,2420,4199.744000000001,4170.0,4189.487,4188.846,4181.154,4184.359,4187.692,4201.667,4192.9490000000005,4197.692,4193.333,4174.359,4187.179,4212.436,0,0
278,1,0,2930,4187.821,4169.103,4188.333,4186.026,4177.436,4180.255999999999,4172.564,4186.795,4185.0,4191.538,4184.231,4167.564,4185.513,4204.231,0,0
279,2,0,3194,4191.538,4175.641,4187.692,4185.0,4182.821,4180.513,4167.436,4184.231,4185.128,4197.692,4184.359,4167.436,4193.718,4202.0509999999995,0,0
280,3,0,2990,4202.436,4177.692,4187.692,4188.462,4187.0509999999995,4183.462,4174.744000000001,4207.692,4192.821,4201.41,4188.333,4172.564,4192.436,4210.385,0,0
281,4,0,3588,4203.462,4177.564,4193.462,4193.718,4186.41,4185.769,4195.128,4225.641,4201.923,4203.718,4188.718,4179.359,4185.385,4220.128,0,0
282,5,0,3163,4201.41,4176.923,4193.333,4190.513,4187.692,4186.41,4200.0,4210.513,4198.333,4204.744000000001,4188.462,4176.154,4189.231,4217.436,0,0
283,6,0,3309,4196.923,4172.179,4183.462,4182.564,4182.9490000000005,4184.744000000001,4178.59,4186.538,4181.538,4192.821,4180.0,4166.026,4191.154,4203.333,0,0
284,7,0,3322,4188.718,4169.231,4178.077,4178.59,4173.846,4181.795,4165.0,4184.872,4173.077,4176.41,4168.59,4165.0,4181.41,4198.59,0,0
285,8,0,3150,4184.359,4165.897,4176.667,4173.077,4172.564,4181.026,4174.615,4188.205,4174.487,4170.641,4168.718,4167.9490000000005,4174.359,4198.59,0,0
286,9,0,3563,4179.615,4157.692,4172.308,4167.9490000000005,4174.615,4184.103,4187.0509999999995,4183.59,4171.795,4170.385,4167.692,4163.333,4171.795,4189.103,0,0
287,10,0,2790,4168.205,4150.641,4171.795,4167.179,4169.744000000001,4184.872,4185.255999999999,4187.308,4167.564,4167.436,4158.718,4160.128,4168.59,4180.128,0,0
288,11,0,3311,4167.0509999999995,4152.436,4175.128,4166.923,4168.333,4184.103,4181.538,4195.128,4167.179,4165.0,4157.0509999999995,4160.769,4167.308,4183.205,0,0
289,12,0,3216,4179.103,4161.026,4180.255999999999,4173.718,4176.923,4183.462,4189.231,4202.308,4175.641,4171.538,4166.154,4164.103,4167.308,4192.436,0,0
290,13,0,2082,4185.385,4167.692,4187.821,4184.359,4184.359,4183.846,4200.641,4213.974,4185.641,4182.9490000000005,4176.41,4172.179,4173.205,4199.359,0,0
291,14,0,2790,4190.385,4171.923,4189.744000000001,4190.769,4191.538,4192.692,4205.128,4211.41,4187.308,4189.231,4184.615,4176.538,4183.846,4207.436,0,0
292,15,0,3311,4197.308,4175.769,4187.821,4194.103,4196.41,4197.436,4203.077,4200.255999999999,4185.897,4188.205,4188.333,4176.795,4186.795,4215.128,0,0
293,16,0,0,4192.179,4171.026,4186.923,4190.513,4192.0509999999995,4192.0509999999995,4201.667,4209.359,4187.821,4186.538,4188.846,4179.744000000001,4183.59,4211.923,0,0
294,17,0,0,4188.333,4172.564,4192.179,4191.026,4187.436,4191.282,4204.744000000001,4223.333,4189.487,4187.0509999999995,4185.641,4182.179,4185.128,4202.692,0,0
295,18,0,0,4198.333,4190.513,4194.615,4199.872,4189.103,4190.897,4202.0509999999995,4215.385,4188.59,4186.538,4177.179,4178.59,4182.308,4202.9490000000005,0,0
296,19,0,0,4202.821,4203.59,4185.513,4199.615,4187.436,4182.821,4190.0,4206.026,4189.487,4183.077,4171.41,4175.385,4177.308,4206.026,0,0
297,20,0,0,4200.255999999999,4210.128,4179.231,4195.897,4187.179,4180.897,4183.974,4199.744000000001,4184.615,4176.538,4166.923,4171.026,4180.641,4199.744000000001,0,0
298,21,0,0,4209.872,4222.564,4186.282,4206.923,4195.128,4185.769,4184.231,4187.692,4174.872,4169.615,4156.538,4167.0509999999995,4177.436,4194.487,0,0
299,22,0,0,4221.282,4229.615,4194.103,4214.359,4199.744000000001,4185.513,4185.513,4190.641,4176.282,4171.026,4152.9490000000005,4171.154,4171.154,4196.923,0,0
300,23,0,0,4221.41,4226.154,4194.744000000001,4208.333,4201.923,4188.077,4194.487,4207.436,4187.436,4182.821,4160.385,4177.9490000000005,4178.846,4201.667,0,0
301,24,0,0,4218.974,4222.179,4192.436,4205.513,4198.974,4189.103,4197.308,4204.872,4188.333,4186.667,4160.0,4177.0509999999995,4181.538,4201.923,0,0
302,25,0,0,4215.641,4218.205,4190.513,4202.692,4188.59,4184.103,4186.667,4193.718,4180.897,4173.205,4152.308,4173.846,4171.538,4198.205,0,0
303,26,0,0,4213.59,4211.41,4189.615,4200.513,4185.385,4185.255999999999,4181.154,4197.179,4180.0,4168.205,4156.41,4176.282,4172.692,4197.692,0,0
304,27,0,0,4217.308,4208.077,4191.41,4202.179,4189.615,4188.718,4193.205,4200.255999999999,4182.9490000000005,4181.026,4164.359,4177.821,4185.128,4200.0,0,0
305,28,0,0,4216.41,4207.9490000000005,4190.513,4201.667,4186.795,4186.41,4201.154,4198.205,4185.769,4182.692,4159.487,4175.385,4182.564,4200.385,0,0
306,29,0,0,4205.897,4204.872,4187.9490000000005,4197.179,4180.513,4184.231,4190.769,4200.385,4186.026,4174.103,4153.846,4175.513,4172.436,4197.9490000000005,0,0
307,30,0,0,4199.615,4200.128,4190.513,4196.026,4181.282,4185.385,4185.641,4205.0,4184.103,4177.821,4160.255999999999,4179.615,4176.41,4196.026,0,0
308,31,0,0,4202.0509999999995,4202.436,4194.103,4198.205,4184.487,4186.154,4198.59,4222.0509999999995,4191.795,4184.872,4168.846,4182.821,4185.0,4199.231,0,0
309,32,0,0,4204.103,4205.255999999999,4194.359,4201.667,4185.897,4188.59,4208.462,4235.128,4197.308,4186.538,4167.9490000000005,4183.462,4185.128,4199.615,0,0
310,33,0,0,4201.538,4201.026,4191.154,4201.923,4185.255999999999,4189.359,4205.769,4224.231,4189.872,4185.0,4162.0509999999995,4178.333,4183.718,4190.897,0,0
311,34,0,0,4198.718,4204.872,4190.0,4199.103,4184.231,4185.513,4204.744000000001,4210.897,4185.641,4175.769,4156.026,4172.692,4181.41,4181.154,0,0
312,35,0,0,4197.821,4211.923,4189.615,4198.718,4184.615,4183.974,4197.692,4207.436,4185.128,4166.41,4146.795,4168.333,4174.359,4175.641,0,0
313,36,0,0,4193.462,4208.59,4186.667,4198.846,4183.333,4183.846,4183.59,4196.026,4175.385,4163.846,4137.564,4164.487,4169.872,4170.897,0,0
314,37,0,0,4188.333,4205.255999999999,4183.974,4197.9490000000005,4183.59,4183.462,4183.205,4181.923,4167.564,4159.487,4137.308,4163.846,4171.282,4166.795,0,0
315,38,0,0,4191.41,4204.231,4182.0509999999995,4198.333,4185.641,4185.769,4188.462,4181.026,4171.538,4157.0509999999995,4141.282,4166.667,4171.667,4167.564,0,0
316,39,0,0,4196.154,4202.436,4181.026,4195.897,4185.897,4186.538,4183.846,4189.231,4172.0509999999995,4158.333,4138.846,4165.897,4169.103,4168.718,0,0
317,40,0,0,4195.385,4208.59,4186.538,4195.255999999999,4192.308,4189.359,4188.59,4197.692,4171.282,4155.513,4136.923,4166.154,4167.564,4173.333,0,0
318,41,0,0,4199.231,4218.205,4196.795,4202.9490000000005,4198.718,4196.795,4210.641,4205.0,4179.103,4160.255999999999,4141.41,4175.0,4170.513,4179.359,0,0
319,42,0,0,4204.744000000001,4212.821,4194.231,4206.667,4193.333,4195.255999999999,4214.359,4207.179,4183.333,4167.0509999999995,4141.282,4177.9490000000005,4172.692,4177.821,0,0
320,43,0,0,4197.692,4202.308,4182.436,4200.255999999999,4185.255999999999,4186.923,4192.564,4203.205,4180.128,4162.692,4137.308,4171.923,4169.615,4170.641,0,0
321,44,0,0,4192.0509999999995,4201.538,4178.974,4196.795,4185.897,4187.564,4187.9490000000005,4203.333,4183.718,4163.846,4141.026,4171.026,4169.744000000001,4171.667,0,0
322,45,0,0,4197.564,4203.077,4183.077,4198.462,4188.718,4190.0,4199.231,4204.103,4184.487,4171.795,4146.154,4172.9490000000005,4173.59,4174.487,0,0
323,46,0,0,4201.154,4205.0,4183.974,4198.462,4186.282,4184.359,4191.667,4192.821,4173.462,4170.128,4141.795,4171.41,4173.462,4171.026,0,0
324,47,0,0,4199.615,4207.308,4183.077,4197.692,4183.462,4180.255999999999,4177.0509999999995,4185.0,4172.436,4166.795,4142.9490000000005,4172.308,4171.795,4173.846,0,0
325,48,0,0,4198.846,4205.513,4185.128,4198.205,4184.615,4183.462,4184.744000000001,4198.462,4183.077,4169.103,4153.718,4174.487,4171.667,4182.564,0,0
326,49,0,0,4200.897,4207.436,4186.795,4199.487,4187.692,4187.308,4196.026,4208.846,4181.538,4169.487,4155.897,4175.255999999999,4171.923,4185.0,0,0
327,50,0,0,4201.026,4212.9490000000005,4182.0509999999995,4199.872,4188.205,4185.769,4188.205,4195.513,4177.308,4170.385,4151.795,4176.795,4174.103,4181.667,0,0
328,51,0,0,4200.255999999999,4208.077,4179.872,4200.385,4185.385,4182.821,4179.487,4181.41,4180.513,4170.641,4154.231,4174.872,4174.359,4177.564,0,0
329,52,0,0,4198.718,4201.667,4183.59,4200.897,4189.231,4185.0,4184.487,4188.077,4180.128,4167.436,4155.513,4171.923,4171.923,4175.641,0,0
330,53,0,0,4198.718,4209.872,4184.487,4199.744000000001,4199.487,4187.821,4190.769,4201.923,4182.308,4173.205,4154.872,4177.564,4177.308,4179.615,0,0
331,54,0,0,4200.255999999999,4218.333,4182.9490000000005,4200.0,4205.641,4192.436,4195.128,4204.487,4194.615,4186.154,4161.923,4182.436,4187.692,4185.128,0,0
332,55,0,0,4201.538,4215.513,4187.692,4202.9490000000005,4203.974,4200.897,4205.255999999999,4201.154,4198.718,4189.359,4168.846,4180.641,4187.821,4185.769,0,0
333,56,0,0,4201.795,4212.564,4190.641,4202.821,4201.282,4201.41,4205.641,4202.821,4192.692,4185.0,4165.255999999999,4181.026,4182.692,4185.641,0,0
334,57,0,0,4200.897,4214.359,4188.205,4201.667,4201.667,4191.667,4188.462,4201.667,4189.359,4180.897,4160.385,4183.205,4182.179,4185.769,0,0
335,58,0,0,4202.308,4211.795,4188.462,4203.462,4198.59,4186.154,4186.667,4196.026,4186.795,4178.333,4159.744000000001,4182.821,4184.103,4186.026,0,0
336,59,0,0,4198.846,4203.59,4188.462,4199.231,4190.897,4186.795,4201.795,4197.692,4185.385,4177.692,4157.308,4180.769,4183.077,4186.923,0,0
337,60,0,0,4190.0,4199.872,4182.0509999999995,4189.103,4185.385,4185.385,4199.359,4201.923,4188.846,4175.255999999999,4154.359,4177.564,4181.41,4182.821,0,0
338,61,0,0,4185.255999999999,4198.59,4177.179,4185.0,4185.897,4183.205,4182.9490000000005,4194.872,4190.128,4170.0,4155.128,4170.0,4183.846,4173.846,0,0
339,62,0,0,4183.59,4198.974,4176.795,4187.0509999999995,4187.436,4184.359,4184.615,4193.846,4186.282,4169.103,4154.744000000001,4167.692,4183.718,4167.9490000000005,0,0
340,63,0,0,4182.692,4200.641,4176.667,4187.692,4183.718,4184.872,4190.897,4198.462,4182.692,4167.308,4151.41,4168.333,4175.128,4168.974,0,0
341,64,0,2421,4186.41,4200.897,4179.359,4186.923,4182.436,4182.0509999999995,4182.9490000000005,4194.359,4184.872,4161.538,4151.667,4169.872,4174.744000000001,4176.667,0,0
342,65,0,2920,4189.744000000001,4199.872,4180.513,4186.41,4183.846,4181.41,4182.564,4185.897,4181.923,4156.795,4151.154,4171.795,4179.872,4183.205,0,0
343,66,0,3193,4185.897,4200.641,4177.692,4187.179,4183.846,4184.359,4188.846,4177.308,4171.538,4153.846,4143.077,4169.359,4175.769,4182.179,0,0
344,67,0,2990,4185.897,4202.436,4176.282,4188.077,4183.333,4181.923,4176.795,4169.615,4166.154,4157.179,4140.0,4167.821,4176.667,4180.897,0,0
345,68,0,3588,4191.923,4202.0509999999995,4177.692,4187.179,4183.333,4176.923,4162.0509999999995,4172.821,4170.513,4165.255999999999,4147.436,4175.0,4182.821,4183.077,0,0
346,69,0,3161,4192.821,4202.308,4180.513,4192.9490000000005,4185.0,4180.641,4174.359,4185.385,4179.359,4167.436,4154.103,4178.846,4177.564,4181.41,0,0
347,70,0,3302,4188.462,4203.974,4183.846,4200.0,4188.333,4185.0,4188.59,4187.436,4182.821,4167.564,4154.359,4175.513,4175.385,4177.308,0,0
348,71,0,3316,4186.154,4199.231,4182.0509999999995,4193.974,4189.103,4182.9490000000005,4182.9490000000005,4183.718,4176.026,4169.103,4154.359,4173.333,4179.359,4176.282,0,0
349,72,0,3147,4183.846,4189.487,4179.103,4184.103,4184.487,4182.564,4181.538,4184.103,4170.255999999999,4167.564,4153.59,4172.179,4172.564,4173.462,0,0
350,73,0,3561,4182.564,4185.385,4179.872,4183.59,4181.923,4181.154,4187.564,4186.538,4178.205,4166.41,4149.103,4171.282,4172.0509999999995,4172.0509999999995,0,0
351,74,0,2790,4184.744000000001,4186.795,4177.9490000000005,4185.0,4182.821,4179.231,4186.795,4191.538,4186.795,4169.872,4150.897,4175.128,4185.0,4177.564,0,0
352,75,0,3311,4185.897,4189.359,4180.0,4183.846,4182.821,4181.795,4186.667,4197.821,4186.026,4177.9490000000005,4159.744000000001,4177.308,4190.255999999999,4184.744000000001,0,0
353,76,0,3216,4187.9490000000005,4196.667,4188.718,4191.795,4184.615,4184.103,4188.462,4199.615,4187.179,4182.692,4162.0509999999995,4178.974,4187.436,4187.0509999999995,0,0
354,77,0,2082,4194.487,4201.41,4190.255999999999,4200.641,4186.41,4183.846,4184.231,4189.744000000001,4186.667,4177.564,4158.205,4179.872,4185.897,4185.385,0,0
355,78,0,2790,4197.308,4198.333,4186.026,4195.769,4184.615,4181.41,4181.538,4181.282,4185.128,4177.179,4163.846,4178.333,4186.026,4187.564,0,0
356,79,0,3311,4197.9490000000005,4200.897,4188.59,4192.308,4185.255999999999,4174.103,4183.333,4190.769,4191.026,4187.9490000000005,4176.795,4184.744000000001,4187.692,4197.692,0,0
357,80,0,3216,4201.41,4204.103,4191.41,4198.974,4187.692,4171.41,4184.231,4204.103,4192.436,4189.487,4177.821,4187.9490000000005,4187.692,4205.128,0,0
358,81,0,2082,4200.769,4200.255999999999,4191.154,4201.154,4188.333,4181.026,4188.462,4200.769,4185.0,4182.564,4171.667,4180.0,4186.026,4202.308,0,0
359,82,0,2790,4204.615,4205.0,4194.615,4200.641,4195.385,4189.487,4200.385,4195.641,4184.872,4186.154,4176.41,4182.0509999999995,4187.179,4200.769,0,0
360,83,0,3311,4218.333,4216.795,4198.974,4206.026,4202.821,4189.359,4207.0509999999995,4208.462,4191.41,4190.385,4187.179,4193.718,4187.692,4207.179,0,0
361,84,0,3216,4218.205,4215.128,4194.487,4204.615,4195.385,4184.487,4188.077,4202.179,4190.641,4186.538,4185.513,4190.255999999999,4187.821,4208.077,0,0
362,85,0,2082,4206.026,4206.154,4186.282,4198.59,4185.255999999999,4182.9490000000005,4172.179,4170.255999999999,4180.385,4183.846,4175.0,4180.128,4189.231,4197.9490000000005,0,0
363,86,0,2790,4196.795,4201.026,4181.667,4196.538,4186.282,4184.231,4183.462,4172.179,4174.615,4181.795,4165.641,4177.308,4182.564,4188.077,0,0
364,87,0,3311,4187.0509999999995,4193.718,4179.231,4188.846,4183.59,4176.154,4181.41,4186.538,4174.487,4171.41,4155.769,4173.205,4172.0509999999995,4178.462,0,0
365,88,0,3216,4178.077,4184.359,4175.255999999999,4180.0,4171.154,4165.769,4151.41,4161.282,4165.385,4159.487,4149.359,4167.308,4168.462,4171.026,0,0
366,89,0,2082,4180.0,4183.974,4172.9490000000005,4180.385,4165.128,4165.897,4143.077,4145.513,4157.436,4160.385,4151.154,4169.359,4165.897,4173.333,0,0
367,90,0,2790,4189.231,4191.923,4177.9490000000005,4185.513,4171.41,4167.179,4161.538,4163.974,4164.487,4170.255999999999,4158.718,4174.872,4166.538,4181.41,0,0
368,91,0,3311,4199.872,4203.205,4187.821,4193.205,4182.0509999999995,4169.103,4170.769,4175.513,4175.513,4181.41,4167.9490000000005,4178.974,4177.9490000000005,4192.821,0,0
369,92,0,3216,4210.897,4210.0,4193.718,4200.769,4187.692,4177.9490000000005,4175.897,4181.667,4181.667,4187.821,4175.641,4183.205,4186.923,4205.255999999999,0,0
370,93,0,2082,4216.923,4209.487,4190.769,4202.0509999999995,4188.59,4178.59,4178.846,4185.897,4183.333,4184.615,4174.872,4181.923,4184.231,4207.436,0,0
371,94,0,2790,4213.462,4209.744000000001,4188.718,4200.897,4188.077,4170.128,4170.513,4175.897,4177.564,4178.846,4171.41,4178.462,4181.154,4202.0509999999995,0,0
372,95,0,3311,4208.846,4208.718,4192.179,4201.41,4187.821,4172.308,4170.0,4176.667,4175.0,4181.41,4171.923,4179.487,4182.564,4202.692,0,0
373,96,0,3216,4208.077,4201.154,4192.821,4201.282,4185.897,4176.154,4172.821,4184.487,4183.205,4185.128,4171.026,4182.0509999999995,4182.821,4203.718,0,0
374,97,0,2082,4206.41,4197.0509999999995,4188.333,4200.641,4182.9490000000005,4170.128,4168.846,4181.667,4186.41,4182.0509999999995,4168.333,4178.59,4182.179,4199.103,0,0
375,98,0,2790,4201.538,4199.231,4188.205,4198.974,4183.333,4170.513,4175.0,4190.385,4187.821,4186.41,4170.641,4177.821,4183.205,4197.9490000000005,0,0
376,99,0,3311,4202.9490000000005,4204.103,4191.923,4199.103,4187.179,4177.821,4181.026,4194.487,4190.255999999999,4193.718,4179.103,4184.359,4184.487,4200.897,0,0
377,100,0,3216,4210.255999999999,4209.744000000001,4195.128,4206.41,4188.718,4175.128,4165.0,4178.077,4187.9490000000005,4193.333,4184.231,4190.255999999999,4186.026,4208.205,0,0
378,101,0,2082,4215.513,4212.0509999999995,4196.667,4213.077,4185.128,4168.333,4158.974,4177.0509999999995,4186.923,4193.333,4186.282,4191.154,4186.41,4215.641,0,0
379,102,0,2790,4214.744000000001,4213.077,4195.641,4213.846,4186.282,4175.128,4180.128,4185.897,4186.667,4195.641,4186.154,4186.282,4186.026,4212.308,0,0
380,103,0,3311,4209.872,4213.077,4193.846,4208.846,4194.872,4182.564,4185.513,4178.718,4183.718,4196.41,4184.103,4181.795,4187.308,4203.846,0,0
381,104,0,3216,4209.615,4207.9490000000005,4191.154,4201.923,4197.821,4176.41,4175.0,4183.077,4183.59,4196.923,4185.0,4186.41,4188.077,4206.41,0,0
382,105,0,2082,4216.667,4209.744000000001,4194.615,4206.282,4195.255999999999,4172.0509999999995,4179.615,4201.538,4189.615,4199.744000000001,4187.9490000000005,4193.462,4187.0509999999995,4215.255999999999,0,0
383,106,0,2790,4217.9490000000005,4215.769,4202.179,4212.692,4195.385,4177.692,4179.615,4196.923,4190.641,4197.179,4184.231,4191.667,4184.231,4215.255999999999,0,0
384,107,0,3311,4212.564,4208.462,4201.282,4207.436,4197.179,4183.333,4171.795,4183.077,4184.487,4193.974,4181.41,4188.974,4183.846,4213.077,0,0
385,108,0,3216,4210.769,4199.103,4193.59,4202.9490000000005,4197.436,4182.821,4176.795,4190.385,4187.692,4200.513,4193.462,4192.821,4188.205,4215.0,0,0
386,109,0,2082,4210.255999999999,4201.538,4192.436,4204.872,4197.692,4182.564,4187.692,4202.0509999999995,4197.0509999999995,4205.641,4197.821,4195.128,4189.231,4211.41,0,0
387,110,0,2790,4210.128,4203.846,4196.667,4205.385,4199.744000000001,4186.795,4192.436,4205.0,4197.179,4202.692,4189.231,4193.718,4185.769,4211.154,0,0
388,111,0,3311,4215.897,4201.923,4202.564,4210.128,4203.205,4185.897,4192.179,4200.641,4188.205,4199.231,4188.846,4195.513,4187.692,4221.923,0,0
389,112,0,3216,4220.255999999999,4202.179,4206.667,4217.692,4201.282,4176.923,4184.487,4195.769,4186.41,4200.641,4191.795,4197.821,4191.667,4224.872,0,0
390,113,0,2082,4214.359,4205.0,4203.59,4213.59,4192.436,4176.923,4182.308,4201.667,4192.436,4198.205,4187.308,4195.641,4187.308,4214.744000000001,0,0
391,114,0,2790,4205.769,4200.897,4195.128,4205.128,4189.231,4183.077,4186.795,4205.385,4193.462,4191.538,4184.487,4187.308,4183.846,4204.359,0,0
392,115,0,3311,4195.128,4187.0509999999995,4187.179,4199.231,4190.641,4178.077,4176.154,4185.641,4185.897,4187.821,4180.0,4180.513,4187.564,4195.385,0,0
393,116,0,3216,4185.128,4180.769,4180.128,4192.308,4187.692,4171.795,4165.385,4165.897,4180.0,4185.641,4171.795,4179.359,4188.205,4191.667,0,0
394,117,0,2082,4189.872,4186.538,4181.154,4186.41,4185.385,4172.692,4168.077,4172.179,4183.333,4185.513,4172.436,4181.538,4185.255999999999,4196.026,0,0
395,118,0,2790,4198.974,4189.103,4188.462,4184.487,4185.0,4171.795,4169.744000000001,4187.308,4187.179,4187.0509999999995,4176.026,4182.692,4184.487,4199.615,0,0
396,119,0,3311,4201.154,4188.077,4193.718,4191.538,4185.255999999999,4170.641,4174.615,4187.308,4186.026,4187.821,4174.615,4184.744000000001,4186.41,4200.0,0,0
397,120,0,3216,4197.821,4188.974,4195.0,4198.718,4187.179,4173.718,4183.077,4182.821,4182.308,4184.744000000001,4172.436,4187.9490000000005,4185.128,4197.436,0,0
398,121,0,2082,4193.59,4188.205,4195.255999999999,4199.872,4188.974,4176.923,4183.462,4190.641,4181.41,4180.897,4170.897,4189.359,4181.923,4196.667,0,0
399,122,0,2790,4191.667,4188.59,4196.154,4196.795,4188.59,4184.103,4188.974,4200.385,4183.205,4183.718,4171.795,4189.487,4181.538,4196.795,0,0
400,123,0,3311,4187.179,4187.308,4192.9490000000005,4189.231,4186.923,4189.231,4204.103,4202.9490000000005,4182.308,4183.718,4168.974,4183.846,4179.231,4188.205,0,0
401,124,0,3216,4175.128,4179.359,4184.744000000001,4183.205,4183.718,4185.128,4200.128,4201.667,4181.667,4173.974,4159.872,4177.179,4172.564,4179.231,0,0
402,125,0,2082,4169.103,4176.795,4177.692,4183.077,4183.59,4181.282,4182.436,4200.128,4183.333,4170.255999999999,4157.692,4176.282,4169.744000000001,4180.641,0,0
403,126,0,2790,4173.846,4182.436,4180.385,4184.744000000001,4186.41,4183.974,4184.103,4202.692,4183.846,4178.077,4164.359,4178.077,4175.897,4183.333,0,0
404,127,0,52,4176.154,4184.231,4183.333,4184.615,4185.128,4183.59,4191.795,4200.897,4182.308,4183.205,4168.59,4179.872,4183.205,4181.923,0,0
405,0,0,2416,4177.436,4182.564,4183.077,4185.128,4183.718,4179.744000000001,4184.872,4194.872,4182.179,4182.9490000000005,4170.255999999999,4185.641,4184.615,4184.231,0,0
406,1,0,2922,4176.026,4184.615,4184.872,4183.462,4185.385,4181.282,4181.667,4195.0,4181.154,4182.821,4170.641,4185.641,4182.0509999999995,4184.872,0,0
407,2,0,3194,4175.128,4184.872,4185.641,4182.179,4187.436,4185.0,4190.641,4202.564,4182.564,4184.487,4171.41,4182.308,4183.718,4183.718,0,0
408,3,0,2984,4182.179,4181.923,4185.385,4182.692,4186.41,4184.487,4188.205,4201.154,4188.974,4188.333,4174.231,4185.769,4187.308,4188.077,0,0
409,4,0,3588,4187.0509999999995,4183.333,4190.385,4185.641,4186.41,4186.795,4184.872,4199.872,4193.333,4190.128,4174.615,4189.615,4186.026,4194.231,0,0
410,5,0,3161,4185.0,4186.026,4195.769,4192.564,4193.718,4192.9490000000005,4201.538,4210.0,4198.205,4190.641,4172.436,4189.872,4186.538,4193.974,0,0
411,6,0,3310,4182.179,4184.744000000001,4194.103,4192.436,4195.385,4189.744000000001,4202.9490000000005,4210.769,4197.564,4190.513,4171.282,4188.718,4185.255999999999,4189.359,0,0
412,7,0,3321,4177.308,4182.564,4191.026,4185.769,4188.59,4181.282,4186.538,4201.795,4191.667,4183.205,4169.744000000001,4184.872,4176.41,4186.923,0,0
413,8,0,3147,4170.0,4183.205,4187.821,4185.385,4184.487,4182.179,4188.205,4195.255999999999,4182.308,4170.385,4167.179,4180.385,4167.9490000000005,4181.282,0,0
414,9,0,3561,4170.0,4183.205,4186.026,4188.077,4181.795,4181.154,4193.846,4197.0509999999995,4176.154,4165.385,4166.795,4181.667,4168.718,4172.9490000000005,0,0
415,10,0,2790,4172.9490000000005,4181.538,4189.359,4185.385,4177.0509999999995,4177.564,4183.974,4200.128,4180.385,4169.231,4168.718,4182.692,4171.667,4171.923,0,0
416,11,0,3312,4170.0,4183.846,4184.231,4184.744000000001,4178.462,4179.615,4180.128,4193.718,4181.795,4168.333,4167.692,4180.0,4169.872,4171.795,0,0
417,12,0,3216,4163.205,4183.077,4175.0,4186.026,4180.769,4179.487,4184.103,4182.308,4172.9490000000005,4160.513,4160.513,4174.103,4168.077,4162.9490000000005,0,0
418,13,0,2084,4161.923,4172.821,4175.385,4183.718,4173.205,4172.436,4174.872,4172.179,4166.41,4154.872,4153.205,4170.255999999999,4167.0509999999995,4154.615,0,0
419,14,0,2790,4166.282,4170.641,4177.821,4181.923,4173.205,4175.255999999999,4167.821,4166.923,4170.0,4159.359,4153.333,4171.282,4167.308,4156.923,0,0
420,15,0,3312,4167.692,4176.41,4175.255999999999,4181.282,4182.692,4185.0,4173.59,4167.564,4169.872,4165.385,4153.59,4171.795,4168.462,4162.564,0,0
421,16,0,0,4166.41,4176.538,4174.487,4181.026,4181.923,4183.462,4179.231,4178.462,4169.487,4165.897,4152.179,4172.436,4167.692,4166.282,0,0
422,17,0,0,4167.564,4173.462,4175.0,4178.846,4172.564,4176.154,4181.538,4186.026,4178.462,4166.538,4154.744000000001,4175.255999999999,4167.564,4168.846,0,0
423,18,0,0,4166.538,4172.436,4170.897,4172.564,4169.231,4170.0,4180.769,4183.077,4183.077,4166.795,4155.128,4169.744000000001,4168.59,4167.564,0,0
424,19,0,0,4166.667,4176.41,4172.9490000000005,4174.103,4171.154,4171.538,4181.41,4192.0509999999995,4186.026,4168.846,4158.205,4166.667,4170.255999999999,4169.487,0,0
425,20,0,0,4176.538,4184.872,4182.308,4183.974,4173.59,4177.9490000000005,4173.718,4203.462,4185.641,4169.744000000001,4167.692,4175.0,4171.538,4179.744000000001,0,0
426,21,0,0,4184.103,4188.59,4186.923,4187.9490000000005,4180.0,4182.436,4176.41,4200.128,4183.077,4168.974,4171.282,4183.205,4172.0509999999995,4187.308,0,0
427,22,0,0,4179.103,4186.923,4183.846,4186.026,4185.769,4185.641,4196.282,4199.872,4186.154,4177.0509999999995,4170.513,4181.667,4173.974,4189.359,0,0
428,23,0,0,4168.974,4184.744000000001,4181.026,4185.385,4185.255999999999,4185.769,4191.282,4203.718,4190.128,4182.436,4167.436,4175.641,4173.59,4182.0509999999995,0,0
429,24,0,0,4166.538,4182.564,4177.692,4179.872,4183.718,4183.59,4162.692,4191.923,4186.026,4173.462,4158.462,4172.308,4169.615,4172.821,0,0
430,25,0,0,4170.897,4183.974,4174.487,4177.9490000000005,4183.205,4181.667,4159.103,4175.513,4177.308,4166.282,4157.564,4174.872,4175.0,4177.0509999999995,0,0
431,26,0,0,4173.59,4188.462,4177.692,4186.026,4184.744000000001,4182.821,4180.769,4177.564,4177.436,4172.308,4166.795,4178.462,4181.026,4187.0509999999995,0,0
432,27,0,0,4171.282,4184.487,4178.846,4182.821,4185.513,4184.872,4183.846,4185.385,4181.667,4177.821,4165.128,4174.359,4174.359,4185.128,0,0
433,28,0,0,4167.821,4181.282,4174.359,4170.897,4180.0,4181.667,4172.436,4185.769,4184.615,4179.744000000001,4158.077,4171.154,4173.077,4180.641,0,0
434,29,0,0,4170.0,4183.846,4173.974,4172.9490000000005,4177.692,4175.385,4170.0,4183.846,4187.179,4185.255999999999,4162.436,4173.718,4182.821,4181.923,0,0
435,30,0,0,4172.821,4186.154,4177.0509999999995,4184.487,4183.333,4175.769,4177.0509999999995,4183.59,4188.462,4187.0509999999995,4168.718,4177.0509999999995,4184.872,4182.564,0,0
436,31,0,0,4171.026,4185.0,4175.513,4188.333,4187.821,4185.385,4187.308,4190.513,4191.41,4189.103,4170.385,4178.077,4184.231,4186.923,0,0
437,32,0,0,4169.359,4182.9490000000005,4175.641,4181.41,4186.795,4185.128,4184.103,4194.359,4192.179,4188.333,4168.077,4176.154,4185.128,4185.897,0,0
438,33,0,0,4169.872,4184.103,4173.462,4174.231,4185.0,4173.205,4172.308,4179.744000000001,4180.128,4176.282,4160.513,4169.487,4176.026,4174.359,0,0
439,34,0,0,4169.103,4185.0,4166.026,4171.923,4178.846,4168.846,4166.282,4164.615,4169.744000000001,4167.436,4154.872,4163.333,4167.564,4166.282,0,0
440,35,0,0,4167.436,4182.436,4165.128,4173.59,4172.564,4175.128,4170.255999999999,4171.538,4176.795,4171.41,4153.846,4163.974,4170.513,4166.41,0,0
441,36,0,0,4170.385,4183.462,4170.513,4178.077,4177.564,4177.179,4172.308,4172.821,4177.564,4172.436,4154.744000000001,4167.308,4172.821,4170.641,0,0
442,37,0,0,4171.795,4187.436,4169.231,4180.641,4180.769,4172.436,4166.41,4163.462,4171.538,4170.897,4157.436,4167.436,4171.026,4171.41,0,0
443,38,0,0,4169.359,4186.154,4164.872,4180.769,4175.513,4172.436,4168.718,4176.282,4183.462,4183.205,4158.333,4167.308,4170.769,4169.872,0,0
444,39,0,0,4166.923,4182.436,4167.564,4178.974,4170.769,4174.359,4171.667,4183.205,4187.0509999999995,4185.769,4154.872,4166.41,4171.795,4168.974,0,0
445,40,0,0,4166.923,4182.179,4169.744000000001,4175.255999999999,4169.231,4169.615,4162.436,4165.0,4167.308,4168.462,4152.564,4166.282,4171.026,4169.744000000001,0,0
446,41,0,0,4169.872,4185.0,4170.385,4169.615,4170.0,4166.923,4159.872,4164.103,4165.513,4165.897,4155.255999999999,4171.667,4172.9490000000005,4173.205,0,0
447,42,0,0,4172.821,4188.077,4174.231,4174.487,4172.0509999999995,4169.872,4173.59,4185.897,4182.564,4176.795,4157.821,4175.897,4177.0509999999995,4175.255999999999,0,0
448,43,0,0,4171.026,4187.436,4177.179,4184.359,4171.41,4172.0509999999995,4179.487,4197.179,4187.436,4174.744000000001,4155.513,4172.436,4175.0,4171.923,0,0
449,44,0,0,4167.436,4184.231,4173.205,4179.872,4168.077,4168.974,4167.821,4189.744000000001,4184.231,4168.59,4151.667,4167.821,4170.255999999999,4168.205,0,0
450,45,0,0,4167.564,4183.462,4169.615,4171.795,4170.385,4166.667,4166.667,4181.923,4180.897,4170.255999999999,4153.333,4165.128,4171.667,4168.333,0,0
451,46,0,0,4167.564,4184.359,4170.385,4172.692,4171.026,4168.077,4170.641,4185.641,4175.897,4170.128,4151.026,4162.564,4174.103,4167.0509999999995,0,0
452,47,0,0,4165.641,4182.436,4169.103,4172.0509999999995,4167.0509999999995,4163.974,4160.513,4184.103,4172.179,4168.718,4143.333,4162.179,4170.897,4166.282,0,0
453,48,0,0,4168.718,4180.0,4166.923,4168.077,4167.179,4159.487,4154.487,4167.564,4175.128,4168.333,4146.538,4161.795,4171.282,4170.385,0,0
454,49,0,0,4175.255999999999,4184.231,4171.282,4175.128,4171.923,4166.154,4168.718,4172.564,4183.718,4169.615,4157.0509999999995,4163.846,4176.154,4177.436,0,0
455,50,0,0,4173.974,4184.231,4171.923,4180.385,4174.231,4172.436,4181.667,4188.205,4184.359,4171.667,4155.897,4165.641,4175.641,4175.769,0,0
456,51,0,0,4165.769,4172.9490000000005,4164.487,4169.487,4169.872,4168.077,4175.128,4170.641,4172.0509999999995,4165.128,4144.487,4161.667,4170.769,4161.154,0,0
457,52,0,0,4165.513,4172.9490000000005,4165.128,4166.538,4168.462,4166.795,4165.897,4155.897,4168.077,4159.872,4139.615,4157.564,4170.0,4157.564,0,0
458,53,0,0,4171.026,4186.282,4172.9490000000005,4175.128,4172.692,4171.026,4168.205,4175.769,4180.513,4167.692,4145.641,4159.103,4176.538,4168.846,0,0
459,54,0,0,4171.026,4186.41,4174.103,4174.231,4174.615,4170.641,4177.821,4190.769,4187.692,4176.154,4152.692,4160.897,4181.923,4169.359,0,0
460,55,0,0,4166.282,4178.718,4170.769,4171.795,4174.872,4171.923,4185.128,4185.897,4185.897,4177.821,4152.436,4160.897,4182.308,4162.436,0,0
461,56,0,0,4161.795,4181.667,4170.128,4177.692,4173.846,4174.615,4181.667,4186.923,4186.282,4179.487,4151.154,4161.538,4184.359,4166.667,0,0
462,57,0,0,4162.436,4185.128,4173.974,4181.923,4174.872,4172.692,4174.231,4186.41,4187.308,4176.154,4156.026,4164.872,4183.59,4174.487,0,0
463,58,0,0,4164.872,4182.564,4175.513,4179.231,4176.41,4172.821,4173.333,4175.769,4183.333,4172.9490000000005,4163.077,4168.333,4175.0,4172.436,0,0
464,59,0,0,4165.255999999999,4182.692,4173.462,4178.333,4173.59,4177.692,4179.103,4173.718,4181.282,4180.255999999999,4167.692,4168.205,4173.974,4170.513,0,0
465,60,0,0,4168.974,4183.718,4176.282,4183.846,4173.205,4179.103,4177.179,4186.538,4185.769,4187.179,4168.333,4170.0,4184.359,4178.718,0,0
466,61,0,0,4170.641,4183.59,4178.846,4186.026,4176.026,4175.641,4168.846,4192.308,4190.0,4182.9490000000005,4168.077,4172.179,4182.9490000000005,4185.769,0,0
467,62,0,0,4167.9490000000005,4184.103,4176.795,4181.923,4175.897,4174.231,4172.179,4180.897,4186.154,4174.103,4167.308,4171.923,4172.179,4181.154,0,0
468,63,0,0,4174.487,4185.0,4179.231,4181.795,4177.564,4175.769,4186.282,4174.231,4181.41,4174.487,4167.308,4173.333,4171.154,4182.9490000000005,0,0
469,64,0,2418,4187.0509999999995,4186.154,4186.795,4186.154,4180.769,4174.615,4189.487,4186.923,4184.487,4182.564,4171.41,4178.846,4178.333,4194.231,0,0
470,65,0,2926,4186.026,4185.769,4186.41,4184.872,4176.41,4172.179,4181.282,4199.103,4189.872,4186.538,4173.205,4178.846,4185.513,4194.615,0,0
471,66,0,3194,4179.103,4184.615,4181.795,4182.821,4168.974,4170.128,4178.077,4193.462,4189.487,4185.0,4168.205,4174.744000000001,4183.59,4183.974,0,0
472,67,0,2986,4181.795,4186.026,4182.0509999999995,4183.59,4171.795,4169.103,4181.538,4185.641,4185.513,4183.59,4165.0,4174.487,4175.769,4181.282,0,0
473,68,0,3588,4187.9490000000005,4189.231,4184.487,4190.255999999999,4181.282,4173.077,4185.255999999999,4187.9490000000005,4185.897,4183.974,4170.641,4178.974,4179.103,4192.308,0,0
474,69,0,3162,4188.462,4188.846,4184.615,4196.154,4185.0,4176.41,4182.564,4189.615,4188.205,4186.154,4175.128,4181.154,4185.385,4199.231,0,0
475,70,0,3313,4185.0,4187.9490000000005,4181.923,4191.026,4177.564,4173.846,4173.462,4186.282,4181.41,4186.795,4173.718,4176.154,4179.872,4190.255999999999,0,0
476,71,0,3326,4183.205,4188.333,4179.231,4185.385,4169.615,4168.59,4166.282,4183.974,4171.154,4179.231,4168.846,4173.462,4171.923,4182.0509999999995,0,0
477,72,0,3148,4184.487,4191.667,4183.846,4191.282,4175.769,4169.359,4173.333,4186.667,4173.333,4176.026,4167.692,4176.795,4171.538,4190.769,0,0
478,73,0,3561,4187.0509999999995,4199.103,4192.0509999999995,4195.128,4184.103,4174.359,4184.744000000001,4187.821,4182.564,4182.179,4176.41,4182.0509999999995,4172.308,4200.897,0,0
479,74,0,2790,4192.436,4201.667,4190.0,4192.308,4182.179,4173.077,4183.333,4191.154,4183.718,4185.513,4184.615,4183.718,4175.128,4202.308,0,0
480,75,0,3312,4199.872,4199.231,4187.9490000000005,4195.897,4180.255999999999,4170.641,4182.436,4201.923,4184.359,4185.769,4184.103,4186.282,4182.308,4204.872,0,0
481,76,0,3216,4203.846,4201.282,4193.077,4198.462,4185.255999999999,4173.974,4184.103,4203.59,4186.538,4187.9490000000005,4182.436,4190.128,4184.231,4205.255999999999,0,0
482,77,0,2081,4197.564,4199.487,4193.077,4191.41,4185.769,4175.513,4179.103,4185.641,4183.333,4186.667,4182.308,4187.564,4182.821,4200.641,0,0
483,78,0,2790,4188.333,4189.231,4186.795,4185.641,4181.41,4173.974,4179.103,4179.103,4181.923,4184.487,4177.9490000000005,4179.744000000001,4182.9490000000005,4195.255999999999,0,0
484,79,0,3312,4185.897,4185.513,4185.769,4184.744000000001,4184.103,4176.282,4187.436,4192.564,4181.026,4184.487,4171.795,4177.821,4183.59,4190.255999999999,0,0
485,80,0,3216,4181.154,4186.538,4184.615,4183.974,4182.692,4175.897,4181.41,4184.615,4172.179,4175.128,4168.077,4175.897,4180.769,4182.564,0,0
486,81,0,2081,4177.308,4181.923,4181.538,4183.462,4175.897,4169.744000000001,4165.641,4164.487,4166.41,4169.487,4165.513,4171.795,4178.846,4180.385,0,0
487,82,0,2790,4184.231,4182.179,4182.0509999999995,4182.821,4176.154,4169.872,4170.385,4173.59,4170.385,4180.641,4168.077,4174.872,4182.692,4187.821,0,0
488,83,0,3312,4182.436,4185.0,4182.179,4178.333,4175.0,4171.41,4183.718,4188.077,4170.0,4180.897,4169.487,4176.538,4183.846,4184.231,0,0
489,84,0,3216,4169.103,4176.667,4179.744000000001,4177.692,4167.436,4168.59,4180.513,4184.487,4168.333,4170.897,4166.667,4171.026,4181.538,4171.154,0,0
490,85,0,2081,4168.718,4173.974,4180.0,4182.9490000000005,4169.359,4171.41,4173.077,4185.769,4176.667,4176.41,4167.692,4173.205,4183.846,4174.359,0,0
491,86,0,2790,4173.077,4183.205,4180.513,4183.462,4181.026,4175.128,4181.282,4190.0,4179.487,4182.436,4170.255999999999,4174.872,4184.744000000001,4186.795,0,0
492,87,0,3312,4170.897,4185.128,4177.0509999999995,4179.359,4180.0,4172.821,4187.0509999999995,4182.9490000000005,4170.128,4170.385,4165.897,4168.59,4175.513,4183.333,0,0
493,88,0,3216,4177.821,4180.128,4177.0509999999995,4180.128,4174.359,4174.231,4182.692,4187.436,4171.795,4170.0,4166.923,4171.923,4174.359,4179.615,0,0
494,89,0,2081,4187.308,4185.513,4186.667,4186.538,4181.667,4184.615,4190.128,4203.59,4184.231,4187.0509999999995,4178.205,4185.0,4186.154,4192.564,0,0
495,90,0,2790,4186.667,4194.615,4194.744000000001,4189.872,4187.692,4184.615,4187.436,4199.615,4180.641,4184.487,4177.179,4186.41,4184.103,4196.923,0,0
496,91,0,3312,4184.231,4191.41,4189.872,4186.154,4182.821,4174.231,4168.974,4185.0,4168.077,4166.538,4164.744000000001,4177.179,4173.462,4186.923,0,0
497,92,0,3216,4185.769,4185.513,4183.974,4183.974,4180.255999999999,4176.282,4172.692,4181.795,4170.897,4167.308,4170.255999999999,4174.231,4177.692,4184.231,0,0
498,93,0,2081,4187.692,4185.897,4185.897,4185.641,4184.103,4184.744000000001,4189.615,4187.821,4180.897,4183.974,4185.513,4176.282,4188.205,4191.41,0,0
499,94,0,2790,4187.9490000000005,4187.692,4187.308,4187.436,4184.487,4185.0,4187.692,4197.179,4188.333,4191.154,4187.179,4179.103,4187.9490000000005,4195.769,0,0
500,95,0,3312,4188.974,4186.538,4186.41,4186.154,4183.718,4180.0,4176.923,4198.718,4187.179,4187.179,4183.718,4180.0,4183.846,4196.795,0,0
501,96,0,3216,4192.9490000000005,4187.692,4190.128,4185.255999999999,4182.692,4177.0509999999995,4173.462,4187.308,4174.231,4183.59,4184.359,4180.769,4185.255999999999,4200.769,0,0
502,97,0,2081,4191.154,4188.59,4190.513,4186.154,4180.769,4172.821,4170.769,4177.0509999999995,4166.154,4181.923,4179.744000000001,4179.487,4185.513,4198.462,0,0
503,98,0,2790,4183.077,4184.744000000001,4188.974,4185.385,4181.026,4171.538,4173.846,4182.564,4175.897,4181.41,4175.769,4178.205,4182.9490000000005,4189.103,0,0
504,99,0,3312,4183.077,4185.255999999999,4192.692,4186.026,4182.692,4178.974,4182.692,4194.872,4186.795,4183.974,4180.0,4178.718,4182.308,4185.255999999999,0,0
505,100,0,3216,4185.385,4188.205,4190.0,4190.0,4185.385,4186.41,4189.615,4202.308,4187.436,4187.9490000000005,4180.513,4179.103,4185.255999999999,4186.795,0,0
506,101,0,2081,4181.538,4187.821,4183.59,4191.538,4186.923,4186.154,4191.538,4204.744000000001,4188.59,4189.359,4175.128,4179.103,4187.564,4185.769,0,0
507,102,0,2790,4181.667,4187.308,4186.795,4187.564,4187.692,4183.462,4187.436,4203.974,4189.103,4187.564,4172.179,4178.59,4186.667,4189.872,0,0
508,103,0,3312,4186.538,4188.59,4188.59,4184.615,4186.538,4182.436,4183.718,4204.231,4185.255999999999,4185.897,4176.026,4180.385,4185.385,4200.641,0,0
509,104,0,3216,4189.872,4188.462,4190.255999999999,4191.538,4184.359,4182.436,4187.179,4200.0,4184.231,4187.692,4184.744000000001,4183.462,4185.641,4204.231,0,0
510,105,0,2081,4191.282,4188.59,4195.769,4198.205,4185.513,4184.359,4186.41,4191.026,4182.308,4185.513,4186.282,4183.205,4183.846,4201.538,0,0
511,106,0,2790,4182.436,4188.718,4187.0509999999995,4189.615,4185.0,4182.308,4173.974,4180.641,4170.897,4172.821,4175.897,4174.103,4175.128,4193.333,0,0
512,107,0,3312,4168.718,4179.487,4171.282,4176.154,4181.282,4179.487,4175.641,4180.0,4163.974,4163.718,4161.282,4165.641,4168.205,4177.692,0,0
513,108,0,3216,4164.872,4169.615,4169.872,4176.026,4181.667,4184.231,4190.641,4197.692,4173.077,4167.179,4158.718,4163.462,4168.333,4166.795,0,0
514,109,0,2081,4170.0,4174.872,4174.359,4181.667,4182.9490000000005,4182.179,4180.897,4201.41,4176.41,4170.128,4166.026,4164.744000000001,4169.487,4172.692,0,0
515,110,0,2790,4178.077,4188.846,4175.897,4183.718,4181.41,4173.077,4164.872,4183.462,4168.077,4174.487,4173.846,4168.59,4175.255999999999,4185.385,0,0
516,111,0,3312,4184.615,4191.154,4178.59,4186.282,4182.179,4170.769,4175.769,4177.9490000000005,4166.667,4182.0509999999995,4176.538,4172.564,4182.564,4188.077,0,0
517,112,0,3216,4184.487,4186.667,4179.103,4187.9490000000005,4185.0,4172.564,4182.436,4182.0509999999995,4170.0,4177.308,4171.026,4169.744000000001,4184.231,4179.744000000001,0,0
518,113,0,2081,4184.359,4190.769,4185.769,4191.026,4187.0509999999995,4177.0509999999995,4173.205,4178.846,4167.436,4169.103,4166.282,4167.564,4180.769,4178.077,0,0
519,114,0,2790,4190.769,4193.205,4194.615,4195.897,4190.0,4187.0509999999995,4181.41,4186.41,4169.487,4170.897,4169.231,4173.333,4175.897,4186.282,0,0
520,115,0,3312,4187.436,4186.923,4187.692,4190.897,4187.308,4187.308,4194.103,4196.282,4176.41,4171.026,4169.359,4175.128,4175.641,4184.872,0,0
521,116,0,3216,4178.462,4185.641,4180.897,4184.615,4182.9490000000005,4182.821,4195.255999999999,4192.436,4180.128,4171.154,4162.692,4171.282,4181.41,4178.846,0,0
522,117,0,2081,4188.718,4190.641,4189.359,4193.59,4187.564,4194.231,4202.564,4202.9490000000005,4189.231,4183.333,4170.641,4176.026,4188.077,4188.846,0,0
523,118,0,2790,4199.103,4189.359,4193.077,4198.205,4190.513,4201.154,4199.872,4213.077,4195.769,4190.769,4181.923,4181.41,4188.462,4199.744000000001,0,0
524,119,0,3312,4190.769,4185.255999999999,4188.205,4187.692,4185.513,4189.487,4181.667,4195.641,4184.872,4184.103,4176.154,4179.231,4183.718,4197.179,0,0
525,120,0,3216,4182.9490000000005,4186.282,4190.385,4183.462,4182.308,4180.385,4174.872,4179.359,4170.513,4179.231,4172.692,4177.821,4182.436,4197.0509999999995,0,0
526,121,0,2081,4187.9490000000005,4185.769,4191.795,4187.179,4183.462,4183.718,4175.769,4180.128,4168.077,4182.308,4182.9490000000005,4180.385,4185.255999999999,4201.41,0,0
527,122,0,2790,4191.667,4185.0,4189.872,4187.436,4183.59,4186.538,4175.255999999999,4184.615,4175.897,4186.154,4189.744000000001,4182.692,4185.385,4202.692,0,0
528,123,0,3312,4187.564,4185.897,4188.974,4186.41,4183.59,4186.538,4181.282,4188.077,4182.436,4186.795,4186.538,4184.103,4183.077,4202.0509999999995,0,0
529,124,0,3216,4186.41,4185.769,4186.154,4186.795,4185.255999999999,4190.0,4188.974,4194.359,4183.333,4186.41,4185.128,4180.897,4185.641,4197.9490000000005,0,0
530,125,0,2081,4183.077,4183.333,4183.333,4186.795,4185.0,4189.231,4188.718,4201.41,4184.744000000001,4187.821,4183.718,4173.462,4187.9490000000005,4189.231,0,0
531,126,0,2790,4172.692,4177.0509999999995,4177.9490000000005,4180.255999999999,4182.308,4185.385,4187.179,4203.333,4184.872,4187.564,4175.0,4168.205,4186.41,4177.179,0,0
532,127,0,52,4165.385,4173.077,4169.359,4172.0509999999995,4182.308,4185.513,4188.077,4198.333,4179.231,4183.846,4165.0,4161.154,4183.59,4168.718,0,0
533,0,0,2420,4168.718,4179.103,4173.333,4176.154,4181.795,4187.0509999999995,4187.436,4195.385,4176.667,4178.846,4163.59,4159.103,4182.0509999999995,4169.231,0,0
534,1,0,2929,4174.615,4184.359,4180.769,4181.538,4176.154,4184.231,4182.9490000000005,4189.231,4173.846,4175.897,4166.154,4168.077,4182.9490000000005,4173.077,0,0
535,2,0,3195,4176.282,4184.231,4179.231,4179.487,4171.795,4182.179,4179.231,4180.513,4167.821,4175.897,4165.769,4174.103,4182.308,4176.41,0,0
536,3,0,2987,4176.923,4182.564,4181.282,4180.255999999999,4173.59,4186.026,4185.641,4192.179,4177.0509999999995,4179.359,4168.718,4171.538,4181.026,4179.744000000001,0,0
537,4,0,3588,4171.154,4176.538,4185.0,4179.487,4174.103,4185.513,4188.846,4205.769,4184.615,4177.308,4170.641,4169.359,4181.538,4176.026,0,0
538,5,0,3162,4167.821,4173.59,4178.077,4172.308,4171.795,4181.795,4180.0,4190.513,4172.9490000000005,4170.641,4168.462,4167.179,4183.59,4168.846,0,0
539,6,0,3314,4172.308,4181.923,4173.846,4173.077,4170.641,4181.41,4172.564,4182.692,4172.821,4170.641,4169.359,4164.615,4183.846,4171.667,0,0
540,7,0,3327,4173.718,4183.59,4177.9490000000005,4175.0,4169.744000000001,4181.923,4174.487,4200.255999999999,4182.821,4174.231,4171.923,4164.744000000001,4178.846,4174.872,0,0
541,8,0,3152,4170.897,4173.077,4175.385,4168.846,4170.641,4181.154,4172.564,4191.538,4174.103,4171.795,4170.385,4163.333,4176.923,4165.513,0,0
542,9,0,3561,4162.564,4167.308,4168.59,4166.667,4172.821,4182.564,4167.308,4162.564,4164.103,4166.795,4166.795,4158.333,4179.103,4156.282,0,0
543,10,0,2790,4158.205,4170.641,4169.615,4169.103,4171.538,4184.872,4172.9490000000005,4170.641,4169.487,4167.436,4165.897,4158.333,4176.795,4161.026,0,0
544,11,0,3312,4166.667,4172.0509999999995,4175.255999999999,4168.462,4169.872,4184.359,4182.0509999999995,4191.026,4171.41,4169.231,4168.077,4166.667,4172.179,4171.282,0,0
545,12,0,3217,4171.538,4168.59,4172.692,4167.0509999999995,4169.103,4184.872,4183.718,4183.333,4168.077,4169.103,4170.897,4169.487,4172.308,4170.897,0,0
546,13,0,2079,4168.462,4172.564,4174.487,4174.744000000001,4170.0,4187.0509999999995,4185.769,4181.923,4170.255999999999,4170.897,4173.718,4166.923,4172.692,4171.282,0,0
547,14,0,2790,4178.718,4184.103,4187.179,4185.641,4175.513,4187.821,4188.974,4201.41,4174.103,4171.41,4175.255999999999,4170.385,4172.179,4183.077,0,0
548,15,0,3312,4190.641,4185.897,4189.487,4187.564,4181.282,4186.026,4187.436,4202.692,4174.103,4169.744000000001,4173.205,4176.41,4173.205,4184.359,0,0
549,16,0,0,4179.615,4175.513,4177.564,4183.974,4182.179,4185.0,4188.333,4190.513,4171.923,4168.974,4169.872,4173.462,4172.0509999999995,4171.026,0,0
550,17,0,0,4172.308,4172.821,4175.897,4182.564,4179.103,4186.795,4190.255999999999,4194.615,4171.923,4169.231,4170.255999999999,4170.0,4171.667,4170.769,0,0
551,18,0,0,4182.436,4182.692,4184.231,4183.333,4176.282,4186.923,4186.538,4204.872,4175.128,4170.255999999999,4171.667,4171.538,4172.692,4182.9490000000005,0,0
552,19,0,0,4184.872,4185.0,4183.462,4183.462,4173.846,4183.974,4182.9490000000005,4195.513,4174.103,4170.897,4172.179,4172.821,4174.359,4185.128,0,0
553,20,0,0,4177.308,4175.897,4180.513,4182.9490000000005,4174.359,4184.872,4184.359,4188.462,4171.282,4170.641,4177.821,4175.513,4174.872,4180.641,0,0
554,21,0,0,4178.462,4175.513,4182.692,4182.308,4173.077,4183.974,4187.0509999999995,4199.744000000001,4172.436,4171.282,4183.718,4178.59,4171.154,4182.436,0,0
555,22,0,0,4187.436,4187.692,4185.769,4185.385,4170.0,4177.436,4183.077,4198.462,4170.255999999999,4171.282,4182.9490000000005,4176.795,4171.795,4187.564,0,0
556,23,0,0,4191.795,4193.333,4187.308,4189.487,4178.333,4179.103,4173.846,4182.308,4167.179,4170.255999999999,4178.077,4174.615,4180.0,4190.897,0,0
557,24,0,0,4188.462,4186.026,4185.255999999999,4187.436,4183.333,4181.026,4166.026,4176.667,4169.231,4170.513,4172.821,4174.744000000001,4183.974,4189.744000000001,0,0
558,25,0,0,4183.462,4182.436,4181.41,4182.821,4175.897,4175.897,4166.795,4185.641,4172.0509999999995,4172.692,4177.821,4175.0,4181.923,4188.205,0,0
559,26,0,0,4186.154,4186.41,4183.718,4184.872,4173.333,4176.667,4173.718,4185.769,4170.769,4175.255999999999,4186.154,4177.564,4183.974,4190.255999999999,0,0
560,27,0,0,4187.692,4180.513,4186.154,4185.769,4173.077,4176.282,4171.538,4171.923,4168.077,4172.821,4177.821,4174.872,4183.718,4187.436,0,0
561,28,0,0,4185.0,4174.872,4183.077,4183.59,4168.718,4171.41,4166.41,4170.128,4168.846,4171.026,4167.9490000000005,4170.897,4180.769,4183.974,0,0
562,29,0,0,4181.795,4179.359,4180.0,4185.641,4176.538,4178.333,4175.255999999999,4184.103,4170.641,4175.385,4174.231,4172.821,4184.744000000001,4182.821,0,0
563,30,0,0,4174.744000000001,4178.462,4178.462,4182.436,4184.359,4185.897,4185.897,4190.769,4169.744000000001,4175.641,4175.897,4171.41,4183.718,4175.0,0,0
564,31,0,0,4167.308,4170.641,4172.564,4172.0509999999995,4173.59,4178.333,4183.077,4187.308,4170.128,4169.487,4166.154,4160.641,4172.564,4166.154,0,0
565,32,0,0,4168.59,4169.359,4166.795,4171.026,4167.692,4172.9490000000005,4173.59,4181.41,4167.0509999999995,4167.9490000000005,4165.0,4158.077,4169.744000000001,4167.179,0,0
566,33,0,0,4171.41,4170.769,4166.667,4175.255999999999,4170.641,4174.103,4163.718,4169.487,4159.487,4167.821,4166.923,4164.872,4173.205,4170.0,0,0
567,34,0,0,4170.255999999999,4175.641,4173.846,4176.923,4173.205,4179.872,4178.462,4173.333,4161.923,4167.564,4164.744000000001,4166.282,4171.923,4169.872,0,0
568,35,0,0,4171.667,4181.923,4177.436,4183.333,4179.615,4190.0,4202.821,4183.462,4169.487,4171.538,4165.255999999999,4164.744000000001,4174.231,4172.436,0,0
569,36,0,0,4172.692,4177.308,4173.974,4184.744000000001,4178.462,4183.205,4182.821,4170.769,4166.41,4171.667,4166.538,4165.0,4181.795,4175.0,0,0
570,37,0,0,4172.179,4173.333,4172.0509999999995,4176.667,4168.846,4171.154,4151.41,4172.564,4165.641,4169.615,4167.9490000000005,4165.513,4183.462,4174.744000000001,0,0
571,38,0,0,4171.282,4174.359,4172.436,4173.077,4169.872,4174.231,4158.462,4189.231,4171.154,4170.641,4169.744000000001,4164.744000000001,4177.692,4171.538,0,0
572,39,0,0,4167.9490000000005,4171.154,4170.641,4173.077,4173.846,4177.179,4170.897,4187.692,4168.59,4168.333,4169.231,4161.667,4170.769,4169.359,0,0
573,40,0,0,4167.9490000000005,4170.513,4170.255999999999,4171.282,4169.231,4173.718,4170.513,4187.564,4166.795,4167.692,4169.744000000001,4162.179,4173.205,4171.538,0,0
574,41,0,0,4171.538,4173.59,4173.205,4171.538,4168.718,4175.0,4174.872,4195.0,4170.385,4172.308,4172.179,4166.795,4182.692,4173.462,0,0
575,42,0,0,4170.385,4171.282,4169.744000000001,4170.897,4171.026,4173.974,4172.692,4183.462,4168.846,4173.333,4170.769,4167.564,4185.255999999999,4171.41,0,0
576,43,0,0,4165.769,4168.077,4165.385,4168.59,4169.359,4170.0,4169.615,4175.769,4166.667,4170.128,4166.538,4164.103,4180.641,4168.846,0,0
577,44,0,0,4168.333,4169.359,4168.974,4169.359,4169.231,4172.692,4184.103,4189.615,4170.897,4170.897,4167.0509999999995,4161.282,4181.667,4168.846,0,0
578,45,0,0,4169.744000000001,4170.128,4171.667,4171.154,4171.41,4173.205,4186.282,4187.0509999999995,4172.564,4172.308,4168.59,4161.795,4185.513,4168.846,0,0
579,46,0,0,4163.333,4169.487,4168.333,4171.667,4170.385,4169.231,4171.795,4172.308,4168.205,4171.154,4166.923,4161.538,4184.487,4166.667,0,0
580,47,0,0,4161.282,4168.846,4165.769,4171.154,4167.436,4170.897,4173.718,4178.59,4168.333,4171.795,4166.282,4162.179,4181.538,4164.231,0,0
581,48,0,0,4165.641,4168.718,4169.487,4170.513,4168.718,4173.077,4188.077,4198.077,4173.333,4177.9490000000005,4170.128,4164.359,4182.308,4165.897,0,0
582,49,0,0,4169.872,4170.513,4176.026,4172.9490000000005,4170.0,4170.128,4184.872,4203.846,4175.769,4182.179,4174.744000000001,4167.564,4184.231,4171.538,0,0
583,50,0,0,4167.564,4170.255999999999,4177.436,4174.744000000001,4167.0509999999995,4167.9490000000005,4169.231,4190.897,4168.333,4176.282,4170.897,4168.205,4177.9490000000005,4169.103,0,0
584,51,0,0,4155.641,4160.897,4169.487,4168.974,4164.872,4170.0,4166.41,4175.769,4154.872,4160.128,4156.667,4162.692,4167.179,4155.513,0,0
585,52,0,0,4149.744000000001,4155.0,4165.769,4165.0,4166.667,4171.41,4182.179,4183.205,4154.615,4150.128,4149.872,4157.564,4163.974,4147.821,0,0
586,53,0,0,4161.538,4163.846,4174.744000000001,4174.359,4169.615,4170.0,4191.667,4204.103,4167.9490000000005,4159.231,4156.282,4159.872,4166.41,4158.077,0,0
587,54,0,0,4175.769,4173.718,4179.231,4182.179,4171.538,4172.0509999999995,4177.821,4192.179,4169.359,4169.231,4160.128,4163.462,4170.513,4170.255999999999,0,0
588,55,0,0,4180.769,4174.872,4177.692,4181.667,4171.154,4173.974,4170.513,4174.615,4163.846,4168.077,4162.308,4162.0509999999995,4173.846,4171.538,0,0
589,56,0,0,4180.385,4173.718,4176.538,4179.872,4171.795,4172.564,4185.255999999999,4196.154,4170.255999999999,4167.436,4166.41,4163.333,4172.179,4170.513,0,0
590,57,0,0,4174.744000000001,4170.641,4176.538,4176.282,4177.564,4176.667,4194.359,4206.41,4175.0,4172.692,4163.077,4166.795,4175.513,4172.179,0,0
591,58,0,0,4170.128,4166.923,4175.897,4169.872,4177.9490000000005,4179.615,4180.769,4181.538,4170.0,4170.641,4156.795,4166.282,4184.103,4169.615,0,0
592,59,0,0,4174.872,4167.821,4179.615,4171.795,4173.718,4174.231,4166.923,4180.641,4170.897,4166.923,4160.769,4167.564,4181.667,4167.0509999999995,0,0
593,60,0,0,4184.744000000001,4170.897,4189.872,4181.026,4178.846,4174.231,4171.923,4204.103,4175.641,4170.641,4167.821,4173.974,4171.923,4173.718,0,0
594,61,0,0,4188.846,4171.538,4193.974,4184.615,4183.205,4179.231,4184.872,4205.128,4172.821,4171.923,4168.462,4176.154,4171.41,4180.769,0,0
595,62,0,0,4186.026,4169.487,4189.872,4183.974,4175.897,4174.487,4188.077,4196.795,4170.769,4170.0,4168.462,4174.615,4174.231,4181.923,0,0
596,63,0,0,4183.59,4169.359,4187.0509999999995,4181.026,4174.744000000001,4170.513,4182.9490000000005,4198.333,4172.9490000000005,4173.205,4171.923,4175.0,4173.205,4183.974,0,0
597,64,0,2421,4186.026,4170.897,4189.615,4179.744000000001,4182.436,4177.692,4185.513,4200.897,4172.9490000000005,4176.026,4174.359,4176.667,4171.41,4186.795,0,0
598,65,0,2929,4189.359,4171.026,4190.513,4182.564,4183.077,4182.179,4187.692,4195.897,4171.41,4173.718,4172.564,4173.462,4168.59,4186.795,0,0
599,66,0,3196,4194.872,4177.308,4190.769,4187.0509999999995,4184.744000000001,4182.179,4185.769,4187.179,4171.667,4178.59,4176.795,4172.821,4175.0,4188.333,0,0
600,67,0,2987,4199.872,4187.179,4191.795,4187.308,4191.538,4183.718,4185.641,4189.487,4171.538,4185.897,4183.718,4176.667,4180.769,4190.897,0,0
601,68,0,3588,4196.923,4186.538,4186.667,4183.974,4190.128,4183.462,4185.769,4197.821,4170.128,4182.308,4179.744000000001,4177.308,4176.538,4190.385,0,0
602,69,0,3164,4189.487,4178.077,4181.795,4180.255999999999,4185.513,4181.923,4192.308,4198.077,4174.359,4180.897,4173.462,4174.615,4177.564,4187.308,0,0
603,70,0,3314,4185.128,4173.718,4181.795,4173.333,4185.769,4184.231,4196.538,4197.692,4182.564,4189.487,4179.231,4173.462,4186.795,4184.872,0,0
604,71,0,3325,4183.077,4170.641,4181.923,4167.308,4184.487,4181.923,4187.692,4203.59,4187.564,4192.436,4184.103,4174.231,4188.333,4184.744000000001,0,0
605,72,0,3150,4184.231,4167.436,4181.41,4169.615,4182.308,4175.641,4180.513,4201.923,4184.359,4186.538,4177.179,4173.974,4183.59,4181.795,0,0
606,73,0,3561,4184.231,4170.385,4182.436,4175.128,4185.769,4178.205,4185.0,4192.308,4175.769,4184.359,4171.667,4172.564,4183.205,4175.897,0,0
607,74,0,2790,4176.923,4173.718,4181.282,4173.59,4188.333,4185.128,4183.718,4188.205,4169.744000000001,4181.795,4170.513,4168.333,4182.308,4171.923,0,0
608,75,0,3312,4169.615,4169.872,4176.923,4169.487,4182.308,4181.538,4176.154,4184.103,4168.205,4173.205,4167.179,4163.974,4176.667,4168.59,0,0
609,76,0,3217,4171.282,4164.872,4176.282,4169.359,4175.385,4174.487,4181.41,4183.59,4169.872,4170.385,4166.667,4163.077,4172.308,4168.974,0,0
610,77,0,2083,4172.0509999999995,4166.538,4177.0509999999995,4168.333,4172.9490000000005,4172.564,4189.103,4190.897,4171.667,4174.231,4170.513,4165.255999999999,4179.359,4170.641,0,0
611,78,0,2790,4164.872,4169.872,4174.487,4165.897,4170.0,4172.308,4187.564,4200.385,4172.308,4173.333,4169.359,4164.231,4185.385,4163.205,0,0
612,79,0,3312,4162.179,4169.487,4175.128,4167.692,4170.128,4177.0509999999995,4187.564,4198.846,4170.385,4169.359,4165.769,4162.436,4175.641,4157.692,0,0
613,80,0,3217,4168.974,4169.359,4177.436,4171.41,4180.385,4183.333,4191.795,4188.718,4167.9490000000005,4168.974,4167.692,4165.641,4170.641,4166.667,0,0
614,81,0,2083,4175.0,4170.0,4178.462,4172.179,4184.615,4179.231,4185.641,4182.564,4167.308,4171.923,4170.128,4168.59,4176.923,4173.59,0,0
615,82,0,2790,4173.59,4170.128,4178.205,4170.641,4178.59,4171.026,4174.615,4181.538,4168.59,4175.769,4169.103,4167.564,4177.0509999999995,4171.282,0,0
616,83,0,3312,4171.41,4170.769,4179.744000000001,4169.487,4181.282,4174.872,4180.0,4184.872,4170.128,4173.846,4169.487,4165.255999999999,4175.128,4174.359,0,0
617,84,0,3217,4174.231,4171.795,4178.718,4169.615,4185.128,4183.974,4193.59,4190.385,4171.41,4173.205,4172.9490000000005,4165.128,4182.692,4183.974,0,0
618,85,0,2083,4174.487,4170.255999999999,4176.923,4169.487,4177.308,4185.897,4195.128,4200.385,4180.128,4184.615,4174.872,4167.692,4187.821,4184.744000000001,0,0
619,86,0,2790,4170.0,4166.282,4178.333,4168.462,4169.615,4181.026,4188.205,4203.59,4183.846,4186.667,4172.308,4167.821,4184.103,4174.615,0,0
620,87,0,3312,4168.333,4167.179,4178.974,4167.0509999999995,4170.128,4177.564,4181.41,4191.282,4172.692,4172.0509999999995,4169.359,4164.231,4182.308,4166.667,0,0
621,88,0,3217,4171.154,4170.641,4179.744000000001,4168.205,4175.255999999999,4182.308,4181.41,4183.846,4167.179,4168.59,4170.641,4167.308,4183.846,4169.744000000001,0,0
622,89,0,2083,4171.795,4172.0509999999995,4181.41,4170.513,4180.513,4185.255999999999,4187.436,4187.821,4170.0,4174.359,4171.282,4173.077,4179.103,4173.077,0,0
623,90,0,2790,4172.692,4175.128,4182.179,4171.41,4180.513,4178.333,4187.692,4185.0,4165.128,4167.308,4170.769,4170.255999999999,4173.205,4171.41,0,0
624,91,0,3312,4173.718,4176.41,4178.59,4170.385,4175.897,4169.744000000001,4182.0509999999995,4172.692,4155.513,4155.897,4165.513,4162.179,4172.308,4168.59,0,0
625,92,0,3217,4171.667,4171.795,4177.308,4170.0,4172.564,4171.154,4182.0509999999995,4171.41,4154.487,4151.667,4158.333,4162.821,4170.128,4166.026,0,0
626,93,0,2083,4173.59,4171.282,4176.41,4171.282,4171.282,4178.718,4183.333,4176.41,4159.615,4154.487,4159.615,4170.513,4167.9490000000005,4166.795,0,0
627,94,0,2790,4180.0,4179.487,4177.179,4171.538,4176.026,4182.308,4180.255999999999,4181.026,4167.564,4161.667,4166.41,4173.59,4175.769,4173.846,0,0
628,95,0,3312,4185.641,4186.538,4183.462,4173.59,4184.744000000001,4184.487,4190.513,4196.026,4178.205,4170.513,4176.154,4171.795,4184.615,4183.718,0,0
629,96,0,3217,4187.821,4184.744000000001,4187.564,4177.821,4188.846,4188.462,4204.487,4206.538,4183.205,4176.154,4183.077,4173.205,4185.385,4191.026,0,0
630,97,0,2083,4181.795,4175.769,4183.205,4175.255999999999,4186.538,4187.564,4198.974,4200.769,4181.923,4177.564,4177.436,4173.205,4185.769,4184.615,0,0
631,98,0,2790,4171.667,4168.333,4178.462,4168.718,4182.308,4181.667,4188.205,4203.077,4183.077,4176.154,4167.436,4166.538,4185.897,4173.205,0,0
632,99,0,3312,4171.282,4170.513,4179.744000000001,4169.487,4182.9490000000005,4182.564,4188.718,4209.231,4188.077,4181.282,4170.0,4165.128,4185.255999999999,4174.103,0,0
633,100,0,3217,4177.692,4174.487,4180.641,4171.667,4186.667,4187.308,4190.255999999999,4190.0,4183.718,4185.769,4175.255999999999,4170.513,4186.795,4177.821,0,0
634,101,0,2083,4180.897,4173.077,4179.231,4168.077,4186.667,4186.795,4184.487,4171.41,4170.641,4176.538,4170.897,4169.103,4188.333,4174.615,0,0
635,102,0,2790,4183.205,4171.154,4178.462,4168.462,4180.513,4185.128,4183.205,4182.308,4166.667,4167.564,4167.9490000000005,4165.641,4183.462,4173.59,0,0
636,103,0,3312,4181.026,4169.231,4179.744000000001,4170.897,4173.333,4179.487,4183.718,4189.103,4167.308,4165.385,4166.795,4171.795,4175.0,4172.564,0,0
637,104,0,3217,4176.154,4168.974,4179.744000000001,4168.974,4170.513,4172.308,4177.179,4173.59,4167.0509999999995,4158.59,4165.128,4174.359,4170.0,4168.205,0,0
638,105,0,2083,4178.205,4176.282,4180.255999999999,4167.436,4172.821,4170.641,4168.333,4163.333,4163.333,4153.205,4165.0,4167.179,4169.231,4171.923,0,0
639,106,0,2790,4185.897,4185.255999999999,4185.128,4170.255999999999,4177.692,4170.255999999999,4166.154,4172.436,4157.821,4153.974,4163.718,4167.0509999999995,4169.231,4180.255999999999,0,0
640,107,0,3312,4197.564,4193.333,4189.359,4177.564,4184.487,4173.462,4175.385,4189.615,4162.308,4156.667,4167.308,4174.231,4170.128,4187.436,0,0
641,108,0,3217,4216.667,4208.333,4189.359,4189.872,4187.179,4181.923,4185.128,4193.974,4168.462,4160.513,4177.308,4175.0,4168.846,4205.385,0,0
642,109,0,2083,4241.154,4228.974,4193.59,4205.0,4184.359,4185.897,4184.103,4181.282,4163.718,4164.615,4188.077,4178.077,4168.077,4231.538,0,0
643,110,0,2790,4266.795,4242.692,4203.462,4214.615,4189.103,4184.359,4182.821,4179.615,4163.718,4172.692,4202.0509999999995,4188.974,4176.026,4256.41,0,0
644,111,0,3312,4288.462,4252.564,4208.59,4216.538,4201.026,4186.667,4198.077,4195.255999999999,4176.795,4185.128,4217.564,4195.385,4186.41,4276.282,0,0
645,112,0,3217,4299.487,4259.231,4204.359,4216.667,4204.744000000001,4188.077,4208.846,4202.9490000000005,4182.692,4188.333,4221.282,4192.9490000000005,4186.538,4283.462,0,0
646,113,0,2083,4298.718,4255.128,4199.231,4216.41,4196.923,4184.872,4192.436,4198.846,4181.154,4186.026,4216.538,4191.41,4182.179,4282.179,0,0
647,114,0,2790,4289.487,4249.744000000001,4197.436,4216.795,4194.359,4185.513,4180.385,4200.385,4185.641,4188.462,4215.128,4190.641,4182.436,4279.872,0,0
648,115,0,3312,4281.154,4246.538,4196.41,4213.59,4198.974,4187.0509999999995,4189.359,4201.538,4187.0509999999995,4191.154,4215.128,4189.487,4185.769,4272.436,0,0
649,116,0,3217,4276.795,4238.974,4194.615,4206.026,4201.282,4187.308,4192.9490000000005,4196.282,4184.359,4192.308,4215.385,4191.923,4186.154,4266.282,0,0
650,117,0,2083,4267.821,4231.667,4195.128,4203.462,4199.872,4188.077,4186.538,4197.179,4187.179,4193.974,4215.897,4191.795,4182.692,4264.359,0,0
651,118,0,2790,4252.436,4228.077,4195.513,4202.9490000000005,4197.179,4187.0509999999995,4185.513,4200.0,4186.538,4189.615,4206.026,4182.821,4181.538,4253.077,0,0
652,119,0,3312,4239.872,4221.667,4191.026,4193.846,4194.744000000001,4183.59,4185.897,4189.872,4175.255999999999,4177.564,4191.41,4174.615,4179.872,4234.103,0,0
653,120,0,3217,4229.744000000001,4209.744000000001,4185.897,4185.0,4190.385,4183.462,4183.974,4173.718,4164.103,4169.872,4181.026,4174.487,4173.077,4219.872,0,0
654,121,0,2083,4215.0,4202.564,4183.462,4184.103,4186.282,4181.282,4183.462,4170.255999999999,4160.255999999999,4166.667,4172.436,4170.897,4169.872,4209.487,0,0
655,122,0,2790,4204.359,4195.641,4181.41,4182.821,4183.974,4177.692,4183.974,4181.795,4163.718,4158.974,4168.077,4163.59,4165.513,4197.9490000000005,0,0
656,123,0,3312,4201.026,4187.9490000000005,4177.692,4180.513,4184.231,4182.0509999999995,4186.538,4188.333,4164.872,4152.436,4166.538,4163.077,4154.103,4186.154,0,0
657,124,0,3217,4201.795,4190.513,4178.462,4182.308,4183.846,4186.154,4189.231,4174.744000000001,4158.846,4158.462,4165.255999999999,4168.205,4155.0,4184.872,0,0
658,125,0,2083,4208.846,4199.744000000001,4187.436,4186.795,4187.821,4184.487,4190.255999999999,4169.231,4160.128,4169.615,4172.9490000000005,4173.077,4167.564,4198.205,0,0
659,126,0,2790,4217.179,4201.795,4194.872,4190.128,4192.692,4185.0,4187.821,4187.179,4172.436,4173.077,4185.769,4178.333,4172.179,4204.615,0,0
660,127,0,52,4214.872,4199.231,4192.436,4188.718,4193.077,4186.923,4186.41,4193.846,4176.923,4177.564,4188.718,4180.255999999999,4176.154,4199.872,0,0
661,0,0,2423,4206.923,4199.744000000001,4189.744000000001,4186.41,4193.077,4186.795,4186.923,4181.667,4172.821,4183.077,4184.615,4179.872,4185.128,4200.641,0,0
662,1,0,2936,4205.255999999999,4193.077,4192.0509999999995,4186.795,4191.538,4186.538,4185.641,4180.128,4174.359,4181.41,4186.41,4179.103,4187.692,4201.41,0,0
663,2,0,3196,4201.538,4183.462,4189.487,4186.41,4187.179,4185.128,4189.872,4184.359,4173.205,4175.255999999999,4186.923,4178.974,4183.718,4193.333,0,0
664,3,0,2990,4189.744000000001,4184.487,4182.692,4179.744000000001,4183.333,4182.692,4195.255999999999,4182.179,4167.436,4170.255999999999,4178.077,4177.821,4176.538,4186.026,0,0
665,4,0,3590,4183.846,4185.128,4182.179,4173.205,4179.487,4182.9490000000005,4193.333,4194.615,4176.538,4170.769,4171.282,4176.538,4175.0,4185.897,0,0
666,5,0,3166,4182.308,4175.769,4180.255999999999,4172.9490000000005,4178.59,4183.974,4195.897,4203.077,4185.769,4172.692,4169.231,4175.513,4179.872,4182.0509999999995,0,0
667,6,0,3315,4173.077,4168.205,4174.487,4172.179,4179.615,4184.103,4202.0509999999995,4194.872,4174.487,4170.0,4162.9490000000005,4172.821,4177.9490000000005,4172.564,0,0
668,7,0,3326,4167.9490000000005,4168.205,4176.026,4168.59,4175.128,4183.718,4193.205,4198.718,4167.0509999999995,4164.615,4160.513,4171.41,4169.744000000001,4168.59,0,0
669,8,0,3151,4175.513,4168.59,4180.0,4168.59,4174.231,4184.231,4182.436,4198.333,4174.615,4164.744000000001,4165.641,4173.077,4168.974,4172.692,0,0
670,9,0,3561,4182.9490000000005,4167.821,4180.385,4171.538,4182.436,4186.282,4183.462,4173.846,4172.436,4167.9490000000005,4169.744000000001,4176.41,4175.769,4177.821,0,0
671,10,0,2790,4185.0,4170.513,4182.564,4176.154,4186.667,4187.436,4183.846,4165.641,4164.744000000001,4171.795,4177.564,4179.359,4183.59,4184.103,0,0
672,11,0,3312,4186.795,4176.026,4186.795,4181.41,4186.538,4188.462,4188.846,4184.103,4170.641,4175.0,4186.026,4182.308,4184.231,4190.513,0,0
673,12,0,3217,4187.179,4178.205,4184.103,4183.59,4188.077,4189.231,4194.103,4187.436,4173.205,4170.769,4182.692,4179.615,4173.718,4189.744000000001,0,0
674,13,0,2082,4187.9490000000005,4179.103,4182.692,4184.359,4188.462,4186.795,4192.308,4176.41,4167.179,4169.615,4179.872,4177.821,4172.179,4189.744000000001,0,0
675,14,0,2790,4188.718,4177.436,4185.0,4181.282,4186.538,4183.718,4196.538,4182.9490000000005,4172.0509999999995,4179.359,4186.538,4182.0509999999995,4181.667,4193.333,0,0
676,15,0,3312,4186.026,4175.897,4183.462,4176.41,4185.0,4183.59,4198.846,4198.333,4183.462,4187.692,4188.333,4184.359,4184.231,4189.615,0,0
677,16,0,0,4182.9490000000005,4176.41,4182.436,4179.744000000001,4183.59,4184.103,4190.897,4195.513,4183.974,4185.513,4188.462,4183.077,4181.795,4183.846,0,0
678,17,0,0,4182.179,4180.897,4184.231,4185.641,4183.846,4184.231,4188.974,4186.923,4180.897,4186.026,4195.385,4182.692,4184.872,4190.641,0,0
679,18,0,0,4185.0,4183.59,4186.795,4180.641,4185.897,4186.538,4200.255999999999,4207.9490000000005,4190.513,4195.897,4203.077,4184.872,4189.231,4199.231,0,0
680,19,0,0,4183.718,4177.436,4187.0509999999995,4175.128,4183.205,4185.641,4203.205,4225.641,4195.641,4197.308,4200.128,4185.769,4188.333,4193.077,0,0
681,20,0,0,4174.359,4170.897,4181.667,4175.0,4172.821,4175.255999999999,4186.282,4194.615,4183.077,4187.821,4188.974,4182.436,4188.59,4182.9490000000005,0,0
682,21,0,0,4166.923,4168.333,4177.821,4170.641,4166.154,4167.308,4169.872,4163.59,4170.897,4179.615,4182.308,4177.9490000000005,4189.744000000001,4178.077,0,0
683,22,0,0,4165.255999999999,4167.179,4178.59,4166.154,4168.462,4169.872,4167.821,4164.103,4168.333,4174.231,4177.692,4176.41,4185.897,4171.41,0,0
684,23,0,0,4165.128,4164.872,4177.308,4166.026,4168.718,4172.692,4174.231,4167.564,4168.333,4169.231,4169.744000000001,4175.641,4181.923,4166.282,0,0
685,24,0,0,4166.667,4167.821,4173.077,4168.974,4168.59,4172.9490000000005,4181.538,4173.59,4169.744000000001,4170.897,4168.077,4175.641,4184.487,4169.615,0,0
686,25,0,0,4167.564,4170.513,4172.564,4170.641,4172.308,4174.872,4187.0509999999995,4183.718,4173.333,4174.487,4173.59,4173.974,4186.026,4169.231,0,0
687,26,0,0,4164.103,4168.205,4176.667,4170.641,4171.026,4173.974,4189.103,4187.692,4173.718,4171.41,4175.128,4170.385,4180.513,4164.744000000001,0,0
688,27,0,0,4164.487,4169.359,4177.9490000000005,4170.641,4166.41,4169.872,4180.641,4185.255999999999,4170.513,4170.513,4175.641,4170.769,4178.333,4167.9490000000005,0,0
689,28,0,0,4173.718,4173.333,4178.462,4172.179,4167.692,4168.974,4169.744000000001,4180.255999999999,4167.9490000000005,4170.0,4180.255999999999,4176.154,4179.615,4175.769,0,0
690,29,0,0,4183.205,4180.255999999999,4183.718,4179.359,4172.179,4169.103,4176.026,4178.846,4170.769,4172.692,4185.641,4179.615,4180.0,4181.667,0,0
691,30,0,0,4188.205,4185.641,4190.513,4185.128,4172.436,4166.923,4185.255999999999,4187.564,4175.255999999999,4183.077,4189.872,4183.462,4183.846,4187.308,0,0
692,31,0,0,4188.718,4181.923,4188.718,4181.154,4168.718,4165.385,4173.205,4186.026,4172.179,4183.59,4187.308,4183.333,4184.744000000001,4189.744000000001,0,0
693,32,0,0,4188.846,4179.231,4186.41,4176.667,4168.077,4167.692,4171.154,4182.564,4172.308,4175.769,4181.667,4180.0,4180.128,4186.667,0,0
694,33,0,0,4188.974,4183.205,4192.308,4182.179,4172.821,4172.179,4192.179,4196.026,4177.821,4180.897,4184.103,4181.538,4181.282,4185.641,0,0
695,34,0,0,4186.154,4179.615,4190.255999999999,4186.154,4171.154,4170.385,4184.744000000001,4193.205,4176.41,4189.103,4190.128,4184.103,4185.641,4186.282,0,0
696,35,0,0,4182.308,4170.641,4182.308,4178.077,4167.692,4172.436,4167.0509999999995,4176.282,4173.974,4184.231,4184.744000000001,4182.179,4184.744000000001,4184.615,0,0
697,36,0,0,4183.974,4177.692,4185.128,4177.0509999999995,4176.538,4186.026,4185.513,4186.41,4184.872,4186.795,4182.692,4184.103,4185.0,4185.385,0,0
698,37,0,0,4186.282,4183.718,4192.821,4182.564,4180.769,4183.974,4193.333,4206.41,4195.513,4199.615,4192.179,4190.385,4188.846,4187.692,0,0
699,38,0,0,4179.359,4174.231,4191.154,4180.513,4171.538,4169.231,4173.462,4206.667,4191.923,4200.255999999999,4194.103,4191.154,4186.795,4185.641,0,0
700,39,0,0,4169.615,4166.795,4183.718,4175.385,4168.462,4175.255999999999,4171.667,4200.128,4186.282,4191.026,4186.923,4186.282,4182.308,4180.0,0,0
701,40,0,0,4168.974,4168.462,4181.41,4172.0509999999995,4173.59,4185.0,4185.255999999999,4195.385,4185.513,4186.282,4187.179,4183.333,4183.974,4175.385,0,0
702,41,0,0,4167.564,4167.692,4183.077,4170.128,4170.255999999999,4175.897,4186.795,4187.436,4182.692,4185.897,4187.436,4183.077,4183.59,4172.821,0,0
703,42,0,0,4158.846,4160.255999999999,4180.897,4168.077,4166.282,4168.462,4183.59,4190.385,4178.974,4184.231,4176.538,4180.513,4175.128,4171.795,0,0
704,43,0,0,4157.179,4158.462,4177.179,4168.077,4170.255999999999,4171.667,4184.744000000001,4198.59,4181.282,4181.795,4168.077,4174.487,4168.462,4168.974,0,0
705,44,0,0,4160.385,4165.128,4174.615,4168.333,4172.179,4172.308,4187.564,4195.128,4184.744000000001,4181.154,4169.103,4170.0,4172.0509999999995,4163.077,0,0
706,45,0,0,4159.103,4169.359,4172.0509999999995,4168.974,4171.026,4171.282,4184.359,4183.59,4180.769,4180.255999999999,4170.385,4171.538,4178.462,4161.41,0,0
707,46,0,0,4158.077,4166.282,4169.359,4169.487,4169.103,4168.462,4172.821,4181.538,4176.538,4181.026,4169.744000000001,4171.154,4183.59,4165.897,0,0
708,47,0,0,4159.872,4166.026,4171.41,4170.513,4169.615,4167.436,4176.282,4188.077,4176.282,4184.359,4169.744000000001,4167.9490000000005,4185.641,4171.282,0,0
709,48,0,0,4159.359,4169.744000000001,4173.077,4171.282,4171.026,4172.564,4188.077,4182.0509999999995,4172.436,4180.0,4168.974,4166.667,4181.154,4167.308,0,0
710,49,0,0,4158.077,4167.308,4169.744000000001,4167.692,4164.103,4166.41,4171.667,4167.564,4167.564,4169.103,4167.0509999999995,4166.026,4173.077,4158.333,0,0
711,50,0,0,4159.487,4163.333,4168.333,4166.923,4157.179,4154.487,4147.308,4166.923,4167.9490000000005,4167.0509999999995,4167.564,4164.103,4169.744000000001,4159.744000000001,0,0
712,51,0,0,4162.179,4166.154,4172.9490000000005,4169.231,4163.205,4158.59,4150.897,4172.308,4167.692,4170.641,4168.846,4167.821,4176.154,4167.436,0,0
713,52,0,0,4169.231,4176.923,4179.615,4172.821,4172.179,4169.359,4170.513,4175.769,4167.692,4174.872,4176.026,4175.769,4180.897,4172.179,0,0
714,53,0,0,4175.769,4185.128,4183.077,4180.769,4175.641,4172.0509999999995,4178.846,4179.231,4170.385,4183.077,4185.385,4177.564,4180.641,4174.615,0,0
715,54,0,0,4173.59,4180.897,4180.0,4187.308,4179.615,4171.923,4174.744000000001,4183.718,4171.026,4183.333,4183.205,4174.744000000001,4181.026,4172.9490000000005,0,0
716,55,0,0,4170.0,4176.795,4176.795,4188.205,4182.436,4172.821,4174.615,4189.615,4171.923,4173.462,4174.231,4174.487,4182.308,4167.9490000000005,0,0
717,56,0,0,4168.59,4181.667,4176.795,4181.41,4180.385,4169.487,4180.897,4182.0509999999995,4168.846,4169.103,4171.538,4174.231,4179.231,4167.436,0,0
718,57,0,0,4170.769,4186.154,4176.795,4177.0509999999995,4182.692,4173.205,4187.0509999999995,4158.462,4157.9490000000005,4170.255999999999,4171.923,4171.154,4176.154,4168.205,0,0
719,58,0,0,4175.385,4186.41,4178.077,4183.462,4187.821,4181.282,4187.436,4156.282,4157.308,4169.103,4170.897,4175.128,4176.923,4169.487,0,0
720,59,0,0,4174.103,4183.718,4179.103,4188.462,4186.154,4175.128,4181.154,4180.897,4165.513,4168.718,4171.795,4180.255999999999,4174.744000000001,4173.205,0,0
721,60,0,0,4169.359,4178.205,4181.667,4182.9490000000005,4184.615,4169.359,4180.513,4191.41,4165.128,4171.154,4172.692,4179.359,4173.205,4172.9490000000005,0,0
722,61,0,0,4171.154,4173.718,4185.128,4179.744000000001,4185.641,4173.462,4182.308,4182.0509999999995,4160.769,4171.795,4172.821,4176.282,4172.821,4172.0509999999995,0,0
723,62,0,0,4174.487,4173.846,4183.846,4181.026,4179.872,4168.846,4174.359,4175.385,4159.359,4168.077,4172.308,4175.897,4172.564,4173.718,0,0
724,63,0,0,4170.641,4173.205,4177.0509999999995,4174.103,4170.0,4160.0,4163.846,4176.41,4159.872,4166.282,4170.0,4174.615,4171.41,4172.436,0,0
725,64,0,2419,4166.667,4170.128,4175.513,4167.821,4167.821,4164.231,4172.308,4182.308,4163.846,4164.872,4169.231,4172.179,4169.231,4168.333,0,0
726,65,0,2933,4166.923,4169.359,4180.0,4169.872,4169.872,4173.718,4196.41,4188.205,4169.487,4160.897,4168.974,4172.179,4167.821,4167.821,0,0
727,66,0,3198,4167.564,4170.255999999999,4181.923,4173.077,4169.359,4173.462,4203.205,4188.974,4170.0,4162.821,4168.846,4174.487,4167.179,4169.487,0,0
728,67,0,2990,4167.436,4169.231,4180.0,4170.385,4170.128,4164.744000000001,4173.718,4172.821,4162.9490000000005,4167.821,4169.615,4175.513,4166.923,4170.0,0,0
729,68,0,3590,4167.821,4171.667,4176.795,4171.538,4171.538,4160.255999999999,4150.513,4157.564,4158.205,4167.821,4169.872,4175.769,4167.436,4170.255999999999,0,0
730,69,0,3166,4173.59,4176.667,4180.0,4181.795,4175.128,4166.667,4160.641,4168.333,4167.308,4168.462,4170.0,4178.59,4169.744000000001,4171.154,0,0
731,70,0,3312,4176.154,4175.641,4184.487,4183.077,4177.692,4171.923,4166.282,4173.59,4170.897,4171.154,4169.872,4177.0509999999995,4173.077,4171.538,0,0
732,71,0,3324,4169.487,4172.179,4179.487,4172.436,4175.385,4168.205,4156.538,4156.795,4157.9490000000005,4169.359,4169.359,4171.41,4175.255999999999,4171.282,0,0
733,72,0,3151,4166.538,4173.077,4172.821,4170.128,4177.308,4168.846,4159.872,4155.641,4157.308,4167.9490000000005,4169.103,4169.872,4177.179,4167.0509999999995,0,0
734,73,0,3561,4166.667,4171.667,4174.231,4176.282,4183.205,4173.974,4179.103,4171.795,4168.846,4169.615,4167.308,4169.744000000001,4176.795,4159.615,0,0
735,74,0,2790,4158.462,4167.179,4176.026,4172.9490000000005,4182.564,4173.974,4186.026,4175.0,4169.103,4169.359,4161.667,4164.359,4172.9490000000005,4154.744000000001,0,0
736,75,0,3313,4152.308,4168.333,4172.179,4165.513,4176.154,4172.0509999999995,4172.821,4168.205,4163.718,4167.9490000000005,4154.872,4161.41,4172.179,4148.974,0,0
737,76,0,3217,4153.205,4168.333,4167.436,4171.026,4174.615,4172.821,4174.103,4176.154,4166.923,4168.462,4153.974,4162.0509999999995,4174.872,4143.333,0,0
738,77,0,2080,4145.641,4158.59,4165.0,4170.255999999999,4173.974,4172.692,4180.641,4182.179,4167.564,4168.718,4155.128,4160.128,4173.077,4142.436,0,0
739,78,0,2790,4135.513,4152.308,4160.897,4156.923,4169.872,4168.462,4162.0509999999995,4164.487,4157.9490000000005,4164.103,4151.667,4157.436,4170.385,4140.769,0,0
740,79,0,3313,4139.359,4156.667,4161.282,4158.846,4169.744000000001,4167.436,4154.231,4149.872,4154.615,4164.231,4151.41,4157.564,4173.205,4138.077,0,0
741,80,0,3217,4142.821,4159.103,4163.462,4166.795,4170.897,4167.821,4159.744000000001,4145.897,4155.255999999999,4165.255999999999,4150.0,4154.872,4174.103,4138.974,0,0
742,81,0,2080,4136.667,4157.9490000000005,4160.0,4162.821,4171.795,4165.385,4148.59,4144.872,4150.385,4157.308,4141.41,4152.0509999999995,4169.487,4137.821,0,0
743,82,0,2790,4136.41,4159.359,4159.487,4164.487,4176.154,4170.513,4170.513,4162.436,4157.0509999999995,4157.436,4141.795,4154.103,4169.615,4135.255999999999,0,0
744,83,0,3313,4140.255999999999,4158.205,4163.718,4163.846,4175.897,4176.154,4197.436,4175.641,4165.641,4166.026,4152.308,4156.282,4170.0,4136.538,0,0
745,84,0,3217,4137.9490000000005,4161.154,4161.154,4153.333,4167.436,4164.487,4153.59,4155.255999999999,4157.308,4166.538,4154.359,4155.769,4167.564,4138.59,0,0
746,85,0,2080,4137.436,4165.513,4158.718,4158.846,4166.667,4153.59,4118.59,4142.0509999999995,4155.255999999999,4166.538,4151.667,4157.179,4175.385,4142.179,0,0
747,86,0,2790,4140.0,4161.538,4163.205,4169.872,4171.41,4162.308,4150.897,4158.59,4166.282,4171.282,4156.41,4160.385,4183.205,4144.359,0,0
748,87,0,3313,4136.923,4153.462,4162.0509999999995,4158.462,4167.821,4170.0,4165.0,4156.538,4160.769,4168.718,4155.897,4160.897,4175.385,4143.205,0,0
749,88,0,3217,4132.0509999999995,4151.538,4157.179,4150.513,4162.9490000000005,4165.769,4146.41,4136.667,4149.231,4164.744000000001,4151.41,4160.897,4167.564,4147.436,0,0
750,89,0,2080,4137.308,4159.615,4161.154,4160.0,4166.538,4165.641,4154.615,4141.282,4158.59,4169.231,4160.769,4161.538,4173.462,4154.103,0,0
751,90,0,2790,4145.255999999999,4170.897,4170.897,4166.923,4170.769,4170.897,4173.205,4164.615,4170.769,4173.718,4167.692,4164.615,4174.872,4155.255999999999,0,0
752,91,0,3313,4146.282,4170.255999999999,4170.641,4167.9490000000005,4169.615,4169.231,4172.821,4174.103,4169.231,4173.462,4160.641,4165.255999999999,4170.255999999999,4155.641,0,0
753,92,0,3217,4148.205,4157.692,4166.026,4167.308,4168.077,4167.821,4168.974,4165.128,4167.179,4172.564,4158.846,4166.026,4177.821,4158.462,0,0
754,93,0,2080,4152.436,4153.462,4167.9490000000005,4162.9490000000005,4167.564,4168.462,4167.308,4162.821,4169.103,4172.564,4168.974,4166.795,4181.667,4158.205,0,0
755,94,0,2790,4153.462,4163.205,4169.872,4165.0,4170.513,4168.846,4176.41,4185.385,4172.692,4172.821,4169.615,4166.026,4172.692,4157.436,0,0
756,95,0,3313,4149.744000000001,4166.795,4166.795,4166.795,4171.282,4170.513,4182.436,4188.077,4169.103,4168.59,4158.718,4164.872,4170.255999999999,4155.0,0,0
757,96,0,3217,4144.231,4157.9490000000005,4163.333,4156.795,4162.308,4164.872,4157.692,4143.846,4155.385,4156.923,4148.974,4162.0509999999995,4172.9490000000005,4146.282,0,0
758,97,0,2080,4142.0509999999995,4155.255999999999,4160.513,4153.205,4159.872,4158.205,4131.795,4120.255999999999,4150.641,4152.821,4147.9490000000005,4159.103,4172.436,4142.9490000000005,0,0
759,98,0,2790,4149.615,4167.179,4163.846,4168.974,4170.641,4165.255999999999,4147.0509999999995,4154.872,4167.179,4167.179,4161.923,4164.231,4178.333,4152.179,0,0
760,99,0,3313,4161.667,4174.615,4173.59,4178.077,4175.769,4172.692,4170.128,4176.282,4176.667,4179.359,4172.0509999999995,4173.077,4183.462,4164.615,0,0
761,100,0,3217,4163.205,4171.795,4177.436,4171.923,4169.872,4169.359,4167.692,4162.692,4169.231,4175.385,4163.846,4176.667,4179.744000000001,4170.769,0,0
762,101,0,2080,4158.333,4167.436,4175.513,4170.513,4168.718,4169.359,4165.641,4165.128,4170.128,4173.462,4161.026,4173.846,4181.282,4167.179,0,0
763,102,0,2790,4154.103,4160.641,4173.205,4169.487,4170.128,4172.821,4170.897,4174.744000000001,4174.615,4173.718,4169.359,4167.821,4180.255999999999,4158.333,0,0
764,103,0,3313,4150.513,4155.255999999999,4171.538,4163.974,4168.846,4171.41,4168.846,4170.641,4168.205,4169.359,4169.487,4165.641,4169.487,4153.205,0,0
765,104,0,3217,4151.154,4155.128,4170.897,4167.0509999999995,4169.487,4169.872,4168.205,4167.436,4167.308,4168.974,4167.179,4168.333,4173.846,4154.103,0,0
766,105,0,2080,4155.255999999999,4157.0509999999995,4171.923,4172.564,4166.154,4170.385,4175.0,4171.026,4171.923,4170.897,4169.103,4173.205,4182.564,4156.923,0,0
767,106,0,2790,4149.103,4154.231,4171.795,4166.154,4161.923,4168.974,4180.255999999999,4177.179,4170.769,4170.641,4163.59,4174.359,4174.103,4157.179,0,0
768,107,0,3313,4140.513,4149.744000000001,4171.026,4160.255999999999,4167.436,4170.128,4180.513,4183.205,4174.359,4174.487,4160.128,4172.0509999999995,4172.308,4152.436,0,0
769,108,0,3217,4147.564,4153.077,4168.974,4169.744000000001,4176.282,4177.9490000000005,4184.744000000001,4189.103,4183.718,4181.923,4167.179,4171.154,4184.231,4154.615,0,0
770,109,0,2080,4151.538,4155.385,4166.923,4173.846,4175.128,4183.59,4186.667,4187.692,4185.255999999999,4185.385,4170.897,4170.769,4188.462,4158.718,0,0
771,110,0,2790,4141.154,4150.0,4164.872,4163.077,4174.615,4182.9490000000005,4181.538,4185.513,4182.9490000000005,4188.205,4168.974,4168.462,4186.026,4154.487,0,0
772,111,0,3313,4142.564,4152.436,4163.846,4163.462,4181.282,4183.59,4183.205,4189.744000000001,4186.795,4188.462,4170.255999999999,4167.436,4186.154,4155.513,0,0
