,COUNTER, INTERPOLATED, RAW_CQ, AF3, F7, F3, FC5, T7, P7, O1, O2, P8, T8, FC6, F4, F8, AF4, MARKER_HARDWARE, MARKER
0,103,0,3293,4267.692,4222.9490000000005,4191.282,4227.436,4263.205,4248.846,4245.255999999999,4244.744000000001,4237.308,4244.359,4247.308,4188.077,4214.103,4256.154,0,0
1,104,0,3163,4265.128,4217.9490000000005,4197.308,4232.564,4263.718,4250.769,4254.231,4251.41,4243.333,4248.333,4246.538,4180.513,4215.0,4251.538,0,0
2,105,0,1551,4264.103,4216.538,4188.974,4226.795,4264.487,4249.744000000001,4249.487,4252.692,4250.0,4250.769,4246.923,4170.641,4218.718,4250.513,0,0
3,106,0,2639,4261.41,4218.974,4176.923,4221.538,4268.077,4250.385,4243.974,4249.103,4245.513,4242.564,4249.231,4157.564,4217.821,4251.538,0,0
4,107,0,3293,4251.154,4215.385,4171.282,4219.231,4267.308,4248.59,4246.282,4248.846,4242.436,4234.487,4249.487,4149.872,4217.0509999999995,4249.872,0,0
5,108,0,3163,4241.154,4208.333,4165.255999999999,4215.513,4269.487,4249.744000000001,4251.026,4248.718,4243.718,4228.333,4241.538,4145.128,4215.128,4243.077,0,0
6,109,0,1551,4242.308,4213.077,4169.103,4219.872,4277.9490000000005,4253.974,4255.385,4252.308,4246.026,4231.41,4241.026,4145.0,4223.846,4241.923,0,0
7,110,0,2639,4257.9490000000005,4229.872,4185.897,4235.128,4282.308,4251.41,4263.333,4266.667,4257.436,4254.231,4253.846,4151.667,4243.205,4252.179,0,0
8,111,0,3293,4265.385,4230.128,4195.769,4240.255999999999,4276.538,4248.462,4264.487,4269.487,4259.615,4269.103,4255.641,4153.846,4249.231,4255.769,0,0
9,112,0,3163,4255.0,4216.41,4191.667,4233.077,4263.718,4247.692,4249.359,4244.615,4235.513,4254.615,4238.333,4146.026,4232.821,4244.872,0,0
10,113,0,1551,4254.744000000001,4215.255999999999,4191.282,4232.692,4260.641,4246.154,4240.255999999999,4232.821,4219.103,4240.385,4231.795,4148.205,4218.205,4241.667,0,0
11,114,0,2639,4272.179,4218.077,4195.897,4229.744000000001,4271.923,4245.385,4246.667,4252.308,4232.0509999999995,4249.231,4243.718,4158.718,4217.179,4247.564,0,0
12,115,0,3293,4281.026,4216.154,4193.846,4219.487,4278.718,4246.154,4258.846,4267.821,4245.513,4258.718,4248.718,4158.205,4219.744000000001,4248.462,0,0
13,116,0,3163,4282.821,4224.615,4193.077,4225.128,4283.205,4251.282,4273.333,4275.385,4253.462,4261.282,4248.462,4155.769,4226.026,4253.974,0,0
14,117,0,1551,4280.897,4232.9490000000005,4192.821,4234.872,4301.538,4260.0,4277.179,4282.564,4263.59,4262.692,4250.385,4156.923,4237.692,4258.333,0,0
15,118,0,2639,4262.692,4224.103,4186.282,4229.872,4300.385,4262.564,4264.103,4280.128,4264.615,4260.255999999999,4248.077,4154.359,4247.436,4250.769,0,0
16,119,0,3293,4245.513,4215.513,4182.692,4228.077,4279.103,4256.41,4260.769,4273.077,4260.128,4264.103,4245.385,4150.255999999999,4256.923,4243.718,0,0
17,120,0,3163,4242.179,4215.513,4184.872,4232.179,4282.308,4253.205,4271.667,4272.436,4255.0,4271.538,4244.103,4148.846,4263.462,4243.205,0,0
18,121,0,1551,4242.0509999999995,4210.385,4183.59,4223.974,4285.641,4249.872,4261.154,4264.103,4240.385,4266.026,4231.282,4144.359,4250.385,4232.436,0,0
19,122,0,2639,4247.821,4199.359,4182.308,4213.077,4259.359,4246.667,4250.641,4252.9490000000005,4224.231,4255.641,4217.0509999999995,4145.897,4226.667,4215.897,0,0
20,123,0,3293,4262.436,4198.718,4190.769,4215.255999999999,4246.538,4254.103,4264.231,4255.769,4230.513,4261.923,4223.462,4157.564,4226.795,4220.128,0,0
21,124,0,3163,4269.487,4208.333,4202.436,4223.462,4259.872,4263.077,4273.333,4263.205,4241.154,4269.487,4234.615,4169.487,4243.59,4233.462,0,0
22,125,0,1551,4269.744000000001,4217.179,4208.846,4229.487,4269.744000000001,4262.9490000000005,4271.282,4264.359,4236.538,4265.641,4233.718,4175.769,4248.846,4234.872,0,0
23,126,0,2639,4273.718,4218.846,4211.026,4230.255999999999,4274.744000000001,4260.513,4271.282,4261.282,4235.0,4270.513,4232.308,4181.154,4246.538,4232.308,0,0
24,127,0,52,4275.0,4216.538,4214.103,4231.026,4279.744000000001,4262.821,4268.59,4260.897,4245.513,4279.231,4235.641,4187.308,4246.154,4235.897,0,0
25,0,0,2282,4277.821,4219.103,4219.359,4232.564,4279.359,4260.128,4260.513,4265.385,4249.231,4274.359,4237.692,4189.615,4249.744000000001,4238.077,0,0
26,1,0,2818,4278.462,4222.436,4219.103,4231.282,4279.231,4251.154,4258.205,4260.641,4237.436,4264.103,4234.744000000001,4190.641,4244.744000000001,4234.103,0,0
27,2,0,3156,4264.744000000001,4221.538,4216.026,4230.897,4280.513,4247.692,4257.821,4252.821,4228.462,4262.308,4232.821,4193.462,4234.487,4233.077,0,0
28,3,0,2933,4248.205,4217.436,4214.103,4232.821,4279.744000000001,4247.9490000000005,4256.923,4256.538,4232.0509999999995,4262.0509999999995,4233.462,4191.667,4237.821,4233.462,0,0
29,4,0,3585,4246.923,4218.077,4212.0509999999995,4234.231,4278.462,4246.795,4262.308,4266.41,4239.103,4263.846,4234.744000000001,4184.872,4248.205,4236.154,0,0
30,5,0,3162,4252.0509999999995,4225.255999999999,4212.692,4238.077,4280.897,4246.667,4265.385,4268.846,4241.923,4272.9490000000005,4238.59,4182.9490000000005,4250.897,4241.154,0,0
31,6,0,3303,4242.692,4220.897,4206.795,4235.0,4280.128,4242.564,4256.795,4258.718,4232.692,4271.538,4235.0,4179.487,4245.128,4235.513,0,0
32,7,0,3341,4229.103,4205.255999999999,4193.205,4221.41,4265.769,4231.667,4246.667,4247.0509999999995,4222.564,4260.641,4221.667,4169.359,4234.103,4219.615,0,0
33,8,0,3085,4229.615,4198.846,4187.692,4214.359,4256.667,4231.923,4252.436,4247.436,4222.692,4260.641,4218.462,4162.179,4233.077,4215.0,0,0
34,9,0,3555,4232.179,4202.0509999999995,4191.026,4217.179,4259.872,4235.769,4251.923,4248.59,4223.077,4266.923,4226.154,4165.513,4244.744000000001,4216.538,0,0
35,10,0,2628,4220.897,4195.641,4185.769,4213.462,4252.9490000000005,4223.718,4238.333,4235.0,4214.359,4260.769,4221.026,4166.795,4241.154,4205.513,0,0
36,11,0,3282,4217.564,4191.538,4183.462,4209.872,4244.487,4215.0,4241.667,4226.538,4212.179,4256.41,4213.077,4161.923,4228.59,4202.821,0,0
37,12,0,3154,4229.744000000001,4201.282,4191.923,4214.615,4250.255999999999,4220.641,4249.103,4235.641,4219.615,4265.128,4217.9490000000005,4160.641,4232.9490000000005,4217.308,0,0
38,13,0,1547,4231.795,4204.103,4193.205,4215.513,4252.821,4220.641,4235.897,4235.897,4218.462,4266.538,4218.974,4166.026,4235.641,4219.359,0,0
39,14,0,2628,4226.667,4197.436,4190.0,4210.897,4248.333,4215.255999999999,4227.179,4230.897,4216.282,4262.0509999999995,4214.487,4168.205,4229.615,4212.436,0,0
40,15,0,3282,4231.667,4198.077,4192.821,4211.282,4249.615,4217.821,4231.538,4232.308,4216.41,4262.821,4217.821,4167.179,4230.128,4215.385,0,0
41,16,0,0,4239.103,4205.769,4196.923,4211.667,4254.359,4221.667,4233.462,4231.538,4214.359,4263.59,4223.205,4170.897,4231.41,4222.308,0,0
42,17,0,0,4245.641,4212.692,4200.255999999999,4216.282,4257.9490000000005,4225.385,4239.872,4238.846,4222.692,4269.103,4227.692,4174.487,4231.795,4229.487,0,0
43,18,0,0,4251.538,4219.487,4206.795,4226.026,4263.718,4232.436,4250.769,4255.255999999999,4236.026,4286.41,4233.718,4178.846,4241.154,4238.205,0,0
44,19,0,0,4244.103,4217.821,4206.923,4223.974,4262.692,4233.718,4252.821,4257.179,4236.026,4294.231,4236.026,4179.103,4249.231,4232.436,0,0
45,20,0,0,4231.282,4207.692,4203.846,4215.0,4254.615,4231.282,4248.333,4245.385,4226.41,4284.359,4227.9490000000005,4174.359,4245.641,4217.821,0,0
46,21,0,0,4230.385,4203.974,4203.974,4216.923,4250.513,4230.513,4244.872,4244.359,4224.487,4280.255999999999,4221.923,4174.359,4237.436,4216.667,0,0
47,22,0,0,4229.744000000001,4206.026,4201.41,4220.641,4251.154,4230.641,4245.641,4247.308,4225.513,4283.462,4223.718,4176.923,4233.718,4217.308,0,0
48,23,0,0,4220.128,4203.59,4193.333,4215.255999999999,4253.333,4230.128,4247.436,4240.897,4225.128,4280.513,4221.154,4170.641,4235.0,4205.128,0,0
49,24,0,0,4217.564,4199.487,4190.0,4212.0509999999995,4259.615,4229.615,4245.769,4240.769,4228.718,4282.308,4218.59,4168.077,4239.872,4200.641,0,0
50,25,0,0,4228.462,4202.564,4198.205,4215.513,4265.128,4231.538,4249.744000000001,4249.359,4233.846,4294.359,4228.333,4175.897,4246.154,4212.179,0,0
51,26,0,0,4233.462,4211.026,4206.795,4222.0509999999995,4265.897,4239.231,4258.462,4251.026,4234.359,4297.9490000000005,4234.231,4179.615,4247.179,4217.308,0,0
52,27,0,0,4226.41,4217.308,4206.154,4226.667,4267.436,4244.487,4261.154,4248.718,4233.077,4293.974,4229.872,4177.436,4245.128,4214.487,0,0
53,28,0,0,4225.128,4218.333,4208.846,4227.821,4269.615,4237.9490000000005,4257.436,4249.615,4236.026,4297.564,4230.0,4181.41,4249.487,4217.308,0,0
54,29,0,0,4227.564,4217.0509999999995,4212.9490000000005,4230.513,4266.41,4231.923,4251.667,4246.282,4232.179,4297.692,4232.436,4184.359,4250.128,4219.487,0,0
55,30,0,0,4220.128,4215.385,4212.0509999999995,4231.667,4262.436,4236.154,4249.231,4241.923,4225.641,4292.179,4229.615,4184.872,4244.359,4216.923,0,0
56,31,0,0,4213.846,4216.026,4219.487,4232.692,4268.59,4243.205,4251.667,4249.359,4234.103,4304.615,4231.923,4187.692,4256.282,4218.974,0,0
57,32,0,0,4211.667,4218.333,4224.872,4233.974,4273.077,4245.513,4250.0,4253.462,4235.385,4315.385,4235.769,4188.59,4265.513,4221.795,0,0
58,33,0,0,4203.846,4215.0,4214.359,4229.359,4265.385,4244.103,4246.282,4244.359,4220.641,4299.487,4230.385,4186.41,4246.667,4213.846,0,0
59,34,0,0,4206.282,4215.128,4213.462,4230.385,4271.282,4246.282,4255.0,4250.513,4227.179,4298.462,4227.436,4191.026,4244.744000000001,4211.026,0,0
60,35,0,0,4218.718,4226.154,4228.974,4240.641,4290.0,4250.897,4266.923,4266.026,4250.385,4324.359,4234.231,4201.923,4272.564,4224.103,0,0
61,36,0,0,4218.077,4232.564,4230.128,4239.231,4293.205,4249.744000000001,4263.59,4260.128,4250.128,4331.154,4239.872,4202.0509999999995,4277.308,4231.41,0,0
62,37,0,0,4218.718,4230.128,4225.641,4234.744000000001,4288.718,4247.308,4259.231,4253.205,4239.615,4317.436,4243.59,4202.9490000000005,4261.41,4228.462,0,0
63,38,0,0,4229.872,4232.436,4232.821,4243.846,4290.769,4248.333,4262.9490000000005,4260.255999999999,4241.667,4314.359,4245.897,4208.462,4264.359,4228.974,0,0
64,39,0,0,4236.538,4242.308,4239.872,4251.026,4288.974,4245.641,4264.487,4265.128,4248.077,4324.103,4247.179,4209.744000000001,4275.128,4237.179,0,0
65,40,0,0,4241.41,4250.128,4240.897,4252.179,4296.282,4247.179,4269.103,4275.385,4258.077,4338.077,4255.769,4211.667,4282.9490000000005,4247.0509999999995,0,0
66,41,0,0,4246.282,4249.359,4238.718,4252.9490000000005,4308.077,4260.0,4277.9490000000005,4282.564,4264.615,4346.41,4265.769,4215.513,4291.282,4251.795,0,0
67,42,0,0,4240.641,4243.718,4233.846,4248.974,4300.897,4261.923,4279.872,4276.795,4261.154,4341.795,4264.103,4209.487,4288.205,4247.308,0,0
68,43,0,0,4243.846,4247.821,4235.128,4250.385,4297.564,4256.41,4285.0,4289.872,4264.872,4341.667,4265.128,4204.872,4279.103,4248.974,0,0
69,44,0,0,4250.0,4248.462,4229.744000000001,4253.462,4304.231,4257.179,4287.436,4293.205,4267.179,4342.9490000000005,4268.077,4205.255999999999,4277.564,4254.744000000001,0,0
70,45,0,0,4238.462,4236.41,4216.282,4244.487,4299.872,4255.0,4280.255999999999,4272.821,4260.769,4336.923,4262.821,4194.487,4279.487,4248.718,0,0
71,46,0,0,4235.513,4236.282,4216.282,4240.255999999999,4291.667,4247.821,4276.41,4289.872,4263.718,4337.308,4262.564,4189.487,4278.59,4245.769,0,0
72,47,0,0,4248.205,4247.308,4222.9490000000005,4246.154,4293.59,4247.436,4275.385,4307.564,4268.974,4339.359,4268.333,4195.641,4277.692,4250.255999999999,0,0
73,48,0,0,4248.59,4245.897,4220.513,4247.564,4295.128,4249.615,4258.974,4268.718,4259.744000000001,4330.385,4264.231,4193.974,4278.718,4249.872,0,0
74,49,0,0,4242.0509999999995,4242.436,4216.538,4247.9490000000005,4289.231,4246.795,4244.744000000001,4247.564,4255.513,4324.487,4263.077,4191.026,4281.795,4253.59,0,0
75,50,0,0,4246.923,4247.821,4221.538,4252.564,4284.615,4244.872,4255.897,4272.0509999999995,4261.923,4328.205,4273.077,4199.615,4284.744000000001,4265.0,0,0
76,51,0,0,4244.231,4242.821,4223.718,4249.359,4279.744000000001,4243.59,4264.872,4261.795,4253.077,4321.923,4270.513,4200.385,4282.692,4262.436,0,0
77,52,0,0,4236.026,4237.179,4220.641,4243.718,4276.282,4252.308,4258.59,4237.0509999999995,4242.308,4308.205,4259.359,4191.795,4279.359,4246.538,0,0
78,53,0,0,4244.103,4246.923,4222.308,4248.462,4281.795,4264.487,4269.103,4266.538,4258.59,4310.513,4267.308,4193.974,4281.026,4248.846,0,0
79,54,0,0,4250.385,4251.41,4225.0,4251.154,4279.615,4256.026,4280.641,4295.0,4271.667,4314.359,4277.0509999999995,4200.255999999999,4283.333,4258.718,0,0
80,55,0,0,4243.846,4245.769,4223.974,4245.385,4269.103,4245.0,4267.308,4265.385,4256.026,4302.821,4267.179,4198.205,4281.538,4253.59,0,0
81,56,0,0,4242.0509999999995,4245.641,4222.436,4242.9490000000005,4269.231,4251.41,4259.103,4240.128,4240.769,4290.641,4259.487,4198.462,4275.769,4251.154,0,0
82,57,0,0,4251.154,4251.026,4226.538,4247.0509999999995,4273.59,4255.128,4258.974,4254.615,4250.128,4294.487,4265.128,4202.9490000000005,4275.128,4260.641,0,0
83,58,0,0,4255.897,4252.0509999999995,4228.462,4248.462,4268.846,4245.769,4247.9490000000005,4260.0,4261.026,4298.718,4267.308,4203.333,4280.128,4260.0,0,0
84,59,0,0,4246.41,4245.0,4220.0,4239.744000000001,4263.077,4243.333,4247.564,4248.077,4252.308,4287.9490000000005,4257.821,4198.462,4277.308,4243.974,0,0
85,60,0,0,4233.718,4235.513,4212.692,4233.077,4259.359,4248.846,4249.744000000001,4243.59,4242.692,4274.487,4249.487,4194.231,4275.0,4239.615,0,0
86,61,0,0,4232.179,4233.077,4211.795,4228.462,4251.667,4246.154,4235.385,4243.462,4246.538,4268.59,4250.0,4195.385,4277.0509999999995,4242.692,0,0
87,62,0,0,4231.538,4230.513,4209.872,4218.846,4247.9490000000005,4242.0509999999995,4244.487,4244.615,4244.103,4260.513,4246.538,4193.846,4268.462,4232.308,0,0
88,63,0,0,4227.692,4227.308,4208.205,4220.641,4249.231,4249.231,4268.462,4249.359,4241.41,4255.385,4246.154,4189.872,4266.923,4227.179,0,0
89,64,0,2276,4231.282,4233.59,4208.718,4229.359,4248.077,4248.846,4248.718,4248.974,4256.795,4265.0,4255.385,4189.103,4284.615,4236.026,0,0
90,65,0,2818,4233.333,4235.513,4209.872,4222.179,4247.0509999999995,4234.615,4220.641,4246.154,4262.0509999999995,4266.795,4256.795,4190.641,4289.359,4237.0509999999995,0,0
91,66,0,3156,4229.744000000001,4229.744000000001,4207.436,4212.821,4245.513,4227.692,4229.615,4248.846,4247.9490000000005,4249.872,4252.564,4187.436,4275.128,4231.026,0,0
92,67,0,2932,4237.308,4239.103,4212.308,4226.154,4247.0509999999995,4233.205,4248.333,4257.821,4254.359,4247.821,4260.897,4190.513,4275.897,4241.282,0,0
93,68,0,3583,4249.359,4248.59,4219.615,4237.179,4250.641,4234.744000000001,4250.641,4266.154,4268.846,4260.255999999999,4267.9490000000005,4195.255999999999,4284.615,4253.462,0,0
94,69,0,3151,4248.846,4237.692,4217.692,4230.385,4245.641,4229.231,4238.462,4261.282,4256.795,4254.359,4260.897,4191.282,4280.641,4247.436,0,0
95,70,0,3305,4247.179,4232.179,4214.103,4227.9490000000005,4234.359,4226.923,4232.564,4257.564,4246.282,4245.385,4259.359,4190.255999999999,4277.9490000000005,4241.282,0,0
96,71,0,3345,4247.9490000000005,4240.255999999999,4216.667,4233.462,4231.282,4232.821,4242.564,4256.41,4252.436,4249.487,4263.974,4196.026,4279.615,4245.0,0,0
97,72,0,3093,4240.897,4236.41,4214.872,4230.255999999999,4232.179,4230.769,4238.846,4236.026,4239.103,4236.41,4254.872,4191.923,4271.923,4236.538,0,0
98,73,0,3563,4230.641,4226.923,4205.897,4221.923,4226.923,4216.923,4215.641,4208.718,4213.462,4211.282,4235.769,4179.744000000001,4259.359,4219.359,0,0
99,74,0,2628,4230.255999999999,4230.641,4205.513,4223.462,4225.128,4217.9490000000005,4215.897,4207.821,4215.128,4210.255999999999,4232.308,4178.59,4258.846,4219.231,0,0
100,75,0,3289,4239.744000000001,4235.385,4211.538,4231.923,4231.282,4232.564,4234.487,4226.667,4231.154,4219.103,4246.667,4188.077,4262.9490000000005,4233.718,0,0
101,76,0,3154,4246.667,4232.179,4210.897,4228.718,4232.9490000000005,4230.0,4230.0,4234.359,4230.897,4216.923,4251.282,4192.308,4260.385,4244.487,0,0
102,77,0,1548,4249.231,4232.9490000000005,4210.128,4218.718,4227.436,4218.718,4220.769,4230.0,4228.974,4221.667,4248.205,4192.179,4259.231,4245.641,0,0
103,78,0,2628,4246.923,4234.103,4211.282,4217.436,4222.821,4217.692,4227.821,4233.333,4236.538,4226.538,4248.846,4190.0,4256.026,4239.231,0,0
104,79,0,3289,4236.282,4224.359,4204.744000000001,4213.59,4220.769,4220.128,4233.59,4237.9490000000005,4236.026,4220.0,4246.538,4182.0509999999995,4248.077,4226.282,0,0
105,80,0,3154,4227.308,4214.359,4197.436,4201.538,4216.538,4217.179,4231.026,4224.359,4222.0509999999995,4214.872,4243.59,4176.282,4241.538,4219.103,0,0
106,81,0,1548,4229.231,4218.718,4200.255999999999,4201.41,4212.0509999999995,4217.308,4226.667,4210.0,4217.821,4215.513,4245.255999999999,4176.026,4242.436,4223.462,0,0
107,82,0,2628,4232.821,4228.462,4207.821,4215.255999999999,4216.154,4224.487,4229.872,4228.333,4237.436,4222.692,4246.667,4178.846,4256.795,4232.179,0,0
108,83,0,3289,4235.0,4231.41,4208.333,4221.41,4216.538,4225.255999999999,4230.513,4248.333,4248.077,4227.564,4245.897,4178.718,4264.872,4234.615,0,0
109,84,0,3154,4240.641,4227.436,4203.59,4214.744000000001,4204.872,4216.154,4220.513,4232.821,4234.231,4221.41,4246.282,4175.897,4252.179,4230.255999999999,0,0
110,85,0,1548,4238.077,4216.795,4198.333,4206.538,4199.615,4214.615,4214.744000000001,4213.333,4225.769,4214.487,4245.769,4174.744000000001,4242.0509999999995,4230.641,0,0
111,86,0,2628,4228.462,4203.974,4194.231,4199.487,4199.615,4217.436,4214.744000000001,4212.436,4230.513,4217.436,4247.179,4174.231,4247.9490000000005,4229.744000000001,0,0
112,87,0,3289,4228.077,4200.385,4195.128,4199.231,4200.0,4215.641,4216.795,4220.385,4232.9490000000005,4224.744000000001,4256.795,4173.718,4254.103,4231.538,0,0
113,88,0,3154,4233.333,4201.026,4200.0,4201.538,4207.692,4217.564,4222.308,4225.897,4233.462,4230.897,4263.333,4174.872,4255.255999999999,4240.0,0,0
114,89,0,1548,4231.154,4194.487,4197.0509999999995,4197.308,4210.385,4219.359,4226.538,4219.103,4237.564,4232.308,4260.0,4171.538,4261.538,4240.0,0,0
115,90,0,2628,4228.59,4193.205,4191.923,4196.795,4208.333,4220.255999999999,4229.615,4224.103,4247.9490000000005,4233.462,4259.231,4166.282,4269.744000000001,4233.205,0,0
116,91,0,3289,4226.667,4196.923,4192.308,4198.205,4213.205,4225.897,4236.41,4243.846,4252.308,4237.821,4263.846,4168.462,4265.385,4233.333,0,0
117,92,0,3154,4219.487,4190.897,4190.897,4196.154,4213.333,4224.487,4233.59,4235.769,4236.667,4232.308,4260.128,4172.9490000000005,4248.846,4235.769,0,0
118,93,0,1548,4214.872,4182.179,4187.179,4192.308,4205.641,4216.667,4223.462,4210.128,4225.769,4223.974,4251.282,4173.974,4242.692,4233.077,0,0
119,94,0,2628,4214.487,4184.359,4189.487,4192.692,4202.179,4215.255999999999,4226.923,4210.769,4232.179,4224.103,4247.0509999999995,4177.0509999999995,4247.308,4229.744000000001,0,0
120,95,0,3289,4215.385,4189.615,4195.128,4196.923,4203.077,4216.923,4227.9490000000005,4218.462,4234.487,4225.0,4248.59,4178.59,4245.641,4229.103,0,0
121,96,0,3154,4219.231,4189.615,4199.103,4198.718,4207.0509999999995,4216.282,4220.513,4216.026,4232.0509999999995,4227.564,4255.769,4180.0,4249.744000000001,4233.205,0,0
122,97,0,1548,4219.744000000001,4187.564,4204.615,4198.333,4212.436,4215.255999999999,4223.718,4223.333,4234.359,4231.282,4257.692,4185.385,4251.026,4235.897,0,0
123,98,0,2628,4218.333,4187.692,4206.154,4197.9490000000005,4211.795,4215.0,4232.821,4237.179,4240.641,4229.359,4251.282,4184.359,4238.462,4233.205,0,0
124,99,0,3289,4223.333,4193.974,4205.769,4202.308,4213.205,4220.0,4239.231,4245.128,4246.667,4233.718,4249.103,4183.718,4238.205,4237.179,0,0
125,100,0,3154,4224.487,4198.077,4206.538,4203.462,4218.59,4224.744000000001,4241.667,4241.154,4247.308,4242.308,4252.436,4184.359,4250.0,4240.513,0,0
126,101,0,1548,4214.359,4196.154,4202.9490000000005,4199.744000000001,4216.154,4220.897,4237.821,4231.667,4245.255999999999,4240.128,4249.359,4180.385,4249.359,4232.9490000000005,0,0
127,102,0,2628,4209.872,4192.179,4195.255999999999,4198.205,4210.255999999999,4217.179,4231.923,4230.385,4240.641,4234.103,4244.487,4177.179,4242.821,4228.462,0,0
128,103,0,3289,4212.436,4193.205,4194.615,4199.103,4212.436,4219.103,4231.923,4232.436,4234.744000000001,4236.026,4247.9490000000005,4184.359,4248.077,4234.744000000001,0,0
129,104,0,3154,4207.821,4195.897,4201.538,4200.0,4214.231,4219.615,4233.333,4232.821,4236.923,4238.333,4246.667,4188.462,4253.077,4232.0509999999995,0,0
130,105,0,1548,4201.282,4196.026,4202.692,4199.359,4208.718,4217.692,4230.641,4233.077,4237.436,4232.821,4235.385,4183.077,4249.487,4219.487,0,0
131,106,0,2628,4202.308,4195.897,4201.282,4202.0509999999995,4207.564,4216.795,4232.0509999999995,4235.513,4232.436,4231.538,4230.385,4184.231,4248.205,4216.923,0,0
132,107,0,3289,4202.9490000000005,4192.308,4202.821,4202.821,4211.41,4213.974,4231.538,4236.795,4231.41,4235.513,4234.359,4191.538,4249.487,4221.667,0,0
133,108,0,3154,4199.615,4187.436,4203.974,4198.205,4207.564,4212.0509999999995,4222.821,4230.513,4231.026,4234.487,4234.744000000001,4193.077,4248.974,4219.359,0,0
134,109,0,1548,4201.538,4190.0,4206.923,4198.333,4202.9490000000005,4210.513,4216.41,4218.974,4227.308,4232.436,4233.59,4189.615,4250.641,4219.615,0,0
135,110,0,2628,4208.846,4202.308,4209.359,4205.769,4209.615,4204.487,4215.255999999999,4215.513,4221.538,4233.846,4234.487,4190.513,4247.9490000000005,4226.795,0,0
136,111,0,3289,4208.333,4204.359,4207.564,4210.897,4215.897,4200.385,4216.923,4216.282,4215.769,4232.436,4229.615,4192.0509999999995,4237.9490000000005,4225.385,0,0
137,112,0,3154,4201.795,4193.846,4210.128,4210.769,4213.077,4210.385,4227.564,4216.923,4221.026,4231.026,4227.564,4194.103,4236.282,4221.41,0,0
138,113,0,1548,4201.41,4196.923,4212.9490000000005,4214.615,4215.385,4218.077,4233.205,4220.641,4232.436,4237.9490000000005,4234.231,4193.59,4241.026,4227.564,0,0
139,114,0,2628,4203.846,4210.641,4203.077,4213.333,4215.641,4206.667,4218.333,4216.154,4220.513,4232.9490000000005,4227.179,4186.667,4235.513,4226.923,0,0
140,115,0,3289,4202.692,4219.359,4194.359,4205.769,4207.436,4195.641,4202.0509999999995,4200.641,4199.103,4214.744000000001,4205.513,4177.436,4222.179,4209.615,0,0
141,116,0,3154,4206.667,4227.308,4201.795,4208.462,4206.282,4197.9490000000005,4200.255999999999,4195.897,4201.41,4210.0,4195.385,4175.128,4216.154,4198.333,0,0
142,117,0,1548,4216.282,4237.179,4209.231,4217.821,4217.308,4202.9490000000005,4209.231,4210.385,4216.282,4216.923,4200.385,4177.821,4222.692,4207.308,0,0
143,118,0,2628,4221.154,4240.128,4206.41,4220.255999999999,4222.564,4204.744000000001,4218.205,4220.641,4220.0,4219.872,4206.282,4180.255999999999,4228.974,4217.9490000000005,0,0
144,119,0,3289,4214.103,4236.026,4201.923,4216.667,4217.564,4199.487,4209.359,4200.641,4208.205,4217.0509999999995,4200.513,4177.308,4221.923,4211.026,0,0
145,120,0,3154,4203.462,4233.974,4201.538,4217.0509999999995,4212.564,4190.0,4195.0,4182.564,4198.205,4211.795,4188.205,4175.255999999999,4214.231,4198.205,0,0
146,121,0,1548,4199.615,4233.462,4199.872,4219.615,4208.333,4185.897,4197.821,4196.41,4202.692,4210.128,4184.744000000001,4177.821,4216.41,4197.9490000000005,0,0
147,122,0,2628,4201.923,4232.564,4194.615,4217.821,4201.538,4186.282,4200.0,4202.821,4201.667,4207.692,4187.564,4177.564,4212.308,4200.769,0,0
148,123,0,3289,4203.974,4230.897,4197.0509999999995,4215.769,4201.282,4191.41,4201.026,4189.359,4192.692,4204.103,4191.538,4178.205,4209.359,4198.718,0,0
149,124,0,3154,4203.974,4232.692,4203.846,4218.718,4208.077,4195.255999999999,4206.282,4184.359,4194.744000000001,4205.255999999999,4198.846,4181.795,4215.897,4197.9490000000005,0,0
150,125,0,1548,4203.718,4233.205,4199.487,4216.923,4207.0509999999995,4187.692,4196.282,4185.897,4202.308,4207.821,4197.436,4178.59,4218.205,4198.974,0,0
151,126,0,2628,4200.0,4224.744000000001,4191.667,4205.385,4195.385,4180.897,4185.0,4182.0509999999995,4197.0509999999995,4202.9490000000005,4186.538,4174.103,4212.0509999999995,4201.026,0,0
152,127,0,52,4198.205,4221.41,4193.59,4202.692,4187.0509999999995,4184.615,4188.077,4174.872,4186.282,4193.59,4183.333,4177.436,4206.923,4198.718,0,0
153,0,0,2281,4198.59,4221.923,4191.282,4203.718,4184.231,4180.769,4186.41,4169.487,4182.564,4185.769,4183.974,4177.564,4204.487,4188.974,0,0
154,1,0,2822,4197.9490000000005,4214.872,4184.359,4196.41,4184.103,4169.872,4181.282,4176.282,4186.154,4182.0509999999995,4181.282,4173.333,4202.0509999999995,4187.0509999999995,0,0
155,2,0,3157,4200.0,4217.692,4183.077,4202.692,4187.564,4173.718,4184.487,4188.205,4191.667,4185.897,4182.308,4171.282,4202.564,4195.769,0,0
156,3,0,2937,4198.846,4228.077,4181.282,4217.436,4187.0509999999995,4183.205,4180.897,4185.385,4185.0,4181.41,4181.538,4170.897,4200.769,4191.41,0,0
157,4,0,3585,4197.0509999999995,4224.744000000001,4182.0509999999995,4218.718,4187.308,4187.179,4188.974,4200.769,4189.744000000001,4177.0509999999995,4183.59,4174.231,4198.333,4185.255999999999,0,0
158,5,0,3154,4199.103,4218.077,4189.615,4218.077,4192.9490000000005,4189.103,4218.59,4230.769,4212.821,4186.667,4188.846,4177.821,4200.641,4194.872,0,0
159,6,0,3304,4194.231,4217.821,4181.154,4215.0,4188.974,4187.564,4213.462,4208.462,4207.436,4181.667,4178.718,4168.974,4196.923,4189.872,0,0
160,7,0,3344,4181.154,4214.487,4167.564,4202.436,4181.154,4184.744000000001,4183.205,4159.231,4180.255999999999,4160.385,4164.744000000001,4159.359,4189.359,4168.846,0,0
161,8,0,3088,4179.487,4214.487,4174.872,4200.255999999999,4181.923,4183.333,4181.41,4157.308,4178.333,4155.513,4164.487,4163.205,4186.795,4165.128,0,0
162,9,0,3561,4192.179,4216.154,4184.744000000001,4204.487,4182.564,4182.308,4188.718,4182.9490000000005,4189.615,4162.308,4171.154,4171.154,4186.923,4177.692,0,0
163,10,0,2630,4201.026,4213.462,4183.077,4201.154,4181.795,4189.487,4182.436,4186.667,4188.462,4161.923,4179.487,4174.231,4185.513,4191.154,0,0
164,11,0,3290,4205.513,4221.41,4188.205,4208.077,4187.0509999999995,4198.333,4185.769,4183.974,4188.846,4164.359,4188.718,4177.821,4185.641,4201.154,0,0
165,12,0,3158,4207.564,4229.872,4195.641,4216.282,4183.846,4184.872,4191.795,4189.487,4192.692,4170.128,4190.897,4180.513,4186.154,4202.821,0,0
166,13,0,1546,4205.255999999999,4219.103,4193.59,4205.255999999999,4168.333,4166.41,4183.59,4187.564,4188.462,4168.077,4186.41,4180.255999999999,4184.872,4198.077,0,0
167,14,0,2630,4203.974,4212.179,4193.077,4198.462,4170.128,4174.359,4182.0509999999995,4184.872,4190.0,4166.282,4186.41,4182.821,4185.641,4202.0509999999995,0,0
168,15,0,3290,4206.282,4220.128,4196.795,4204.744000000001,4186.282,4188.077,4188.333,4187.179,4198.205,4170.513,4190.128,4182.564,4186.538,4206.282,0,0
169,16,0,0,4203.205,4217.436,4192.0509999999995,4205.897,4181.923,4185.513,4186.667,4187.436,4199.487,4170.641,4184.231,4176.538,4186.026,4193.974,0,0
170,17,0,0,4188.205,4203.333,4181.282,4195.769,4168.462,4180.0,4182.564,4189.872,4198.718,4167.436,4172.564,4171.41,4184.231,4177.308,0,0
171,18,0,0,4186.923,4212.564,4182.564,4194.615,4176.667,4181.667,4189.872,4201.154,4203.718,4172.9490000000005,4178.462,4175.513,4184.487,4183.333,0,0
172,19,0,0,4211.282,4239.359,4193.59,4215.255999999999,4189.231,4185.385,4200.128,4204.872,4206.795,4185.641,4195.769,4179.231,4192.436,4203.974,0,0
173,20,0,0,4217.821,4232.0509999999995,4192.0509999999995,4218.59,4184.359,4183.974,4193.59,4192.692,4203.718,4189.359,4193.974,4177.564,4196.538,4206.41,0,0
174,21,0,0,4200.897,4210.385,4186.026,4199.615,4177.179,4179.231,4180.897,4188.077,4201.41,4184.103,4184.487,4176.026,4189.359,4196.538,0,0
175,22,0,0,4201.026,4223.333,4193.077,4202.692,4186.026,4187.564,4191.795,4197.436,4202.692,4184.872,4187.9490000000005,4178.462,4184.231,4200.385,0,0
176,23,0,0,4211.026,4229.615,4192.9490000000005,4211.41,4197.436,4200.641,4213.846,4206.795,4206.538,4182.692,4188.59,4180.641,4182.308,4204.103,0,0
177,24,0,0,4198.59,4206.282,4179.872,4190.128,4188.205,4193.974,4206.282,4206.154,4201.923,4171.538,4177.564,4176.795,4174.231,4192.308,0,0
178,25,0,0,4181.667,4203.718,4176.154,4177.821,4172.9490000000005,4182.821,4180.897,4182.692,4187.436,4163.59,4167.692,4167.9490000000005,4165.385,4179.615,0,0
179,26,0,0,4183.718,4223.333,4178.974,4194.872,4181.282,4186.795,4173.718,4157.9490000000005,4184.872,4166.795,4169.103,4165.255999999999,4169.103,4179.872,0,0
180,27,0,0,4194.744000000001,4224.103,4180.897,4201.41,4192.821,4189.103,4184.872,4175.897,4201.154,4179.487,4184.103,4173.205,4180.513,4191.667,0,0
181,28,0,0,4204.615,4227.0509999999995,4190.255999999999,4201.667,4188.205,4184.615,4194.359,4211.154,4211.026,4191.538,4202.308,4179.744000000001,4185.641,4204.359,0,0
182,29,0,0,4205.128,4232.9490000000005,4196.667,4206.154,4191.282,4185.769,4191.41,4201.923,4203.077,4190.897,4199.231,4178.333,4184.615,4204.103,0,0
183,30,0,0,4199.872,4221.667,4192.692,4203.077,4198.462,4187.821,4186.538,4177.821,4198.333,4184.615,4186.026,4177.308,4184.359,4197.821,0,0
184,31,0,0,4201.923,4218.205,4192.821,4200.385,4192.692,4186.026,4191.026,4187.692,4203.333,4185.385,4188.462,4180.0,4185.128,4198.846,0,0
185,32,0,0,4200.769,4225.513,4193.59,4201.41,4189.231,4187.0509999999995,4197.692,4203.462,4204.615,4186.923,4191.923,4178.846,4183.718,4193.974,0,0
186,33,0,0,4195.0,4222.179,4191.154,4201.795,4191.154,4186.923,4195.641,4200.0,4205.128,4184.487,4187.179,4174.744000000001,4182.821,4186.41,0,0
187,34,0,0,4196.282,4214.103,4189.744000000001,4201.538,4187.308,4185.255999999999,4190.385,4196.667,4212.564,4185.513,4191.538,4175.897,4185.513,4191.41,0,0
188,35,0,0,4201.667,4216.154,4194.231,4201.026,4184.872,4184.231,4189.744000000001,4203.333,4217.179,4192.308,4203.333,4183.462,4192.179,4198.846,0,0
189,36,0,0,4202.179,4214.615,4200.385,4198.59,4189.103,4187.9490000000005,4193.846,4211.154,4213.718,4202.564,4211.923,4185.385,4200.897,4207.564,0,0
190,37,0,0,4204.359,4206.41,4202.179,4200.897,4191.923,4194.615,4202.436,4214.487,4218.846,4207.9490000000005,4218.718,4183.718,4199.103,4217.179,0,0
191,38,0,0,4201.282,4202.0509999999995,4196.667,4198.59,4189.103,4192.308,4204.231,4208.205,4218.59,4203.077,4216.923,4181.923,4188.59,4210.641,0,0
192,39,0,0,4189.103,4196.795,4192.9490000000005,4188.333,4187.0509999999995,4188.333,4200.128,4198.59,4205.641,4198.974,4210.385,4182.308,4183.59,4199.872,0,0
193,40,0,0,4188.333,4196.795,4197.821,4188.205,4189.359,4192.692,4201.154,4198.59,4206.026,4202.9490000000005,4212.821,4186.923,4187.692,4207.692,0,0
194,41,0,0,4194.615,4200.385,4202.436,4192.821,4189.231,4192.821,4204.359,4202.436,4214.487,4206.154,4218.077,4191.667,4192.308,4214.359,0,0
195,42,0,0,4190.641,4196.026,4198.59,4188.462,4185.385,4186.538,4205.513,4201.026,4208.205,4205.128,4213.333,4188.077,4190.255999999999,4207.179,0,0
196,43,0,0,4181.41,4183.205,4191.667,4180.897,4179.231,4185.385,4202.436,4198.333,4198.333,4200.897,4204.231,4184.231,4183.974,4200.255999999999,0,0
197,44,0,0,4175.513,4178.077,4190.128,4179.359,4171.154,4186.026,4196.026,4197.821,4198.846,4194.872,4199.615,4189.231,4178.974,4196.154,0,0
198,45,0,0,4172.821,4184.231,4191.667,4183.333,4172.436,4184.872,4196.154,4197.0509999999995,4199.872,4190.513,4201.923,4191.026,4178.718,4199.615,0,0
199,46,0,0,4174.103,4188.333,4191.538,4181.538,4183.718,4187.692,4203.718,4199.615,4200.513,4188.718,4203.846,4185.513,4182.821,4202.436,0,0
200,47,0,0,4171.538,4182.9490000000005,4189.103,4175.897,4181.795,4185.641,4197.0509999999995,4197.692,4199.872,4181.923,4195.897,4180.897,4185.128,4192.564,0,0
201,48,0,0,4165.385,4179.487,4186.282,4176.795,4170.0,4181.282,4186.795,4184.872,4193.462,4174.231,4189.359,4181.538,4182.179,4186.667,0,0
202,49,0,0,4175.897,4193.974,4191.154,4187.436,4178.59,4183.59,4198.718,4189.103,4198.718,4181.538,4199.231,4183.718,4186.41,4199.872,0,0
203,50,0,0,4186.795,4203.462,4196.41,4193.205,4190.897,4184.872,4201.923,4205.0,4207.9490000000005,4191.41,4206.667,4184.359,4194.744000000001,4205.128,0,0
204,51,0,0,4174.744000000001,4189.487,4185.897,4181.667,4181.41,4180.641,4184.231,4195.513,4200.385,4179.744000000001,4190.255999999999,4178.205,4187.821,4187.308,0,0
205,52,0,0,4163.205,4180.513,4178.718,4170.255999999999,4174.231,4182.564,4187.0509999999995,4184.744000000001,4195.513,4173.077,4180.255999999999,4173.462,4178.718,4177.308,0,0
206,53,0,0,4172.436,4188.59,4187.9490000000005,4176.282,4186.154,4188.333,4208.333,4205.769,4211.923,4194.103,4196.282,4177.179,4185.641,4186.154,0,0
207,54,0,0,4177.308,4190.128,4193.077,4184.231,4190.128,4187.179,4211.667,4221.538,4220.769,4204.872,4204.231,4180.897,4196.795,4189.487,0,0
208,55,0,0,4170.769,4185.385,4187.179,4182.0509999999995,4183.077,4190.128,4210.513,4215.128,4216.41,4198.974,4198.974,4179.615,4197.564,4182.564,0,0
209,56,0,0,4176.026,4186.282,4187.692,4182.692,4188.59,4200.513,4219.103,4217.9490000000005,4223.59,4210.128,4202.692,4180.128,4197.0509999999995,4183.59,0,0
210,57,0,0,4181.538,4187.9490000000005,4191.41,4184.872,4199.359,4203.333,4215.385,4222.821,4229.103,4220.769,4207.308,4181.282,4198.718,4189.487,0,0
211,58,0,0,4175.255999999999,4191.923,4190.513,4184.615,4201.026,4201.795,4204.103,4212.9490000000005,4221.923,4209.231,4203.077,4179.615,4199.487,4187.308,0,0
212,59,0,0,4168.846,4191.41,4187.436,4184.103,4198.462,4201.923,4201.026,4201.923,4211.667,4200.0,4199.744000000001,4177.0509999999995,4193.59,4182.436,0,0
213,60,0,0,4168.846,4181.795,4180.641,4179.487,4197.692,4200.128,4199.744000000001,4198.846,4203.462,4200.897,4195.897,4176.41,4187.821,4181.282,0,0
214,61,0,0,4169.231,4180.769,4180.641,4179.744000000001,4199.487,4199.359,4198.718,4199.359,4203.718,4200.385,4191.795,4179.231,4194.615,4181.154,0,0
215,62,0,0,4168.205,4188.205,4186.538,4184.487,4197.308,4199.744000000001,4202.564,4206.795,4214.359,4199.103,4194.872,4179.231,4200.385,4180.897,0,0
216,63,0,0,4173.718,4188.59,4188.718,4184.615,4195.128,4197.308,4207.0509999999995,4216.795,4219.103,4204.103,4201.154,4182.436,4198.974,4183.718,0,0
217,64,0,2273,4181.667,4184.744000000001,4188.333,4184.615,4198.59,4198.205,4203.974,4210.128,4214.231,4213.974,4202.179,4188.846,4200.128,4187.308,0,0
218,65,0,2817,4187.692,4193.59,4191.923,4189.872,4204.744000000001,4205.255999999999,4203.718,4202.308,4215.385,4220.513,4201.923,4190.0,4205.513,4194.744000000001,0,0
219,66,0,3150,4190.897,4203.974,4192.9490000000005,4190.641,4205.385,4201.538,4205.255999999999,4209.872,4220.641,4219.359,4204.487,4188.718,4205.385,4201.026,0,0
220,67,0,2923,4188.974,4195.769,4189.487,4183.974,4195.641,4182.308,4197.0509999999995,4208.718,4215.385,4214.872,4199.231,4188.077,4200.641,4194.231,0,0
221,68,0,3585,4183.333,4183.205,4188.718,4180.769,4188.333,4175.128,4193.077,4204.103,4206.154,4213.59,4192.692,4181.795,4198.333,4184.231,0,0
222,69,0,3153,4182.179,4187.9490000000005,4193.462,4184.615,4195.0,4184.359,4201.154,4211.795,4207.436,4216.538,4196.154,4181.923,4197.9490000000005,4187.9490000000005,0,0
223,70,0,3304,4188.205,4202.564,4198.846,4189.615,4202.821,4188.462,4204.744000000001,4208.974,4208.077,4219.872,4202.564,4188.718,4200.0,4199.872,0,0
224,71,0,3341,4190.897,4206.154,4198.974,4188.846,4200.769,4184.744000000001,4197.9490000000005,4193.077,4198.462,4217.0509999999995,4194.872,4187.564,4201.154,4199.872,0,0
225,72,0,3085,4187.692,4200.513,4198.333,4187.692,4201.923,4185.769,4196.538,4192.308,4196.795,4215.769,4184.231,4183.59,4196.667,4190.641,0,0
226,73,0,3556,4185.513,4199.231,4199.615,4187.564,4206.923,4190.128,4200.0,4195.0,4204.231,4218.846,4190.128,4187.308,4192.692,4185.255999999999,0,0
227,74,0,2629,4183.974,4197.564,4197.692,4186.154,4203.59,4193.077,4200.641,4185.385,4201.923,4218.718,4198.205,4186.026,4195.513,4187.308,0,0
228,75,0,3287,4186.41,4195.128,4197.308,4193.333,4201.026,4198.59,4207.564,4189.487,4198.974,4223.462,4198.846,4183.718,4199.872,4192.9490000000005,0,0
229,76,0,3152,4191.41,4198.718,4203.333,4197.821,4202.692,4197.9490000000005,4212.692,4202.564,4209.744000000001,4232.9490000000005,4199.103,4188.59,4200.897,4197.308,0,0
230,77,0,1541,4192.179,4204.359,4206.923,4191.41,4202.308,4191.538,4213.718,4204.872,4214.103,4236.282,4201.923,4189.359,4199.103,4199.744000000001,0,0
231,78,0,2629,4186.795,4201.667,4201.41,4185.769,4201.282,4187.0509999999995,4215.769,4205.641,4205.641,4235.255999999999,4203.205,4188.59,4197.821,4201.026,0,0
232,79,0,3287,4182.692,4198.077,4195.641,4186.795,4199.615,4184.872,4210.513,4211.154,4204.872,4232.564,4201.41,4188.205,4199.359,4199.487,0,0
233,80,0,3152,4189.615,4205.255999999999,4197.692,4191.538,4199.872,4188.077,4208.462,4215.897,4214.359,4230.385,4202.564,4187.564,4200.0,4200.769,0,0
234,81,0,1541,4200.641,4213.59,4202.0509999999995,4198.846,4205.897,4198.205,4216.667,4219.359,4220.0,4235.641,4209.359,4188.718,4198.077,4209.103,0,0
235,82,0,2629,4205.769,4216.282,4209.103,4204.872,4212.564,4205.0,4217.821,4218.333,4218.205,4240.0,4217.564,4192.564,4199.103,4217.436,0,0
236,83,0,3287,4203.205,4213.205,4211.026,4202.564,4211.282,4200.769,4212.564,4217.564,4215.769,4234.487,4217.0509999999995,4194.231,4199.615,4217.692,0,0
237,84,0,3152,4200.641,4212.564,4203.205,4201.026,4206.795,4198.333,4213.333,4221.41,4217.9490000000005,4231.026,4212.436,4192.9490000000005,4196.41,4211.538,0,0
238,85,0,1541,4201.923,4214.872,4196.538,4201.923,4211.282,4201.923,4208.846,4207.564,4215.769,4232.436,4209.103,4188.974,4198.59,4204.615,0,0
239,86,0,2629,4200.255999999999,4210.641,4197.564,4198.462,4212.9490000000005,4200.641,4196.154,4183.846,4203.718,4227.692,4206.795,4185.769,4201.795,4202.821,0,0
240,87,0,3287,4200.897,4208.462,4202.0509999999995,4198.59,4208.077,4199.359,4197.179,4188.59,4204.744000000001,4225.128,4211.154,4190.255999999999,4200.128,4211.282,0,0
241,88,0,3152,4205.255999999999,4214.487,4202.179,4200.897,4206.923,4203.462,4203.462,4205.769,4218.333,4233.333,4216.026,4195.513,4202.179,4217.821,0,0
242,89,0,1541,4200.385,4211.154,4197.692,4199.744000000001,4206.923,4201.154,4195.0,4203.462,4217.0509999999995,4232.0509999999995,4214.872,4191.923,4204.487,4209.359,0,0
243,90,0,2629,4192.9490000000005,4199.487,4196.923,4196.538,4205.897,4191.795,4186.923,4198.333,4208.462,4217.9490000000005,4212.0509999999995,4187.564,4203.077,4204.359,0,0
244,91,0,3287,4204.615,4205.255999999999,4208.333,4198.974,4210.641,4191.282,4198.077,4208.077,4215.128,4220.255999999999,4214.872,4193.077,4208.974,4214.744000000001,0,0
245,92,0,3152,4221.667,4218.718,4218.974,4209.615,4217.9490000000005,4199.487,4217.0509999999995,4227.564,4229.487,4242.179,4226.795,4201.795,4219.872,4225.385,0,0
246,93,0,1541,4215.641,4217.0509999999995,4216.026,4213.333,4218.077,4202.9490000000005,4223.205,4239.103,4238.205,4247.821,4232.179,4202.436,4220.0,4222.821,0,0
247,94,0,2629,4202.692,4212.564,4205.385,4206.795,4215.641,4202.692,4212.436,4219.615,4228.077,4232.821,4221.538,4195.255999999999,4217.436,4212.308,0,0
248,95,0,3287,4197.436,4212.692,4199.359,4204.103,4214.872,4202.0509999999995,4203.462,4210.641,4216.282,4225.255999999999,4214.231,4191.667,4215.255999999999,4204.615,0,0
249,96,0,3152,4190.128,4208.846,4201.282,4206.667,4214.872,4203.077,4215.0,4242.436,4228.205,4227.436,4218.462,4191.923,4207.0509999999995,4202.436,0,0
250,97,0,1541,4187.308,4202.9490000000005,4201.282,4201.923,4215.0,4209.615,4227.436,4241.923,4226.41,4220.641,4216.026,4191.667,4204.231,4200.255999999999,0,0
251,98,0,2629,4195.897,4203.077,4201.923,4199.231,4214.615,4213.077,4213.59,4194.103,4202.9490000000005,4214.487,4213.718,4191.282,4211.41,4202.0509999999995,0,0
252,99,0,3287,4203.333,4209.744000000001,4211.026,4204.359,4217.436,4207.564,4197.9490000000005,4182.179,4204.487,4223.462,4223.333,4197.564,4217.564,4214.487,0,0
253,100,0,3152,4201.667,4215.513,4211.795,4204.359,4218.205,4200.641,4196.795,4202.692,4221.154,4227.692,4223.333,4199.615,4215.385,4215.255999999999,0,0
254,101,0,1541,4199.359,4214.615,4206.538,4205.897,4214.487,4200.897,4199.615,4207.821,4218.333,4223.462,4214.615,4193.846,4211.026,4204.615,0,0
255,102,0,2629,4201.538,4209.487,4210.255999999999,4208.077,4214.615,4212.179,4211.154,4217.436,4216.538,4231.41,4221.538,4194.103,4213.462,4212.308,0,0
256,103,0,3287,4202.692,4210.128,4210.897,4202.821,4215.897,4217.308,4215.897,4226.41,4222.179,4235.255999999999,4230.513,4196.923,4218.974,4221.154,0,0
257,104,0,3152,4201.923,4222.821,4201.282,4205.897,4215.128,4207.308,4205.641,4212.9490000000005,4215.385,4219.231,4217.179,4187.0509999999995,4211.923,4206.154,0,0
258,105,0,1541,4206.026,4239.744000000001,4200.769,4218.718,4216.282,4202.179,4204.231,4204.615,4208.462,4210.0,4201.923,4182.0509999999995,4200.641,4196.538,0,0
259,106,0,2629,4216.026,4248.974,4206.923,4223.077,4221.667,4206.795,4211.538,4207.692,4207.821,4212.692,4204.231,4191.154,4202.436,4203.077,0,0
260,107,0,3287,4218.59,4247.821,4206.923,4218.974,4226.154,4200.897,4207.308,4206.795,4207.564,4211.282,4204.615,4192.9490000000005,4203.077,4203.846,0,0
261,108,0,3152,4215.255999999999,4245.0,4206.667,4218.077,4223.974,4196.667,4198.205,4208.205,4211.154,4212.821,4202.436,4189.487,4200.897,4206.41,0,0
262,109,0,1541,4218.59,4246.923,4211.538,4218.718,4220.128,4208.59,4204.103,4219.231,4217.692,4218.205,4209.615,4192.0509999999995,4210.0,4218.205,0,0
263,110,0,2629,4221.667,4248.333,4212.179,4219.744000000001,4219.359,4212.308,4215.0,4221.667,4217.821,4217.179,4210.128,4192.179,4215.128,4218.077,0,0
264,111,0,3287,4212.179,4239.103,4205.769,4218.333,4217.821,4202.308,4208.462,4211.41,4214.872,4216.282,4201.538,4186.41,4207.564,4204.487,0,0
265,112,0,3152,4205.128,4231.154,4203.077,4215.769,4215.641,4203.59,4198.718,4205.769,4212.564,4215.769,4200.385,4186.538,4205.513,4201.41,0,0
266,113,0,1541,4212.308,4238.59,4206.154,4219.615,4222.0509999999995,4215.897,4205.513,4198.846,4205.513,4207.692,4201.795,4187.564,4207.692,4204.615,0,0
267,114,0,2629,4216.41,4247.308,4208.718,4222.564,4231.282,4220.0,4209.359,4186.026,4199.359,4200.897,4199.103,4185.769,4202.308,4200.385,0,0
268,115,0,3287,4212.821,4246.923,4207.179,4220.513,4228.462,4216.538,4202.692,4185.0,4199.615,4198.718,4196.923,4187.179,4198.718,4202.821,0,0
269,116,0,3152,4219.487,4247.9490000000005,4209.359,4226.026,4226.282,4218.205,4211.923,4200.0,4203.333,4200.128,4201.41,4193.59,4201.667,4216.41,0,0
270,117,0,1541,4227.692,4250.255999999999,4215.128,4234.231,4233.333,4218.718,4221.923,4210.385,4208.718,4206.41,4207.308,4197.436,4200.513,4222.821,0,0
271,118,0,2629,4220.255999999999,4245.0,4214.231,4225.641,4231.282,4215.0,4208.59,4212.692,4215.128,4210.769,4206.154,4196.667,4202.308,4218.077,0,0
272,119,0,3287,4213.59,4242.0509999999995,4209.103,4215.513,4218.462,4212.821,4205.897,4216.154,4216.538,4212.436,4203.077,4194.744000000001,4211.026,4216.41,0,0
273,120,0,3152,4220.0,4247.179,4210.128,4225.255999999999,4216.154,4208.718,4217.9490000000005,4213.462,4212.564,4211.923,4204.359,4193.718,4210.769,4218.462,0,0
274,121,0,1541,4220.128,4246.538,4208.333,4228.846,4219.487,4201.538,4210.128,4206.026,4211.026,4207.436,4203.974,4192.179,4203.59,4216.41,0,0
275,122,0,2629,4217.0509999999995,4243.59,4202.308,4223.718,4217.0509999999995,4203.846,4200.255999999999,4207.436,4214.231,4206.026,4207.564,4190.385,4203.974,4215.255999999999,0,0
276,123,0,3287,4223.205,4249.487,4206.538,4226.923,4216.667,4213.462,4212.564,4217.308,4217.179,4214.744000000001,4214.615,4191.795,4207.564,4220.0,0,0
277,124,0,3152,4221.795,4246.282,4207.9490000000005,4227.0509999999995,4219.744000000001,4216.538,4220.255999999999,4217.308,4212.564,4211.923,4206.667,4190.385,4204.615,4216.538,0,0
278,125,0,1541,4212.564,4233.333,4201.667,4218.333,4218.718,4215.385,4213.718,4210.255999999999,4210.641,4199.231,4194.872,4186.41,4203.462,4203.333,0,0
279,126,0,2629,4213.974,4236.41,4200.769,4218.59,4215.255999999999,4216.154,4218.59,4217.179,4219.103,4206.154,4203.333,4186.795,4205.128,4201.41,0,0
280,127,0,52,4219.487,4247.692,4202.564,4225.769,4212.179,4214.872,4218.718,4220.385,4215.641,4211.538,4208.462,4188.333,4200.513,4209.487,0,0
281,0,0,2274,4217.179,4247.179,4201.923,4222.692,4214.487,4213.333,4203.718,4204.744000000001,4205.385,4204.615,4200.128,4184.744000000001,4197.308,4212.564,0,0
282,1,0,2818,4217.436,4242.564,4205.385,4218.718,4219.359,4214.615,4206.154,4195.897,4208.462,4208.462,4203.59,4185.897,4200.897,4212.9490000000005,0,0
283,2,0,3150,4219.231,4242.0509999999995,4207.9490000000005,4220.641,4220.513,4216.923,4220.128,4210.0,4216.282,4217.692,4215.513,4191.923,4205.769,4213.462,0,0
284,3,0,2926,4217.436,4242.9490000000005,4205.897,4221.795,4218.333,4213.59,4209.359,4217.9490000000005,4216.667,4216.154,4217.0509999999995,4194.487,4207.436,4216.41,0,0
285,4,0,3585,4223.846,4246.795,4204.744000000001,4223.462,4219.487,4209.231,4195.641,4208.462,4215.0,4213.846,4218.718,4194.359,4210.128,4226.667,0,0
286,5,0,3153,4236.923,4251.538,4209.615,4230.128,4229.487,4216.795,4214.359,4209.487,4216.41,4222.436,4225.255999999999,4195.0,4212.692,4235.0,0,0
287,6,0,3304,4243.205,4250.897,4219.744000000001,4235.255999999999,4232.821,4219.615,4222.436,4217.436,4219.359,4227.436,4222.821,4195.769,4214.615,4233.974,0,0
288,7,0,3338,4239.359,4248.077,4221.795,4233.077,4221.154,4204.872,4201.154,4209.359,4216.41,4223.59,4219.359,4195.769,4215.513,4233.462,0,0
289,8,0,3085,4230.385,4246.282,4211.538,4230.641,4215.769,4197.179,4202.0509999999995,4200.128,4203.846,4217.692,4219.615,4194.872,4209.744000000001,4232.692,0,0
290,9,0,3555,4224.359,4244.231,4206.667,4224.103,4219.872,4203.333,4217.436,4203.462,4204.744000000001,4216.923,4216.923,4192.821,4206.282,4228.333,0,0
291,10,0,2629,4229.744000000001,4242.0509999999995,4209.103,4216.026,4216.667,4203.205,4206.667,4204.487,4215.641,4220.128,4225.385,4192.692,4212.564,4230.513,0,0
292,11,0,3284,4235.128,4242.564,4209.744000000001,4220.0,4213.462,4199.487,4194.744000000001,4199.103,4209.231,4218.205,4232.821,4195.385,4214.231,4235.641,0,0
293,12,0,3152,4227.436,4245.255999999999,4211.282,4227.9490000000005,4218.462,4201.795,4201.923,4202.436,4201.026,4216.154,4222.564,4198.333,4205.513,4230.513,0,0
294,13,0,1543,4219.744000000001,4243.205,4213.718,4224.872,4217.436,4202.436,4202.692,4208.846,4205.641,4216.795,4214.487,4196.154,4201.282,4221.026,0,0
295,14,0,2629,4211.923,4229.872,4212.308,4215.769,4212.308,4201.41,4201.923,4211.667,4208.077,4215.0,4212.436,4191.667,4201.282,4211.538,0,0
296,15,0,3284,4207.692,4222.179,4209.103,4215.513,4213.846,4205.513,4214.744000000001,4220.0,4210.897,4214.487,4210.897,4195.897,4200.255999999999,4211.41,0,0
297,16,0,0,4223.59,4233.205,4210.641,4223.462,4215.513,4210.255999999999,4218.846,4216.282,4216.667,4220.255999999999,4220.641,4203.718,4202.436,4232.436,0,0
298,17,0,0,4236.026,4234.231,4212.821,4222.436,4213.333,4206.923,4206.41,4203.333,4215.255999999999,4227.821,4235.769,4203.077,4205.0,4249.231,0,0
299,18,0,0,4222.0509999999995,4217.0509999999995,4214.615,4214.231,4213.462,4202.308,4203.077,4204.103,4214.744000000001,4231.923,4240.128,4200.641,4210.0,4242.9490000000005,0,0
300,19,0,0,4213.205,4209.359,4212.308,4213.077,4216.41,4207.179,4210.897,4207.821,4217.436,4233.333,4239.872,4201.026,4217.0509999999995,4240.385,0,0
301,20,0,0,4222.9490000000005,4214.615,4210.513,4217.179,4218.205,4214.359,4219.487,4211.026,4218.205,4233.718,4243.846,4203.59,4217.179,4249.487,0,0
302,21,0,0,4221.795,4214.615,4215.385,4216.795,4215.641,4215.513,4225.897,4221.154,4218.846,4233.974,4246.538,4202.692,4209.744000000001,4246.923,0,0
303,22,0,0,4216.154,4214.872,4217.564,4215.0,4212.821,4215.641,4222.564,4221.154,4217.179,4235.128,4246.41,4202.692,4209.615,4241.41,0,0
304,23,0,0,4227.564,4220.255999999999,4215.897,4217.436,4216.667,4219.487,4212.692,4211.538,4215.385,4233.462,4247.308,4206.923,4214.103,4250.897,0,0
305,24,0,0,4233.59,4219.744000000001,4217.179,4217.9490000000005,4220.0,4218.718,4212.9490000000005,4217.179,4218.59,4231.41,4251.282,4209.103,4213.59,4258.974,0,0
306,25,0,0,4220.769,4213.077,4219.359,4215.897,4216.923,4210.769,4219.487,4223.846,4218.846,4232.564,4252.179,4206.795,4211.667,4252.821,0,0
307,26,0,0,4213.205,4210.128,4214.744000000001,4214.103,4215.0,4209.231,4214.615,4220.255999999999,4214.231,4231.282,4245.641,4206.154,4213.205,4245.897,0,0
308,27,0,0,4219.615,4210.769,4214.103,4216.026,4216.282,4216.538,4215.128,4231.026,4216.538,4230.0,4244.103,4206.923,4215.385,4246.667,0,0
309,28,0,0,4214.615,4206.923,4216.282,4213.205,4218.077,4218.59,4226.154,4239.103,4222.179,4230.769,4244.615,4202.436,4214.103,4242.179,0,0
310,29,0,0,4200.385,4201.795,4209.744000000001,4204.103,4215.641,4215.641,4225.0,4223.974,4218.974,4226.282,4238.718,4201.282,4213.974,4233.205,0,0
311,30,0,0,4200.769,4203.077,4204.872,4200.128,4206.41,4211.026,4213.077,4208.59,4213.59,4219.615,4231.41,4200.128,4215.385,4228.974,0,0
312,31,0,0,4205.641,4204.231,4205.897,4200.513,4200.255999999999,4205.128,4211.41,4211.923,4214.231,4214.359,4227.564,4195.0,4210.0,4224.744000000001,0,0
313,32,0,0,4201.538,4202.0509999999995,4206.026,4199.872,4203.077,4207.821,4216.923,4218.077,4216.026,4212.564,4226.154,4195.0,4200.641,4224.615,0,0
314,33,0,0,4201.154,4201.538,4210.385,4200.897,4207.436,4216.154,4217.692,4225.255999999999,4221.026,4223.846,4231.282,4200.897,4207.0509999999995,4228.59,0,0
315,34,0,0,4205.128,4201.667,4212.692,4202.692,4208.333,4216.923,4223.333,4241.41,4231.282,4232.821,4234.359,4199.872,4219.359,4224.744000000001,0,0
316,35,0,0,4201.154,4197.436,4202.9490000000005,4199.103,4204.231,4212.692,4230.641,4247.179,4232.9490000000005,4221.154,4222.692,4194.103,4208.846,4215.769,0,0
317,36,0,0,4198.718,4191.667,4196.026,4193.59,4200.769,4212.821,4230.641,4246.026,4228.974,4218.077,4217.436,4193.333,4198.59,4217.564,0,0
318,37,0,0,4204.487,4196.282,4201.154,4195.128,4204.487,4217.564,4227.0509999999995,4251.923,4233.077,4234.103,4228.59,4195.0,4210.128,4223.333,0,0
319,38,0,0,4204.615,4198.846,4202.436,4196.282,4205.385,4213.59,4219.359,4241.154,4226.154,4228.333,4224.744000000001,4192.821,4213.205,4220.641,0,0
320,39,0,0,4198.846,4189.359,4199.103,4193.846,4199.744000000001,4205.255999999999,4213.718,4219.103,4206.795,4203.205,4206.538,4189.487,4195.128,4210.641,0,0
321,40,0,0,4192.692,4184.744000000001,4199.103,4193.846,4198.462,4206.667,4214.103,4210.0,4196.795,4193.974,4199.103,4187.9490000000005,4184.231,4200.0,0,0
322,41,0,0,4192.179,4191.154,4202.436,4198.59,4201.795,4214.872,4216.41,4217.0509999999995,4200.641,4200.897,4201.795,4188.718,4187.692,4199.872,0,0
323,42,0,0,4195.769,4196.026,4207.564,4201.026,4205.0,4214.487,4217.564,4227.0509999999995,4209.359,4210.0,4209.615,4193.718,4193.59,4210.897,0,0
324,43,0,0,4201.41,4198.846,4212.436,4202.564,4209.872,4208.974,4216.795,4223.846,4214.487,4216.154,4223.462,4197.564,4197.0509999999995,4221.41,0,0
325,44,0,0,4211.026,4207.308,4217.179,4212.692,4215.128,4210.385,4215.255999999999,4209.872,4215.385,4222.9490000000005,4231.538,4202.0509999999995,4201.795,4227.821,0,0
326,45,0,0,4217.692,4213.846,4221.154,4219.744000000001,4218.59,4217.0509999999995,4217.564,4214.359,4217.821,4232.308,4231.923,4207.179,4207.0509999999995,4232.9490000000005,0,0
327,46,0,0,4216.923,4215.641,4220.641,4217.9490000000005,4218.718,4216.667,4218.59,4230.255999999999,4220.385,4234.872,4230.385,4204.615,4206.923,4233.205,0,0
328,47,0,0,4215.128,4215.769,4217.436,4218.462,4215.641,4206.154,4213.333,4225.0,4217.179,4228.333,4228.205,4197.179,4201.026,4230.385,0,0
329,48,0,0,4216.667,4215.128,4218.59,4220.128,4214.744000000001,4205.513,4213.974,4218.59,4216.538,4227.179,4228.846,4200.897,4199.744000000001,4230.769,0,0
330,49,0,0,4218.846,4214.872,4221.41,4217.821,4218.077,4216.41,4220.0,4230.128,4220.513,4236.923,4235.769,4207.308,4210.255999999999,4234.103,0,0
331,50,0,0,4219.103,4214.744000000001,4219.231,4216.154,4217.564,4213.205,4219.359,4231.667,4218.077,4234.103,4232.564,4201.667,4214.103,4232.308,0,0
332,51,0,0,4214.744000000001,4214.872,4213.333,4215.897,4215.769,4205.255999999999,4217.821,4222.308,4213.718,4218.462,4220.769,4193.462,4203.718,4223.077,0,0
333,52,0,0,4211.538,4207.9490000000005,4211.795,4211.667,4213.974,4207.436,4216.41,4219.103,4214.487,4217.821,4223.59,4194.359,4199.103,4217.436,0,0
334,53,0,0,4212.436,4201.026,4210.641,4207.0509999999995,4206.41,4207.308,4212.821,4218.462,4216.923,4231.41,4230.385,4198.846,4205.513,4219.615,0,0
335,54,0,0,4209.103,4206.154,4207.436,4209.231,4203.846,4201.667,4216.538,4219.615,4214.615,4227.308,4222.0509999999995,4198.718,4204.231,4219.103,0,0
336,55,0,0,4205.128,4210.769,4209.487,4214.359,4212.564,4201.154,4214.744000000001,4216.923,4210.769,4215.0,4217.0509999999995,4193.846,4201.282,4214.744000000001,0,0
337,56,0,0,4210.897,4210.255999999999,4213.462,4214.359,4216.282,4203.59,4201.154,4213.333,4214.103,4225.128,4227.692,4196.154,4207.179,4219.103,0,0
338,57,0,0,4215.769,4213.718,4211.538,4214.103,4212.308,4205.897,4203.974,4227.9490000000005,4222.9490000000005,4238.333,4233.974,4203.077,4206.923,4231.795,0,0
339,58,0,0,4210.769,4213.718,4210.255999999999,4215.128,4210.513,4208.333,4215.641,4220.769,4216.923,4228.333,4227.692,4199.487,4205.255999999999,4233.205,0,0
340,59,0,0,4203.077,4204.615,4210.0,4208.205,4212.692,4204.872,4206.923,4183.205,4197.564,4212.9490000000005,4217.564,4193.59,4208.333,4221.026,0,0
341,60,0,0,4202.179,4201.667,4210.0,4202.692,4213.077,4202.564,4195.897,4185.385,4197.821,4215.0,4217.692,4197.436,4207.821,4216.026,0,0
342,61,0,0,4204.103,4203.974,4211.538,4204.872,4207.564,4206.795,4201.795,4218.205,4212.692,4220.769,4225.897,4199.615,4204.744000000001,4218.205,0,0
343,62,0,0,4200.769,4201.026,4211.667,4204.487,4199.231,4205.385,4210.385,4219.487,4215.769,4217.436,4224.231,4195.641,4202.308,4217.436,0,0
344,63,0,0,4199.359,4200.513,4211.667,4203.974,4199.487,4205.255999999999,4215.0,4213.846,4213.333,4216.667,4217.179,4199.615,4202.564,4215.513,0,0
345,64,0,2275,4200.0,4201.154,4211.026,4204.744000000001,4204.359,4212.436,4217.179,4220.255999999999,4213.59,4218.462,4215.255999999999,4201.282,4204.872,4208.59,0,0
346,65,0,2818,4200.385,4200.385,4210.513,4203.205,4204.103,4215.385,4216.795,4217.564,4212.9490000000005,4217.308,4215.385,4196.154,4203.59,4204.487,0,0
347,66,0,3152,4200.513,4202.308,4207.821,4202.179,4201.923,4211.41,4219.359,4222.9490000000005,4216.538,4216.923,4216.026,4193.718,4201.667,4211.538,0,0
348,67,0,2927,4197.9490000000005,4200.128,4208.462,4203.333,4203.462,4210.897,4217.692,4231.41,4222.179,4219.744000000001,4218.333,4199.487,4211.154,4217.692,0,0
349,68,0,3585,4202.564,4201.154,4213.205,4205.769,4208.333,4215.769,4215.255999999999,4219.744000000001,4217.821,4219.872,4219.103,4205.128,4216.795,4216.282,0,0
350,69,0,3153,4212.0509999999995,4211.026,4215.385,4213.718,4208.462,4214.359,4214.744000000001,4205.255999999999,4208.462,4217.0509999999995,4219.615,4202.308,4208.077,4217.308,0,0
351,70,0,3304,4209.103,4211.41,4209.744000000001,4213.205,4203.077,4208.205,4203.718,4195.641,4199.872,4210.128,4217.0509999999995,4194.615,4202.821,4217.308,0,0
352,71,0,3336,4200.769,4201.41,4206.538,4202.308,4202.0509999999995,4208.718,4196.026,4193.974,4200.513,4203.846,4212.821,4191.41,4203.718,4215.0,0,0
353,72,0,3080,4203.462,4201.026,4211.538,4202.9490000000005,4203.333,4216.282,4208.462,4210.0,4210.128,4205.769,4213.718,4194.487,4202.0509999999995,4217.692,0,0
354,73,0,3558,4204.487,4204.231,4210.641,4206.41,4201.154,4217.692,4218.077,4217.179,4210.513,4205.255999999999,4208.974,4196.282,4199.744000000001,4216.667,0,0
355,74,0,2629,4200.385,4201.795,4205.0,4202.9490000000005,4200.513,4214.359,4208.462,4200.641,4201.026,4203.59,4204.615,4197.179,4201.282,4216.154,0,0
356,75,0,3285,4203.333,4201.667,4208.077,4202.436,4201.538,4214.744000000001,4207.308,4196.41,4198.846,4207.821,4211.282,4199.231,4203.077,4220.385,0,0
357,76,0,3154,4205.641,4200.897,4212.564,4202.692,4202.564,4215.897,4213.333,4211.538,4210.255999999999,4207.821,4216.41,4200.0,4201.795,4219.744000000001,0,0
358,77,0,1542,4200.128,4199.744000000001,4207.0509999999995,4200.255999999999,4207.308,4215.897,4205.897,4209.615,4211.282,4202.692,4212.692,4196.667,4200.255999999999,4213.333,0,0
359,78,0,2629,4198.59,4204.487,4207.179,4207.179,4214.359,4219.359,4205.513,4203.59,4204.231,4208.462,4212.436,4196.154,4202.0509999999995,4215.128,0,0
360,79,0,3285,4205.769,4206.923,4211.667,4217.436,4216.282,4221.41,4217.0509999999995,4217.692,4209.744000000001,4217.821,4217.564,4201.282,4204.872,4221.41,0,0
361,80,0,3154,4210.769,4206.154,4210.128,4214.744000000001,4209.744000000001,4217.0509999999995,4214.744000000001,4213.59,4208.59,4211.538,4216.026,4204.231,4201.026,4219.487,0,0
362,81,0,1542,4217.0509999999995,4211.154,4213.077,4213.205,4209.231,4215.255999999999,4209.487,4199.103,4200.255999999999,4209.744000000001,4217.564,4205.385,4202.179,4221.538,0,0
363,82,0,2629,4229.231,4217.436,4224.103,4224.103,4217.308,4220.128,4218.846,4212.179,4209.231,4219.103,4225.769,4210.769,4211.41,4232.9490000000005,0,0
364,83,0,3285,4230.128,4216.538,4226.026,4228.205,4219.872,4220.385,4221.026,4220.641,4217.308,4215.128,4224.231,4209.872,4209.103,4234.359,0,0
365,84,0,3154,4216.282,4212.9490000000005,4217.436,4220.385,4214.744000000001,4218.462,4215.0,4201.154,4201.282,4199.359,4213.205,4201.795,4197.436,4220.769,0,0
366,85,0,1542,4211.538,4212.692,4213.205,4214.872,4213.205,4223.59,4216.026,4200.128,4197.564,4198.333,4210.641,4201.154,4196.795,4217.564,0,0
367,86,0,2629,4223.974,4215.385,4217.9490000000005,4218.846,4217.179,4225.769,4220.255999999999,4228.077,4215.641,4213.333,4218.333,4207.9490000000005,4202.0509999999995,4231.41,0,0
368,87,0,3285,4232.179,4218.333,4225.385,4226.154,4217.564,4217.692,4223.59,4235.0,4217.692,4218.974,4225.385,4211.795,4197.692,4238.205,0,0
369,88,0,3154,4231.795,4218.974,4227.692,4229.231,4216.795,4217.692,4227.9490000000005,4222.564,4211.923,4214.359,4231.538,4211.282,4198.205,4234.103,0,0
370,89,0,1542,4230.641,4219.103,4227.692,4231.923,4219.231,4226.41,4231.282,4219.872,4213.462,4216.282,4232.436,4209.872,4208.205,4235.0,0,0
371,90,0,2629,4224.615,4218.846,4224.487,4231.154,4218.59,4223.205,4224.615,4208.974,4209.872,4213.846,4223.974,4205.897,4208.59,4232.436,0,0
372,91,0,3285,4215.385,4215.641,4212.9490000000005,4223.077,4212.436,4214.103,4206.538,4183.846,4195.897,4201.538,4213.974,4202.0509999999995,4200.513,4221.667,0,0
373,92,0,3154,4215.0,4213.205,4205.769,4216.795,4210.897,4213.462,4198.974,4182.692,4193.333,4201.41,4215.385,4200.385,4198.59,4219.487,0,0
374,93,0,1542,4217.9490000000005,4214.487,4209.744000000001,4219.103,4215.128,4219.615,4214.487,4212.564,4210.897,4215.897,4226.41,4201.282,4202.0509999999995,4224.359,0,0
375,94,0,2629,4208.077,4212.564,4210.385,4220.513,4216.795,4223.846,4221.154,4219.615,4216.923,4219.359,4226.538,4199.744000000001,4201.923,4218.59,0,0
376,95,0,3285,4196.538,4210.255999999999,4206.154,4217.179,4215.641,4222.308,4206.923,4202.564,4203.718,4206.667,4214.103,4195.128,4200.128,4205.0,0,0
377,96,0,3154,4200.0,4212.9490000000005,4206.795,4215.897,4213.974,4216.795,4200.769,4206.923,4202.179,4201.923,4208.59,4191.026,4199.872,4203.077,0,0
378,97,0,1542,4210.513,4216.41,4209.231,4217.0509999999995,4213.462,4211.41,4205.0,4218.846,4217.0509999999995,4212.564,4214.744000000001,4194.359,4203.59,4213.59,0,0
379,98,0,2629,4214.103,4216.026,4208.205,4218.718,4214.744000000001,4211.795,4205.897,4207.692,4215.0,4220.897,4219.487,4198.205,4206.667,4220.897,0,0
380,99,0,3285,4211.923,4214.359,4205.513,4216.41,4215.641,4211.667,4201.538,4194.231,4202.436,4216.154,4218.59,4195.769,4203.205,4219.872,0,0
381,100,0,3154,4208.974,4214.231,4204.359,4214.872,4215.385,4208.974,4198.846,4203.974,4209.615,4215.513,4221.282,4195.128,4201.667,4217.692,0,0
382,101,0,1542,4208.462,4216.154,4207.564,4222.564,4215.385,4203.462,4199.487,4203.205,4213.205,4220.897,4220.0,4196.026,4203.333,4214.359,0,0
383,102,0,2629,4213.205,4219.231,4212.692,4226.538,4214.744000000001,4201.795,4201.795,4182.0509999999995,4199.615,4216.538,4218.718,4194.744000000001,4202.308,4216.026,0,0
384,103,0,3285,4214.359,4214.615,4213.974,4219.615,4209.615,4207.436,4203.974,4185.641,4197.564,4214.744000000001,4227.308,4200.128,4203.205,4230.897,0,0
385,104,0,3154,4206.667,4209.359,4211.026,4215.128,4205.513,4207.564,4202.436,4198.974,4204.744000000001,4218.077,4228.333,4204.359,4203.846,4230.897,0,0
386,105,0,1542,4201.026,4213.462,4205.769,4219.103,4206.923,4202.564,4198.846,4189.872,4201.923,4215.255999999999,4215.641,4195.128,4199.103,4214.615,0,0
387,106,0,2629,4203.462,4219.487,4202.9490000000005,4220.255999999999,4208.846,4202.179,4199.615,4183.333,4201.795,4215.0,4212.692,4189.744000000001,4200.769,4211.538,0,0
388,107,0,3285,4205.0,4219.615,4202.0509999999995,4216.923,4206.667,4205.255999999999,4200.769,4190.385,4205.513,4216.026,4215.128,4193.974,4205.128,4216.41,0,0
389,108,0,3154,4207.308,4218.59,4201.667,4221.282,4206.795,4203.59,4198.205,4187.692,4200.385,4208.462,4211.923,4195.641,4201.538,4214.359,0,0
390,109,0,1542,4212.692,4221.41,4204.487,4227.9490000000005,4214.744000000001,4202.564,4199.872,4182.308,4199.103,4200.897,4216.41,4196.154,4200.513,4216.667,0,0
391,110,0,2629,4210.128,4220.385,4207.179,4223.333,4215.0,4204.103,4199.231,4185.769,4200.513,4201.026,4216.026,4196.667,4198.974,4217.308,0,0
392,111,0,3285,4197.436,4215.385,4197.821,4214.103,4206.154,4202.692,4191.41,4182.692,4190.385,4195.641,4202.821,4192.179,4189.615,4204.359,0,0
393,112,0,3154,4192.308,4212.9490000000005,4190.897,4215.255999999999,4199.615,4202.9490000000005,4192.821,4178.846,4182.9490000000005,4185.641,4198.205,4190.769,4184.872,4196.795,0,0
394,113,0,1542,4196.538,4213.077,4198.59,4218.462,4202.308,4203.462,4200.769,4190.641,4193.205,4187.564,4203.205,4193.077,4188.205,4201.795,0,0
395,114,0,2629,4200.255999999999,4217.9490000000005,4206.41,4217.0509999999995,4210.385,4202.308,4201.923,4200.255999999999,4204.103,4199.487,4207.9490000000005,4194.744000000001,4192.436,4208.718,0,0
396,115,0,3285,4208.333,4224.744000000001,4206.923,4220.513,4215.0,4204.487,4203.59,4190.255999999999,4200.0,4205.513,4212.9490000000005,4195.128,4198.462,4213.846,0,0
397,116,0,3154,4215.0,4225.255999999999,4206.026,4224.359,4217.0509999999995,4206.538,4202.564,4174.744000000001,4191.154,4201.667,4216.538,4195.513,4202.179,4216.282,0,0
398,117,0,1542,4208.59,4220.513,4203.205,4220.385,4214.872,4202.9490000000005,4188.462,4167.0509999999995,4185.513,4198.718,4211.282,4196.538,4197.9490000000005,4215.769,0,0
399,118,0,2629,4199.615,4217.0509999999995,4201.538,4215.513,4207.821,4200.897,4178.846,4167.308,4186.41,4196.923,4205.385,4195.641,4194.359,4215.641,0,0
400,119,0,3285,4201.667,4215.128,4204.487,4219.231,4203.59,4203.718,4189.744000000001,4177.9490000000005,4195.513,4199.103,4209.359,4194.231,4197.821,4218.077,0,0
401,120,0,3154,4208.846,4218.846,4206.41,4222.9490000000005,4205.513,4203.59,4201.538,4190.0,4201.026,4206.41,4215.897,4196.282,4201.667,4218.974,0,0
402,121,0,1542,4215.128,4225.513,4207.308,4219.231,4207.308,4202.308,4201.282,4191.538,4201.154,4208.205,4216.282,4200.0,4204.487,4221.026,0,0
403,122,0,2629,4217.308,4223.205,4208.846,4217.9490000000005,4203.462,4202.308,4199.231,4188.718,4199.359,4203.462,4213.205,4197.0509999999995,4202.564,4223.077,0,0
404,123,0,3285,4216.667,4218.846,4210.0,4222.692,4203.077,4202.436,4203.718,4186.667,4192.821,4200.897,4215.255999999999,4195.128,4197.692,4224.231,0,0
405,124,0,3154,4215.897,4220.255999999999,4210.769,4225.128,4209.487,4204.359,4207.179,4189.615,4194.103,4202.179,4214.359,4197.436,4199.359,4220.128,0,0
406,125,0,1542,4205.897,4219.103,4205.897,4218.59,4211.41,4205.385,4205.128,4191.154,4197.9490000000005,4201.41,4205.255999999999,4196.667,4197.564,4207.564,0,0
407,126,0,2629,4193.462,4212.9490000000005,4197.308,4213.205,4205.897,4203.333,4202.564,4186.41,4192.0509999999995,4199.744000000001,4197.9490000000005,4191.282,4188.718,4196.923,0,0
408,127,0,52,4190.769,4205.385,4196.41,4215.255999999999,4202.564,4203.205,4202.308,4191.667,4192.0509999999995,4198.205,4198.462,4190.769,4190.385,4196.923,0,0
409,0,0,2275,4189.744000000001,4201.923,4195.513,4215.769,4202.179,4201.667,4203.333,4196.154,4198.59,4197.9490000000005,4199.872,4191.538,4195.255999999999,4199.231,0,0
410,1,0,2818,4191.154,4208.333,4192.9490000000005,4213.333,4202.179,4198.462,4199.359,4181.154,4193.974,4198.846,4199.744000000001,4190.641,4193.59,4199.359,0,0
411,2,0,3152,4198.718,4214.744000000001,4198.59,4215.128,4205.641,4206.282,4203.077,4185.385,4196.41,4202.179,4202.9490000000005,4192.308,4196.538,4202.308,0,0
412,3,0,2927,4205.128,4215.897,4205.0,4219.487,4208.077,4214.103,4212.692,4204.872,4208.205,4205.641,4205.255999999999,4196.795,4201.923,4205.513,0,0
413,4,0,3585,4199.231,4213.59,4199.872,4216.923,4203.718,4206.026,4202.564,4188.59,4200.128,4201.923,4202.821,4196.026,4198.205,4203.205,0,0
414,5,0,3154,4192.179,4207.0509999999995,4191.795,4211.41,4202.308,4198.462,4189.744000000001,4167.821,4191.154,4198.333,4199.359,4191.538,4196.795,4200.385,0,0
415,6,0,3304,4197.821,4206.923,4194.615,4213.205,4205.513,4201.795,4194.103,4182.0509999999995,4199.615,4201.154,4198.077,4190.769,4199.744000000001,4200.128,0,0
416,7,0,3339,4205.897,4215.128,4203.974,4217.436,4203.333,4200.385,4194.615,4190.128,4201.538,4204.103,4200.513,4194.103,4198.205,4208.846,0,0
417,8,0,3080,4206.282,4217.9490000000005,4208.718,4218.59,4201.667,4195.641,4190.641,4180.769,4193.718,4203.462,4202.436,4194.231,4197.179,4220.0,0,0
418,9,0,3558,4203.205,4213.846,4204.744000000001,4218.333,4208.974,4201.026,4199.103,4184.744000000001,4195.0,4201.41,4202.179,4192.179,4197.179,4215.513,0,0
419,10,0,2627,4198.974,4212.564,4196.026,4213.974,4212.692,4206.538,4203.846,4192.0509999999995,4200.128,4200.0,4196.667,4189.103,4198.846,4198.846,0,0
420,11,0,3285,4191.282,4212.692,4190.0,4206.538,4208.846,4204.744000000001,4198.718,4186.667,4196.538,4198.974,4188.333,4184.872,4200.385,4188.846,0,0
421,12,0,3154,4188.846,4210.0,4189.872,4205.255999999999,4203.718,4202.0509999999995,4196.538,4181.923,4194.615,4197.9490000000005,4184.744000000001,4182.9490000000005,4198.205,4187.692,0,0
422,13,0,1544,4195.0,4211.282,4193.333,4210.641,4201.154,4199.615,4192.436,4186.41,4199.615,4198.205,4187.179,4183.846,4198.077,4191.282,0,0
423,14,0,2627,4198.205,4214.872,4197.179,4216.41,4206.154,4198.205,4189.615,4192.9490000000005,4203.333,4200.897,4192.436,4185.897,4199.872,4200.385,0,0
424,15,0,3285,4191.538,4211.282,4195.385,4215.0,4211.282,4196.538,4188.846,4181.154,4198.59,4198.718,4194.615,4184.103,4195.255999999999,4199.359,0,0
425,16,0,0,4184.487,4199.359,4191.41,4203.333,4202.692,4194.103,4187.179,4177.179,4195.641,4194.872,4194.872,4184.487,4192.308,4190.128,0,0
426,17,0,0,4187.692,4197.564,4191.154,4199.103,4195.769,4196.41,4193.718,4208.462,4210.0,4207.0509999999995,4198.974,4188.974,4199.487,4194.231,0,0
427,18,0,0,4191.795,4210.255999999999,4198.205,4209.615,4206.795,4202.9490000000005,4205.769,4221.026,4219.615,4220.513,4205.385,4195.128,4204.487,4202.821,0,0
428,19,0,0,4188.718,4213.846,4200.385,4215.0,4215.128,4203.077,4205.128,4193.333,4205.641,4213.59,4205.0,4196.154,4200.255999999999,4199.872,0,0
429,20,0,0,4187.308,4210.641,4197.564,4214.103,4215.513,4201.795,4200.255999999999,4189.872,4197.9490000000005,4210.385,4202.179,4193.205,4200.513,4197.821,0,0
430,21,0,0,4185.897,4210.128,4194.744000000001,4213.846,4219.103,4205.513,4204.487,4205.513,4207.564,4218.205,4203.205,4190.128,4205.128,4200.385,0,0
431,22,0,0,4187.0509999999995,4207.692,4191.154,4207.0509999999995,4217.0509999999995,4205.0,4200.769,4188.205,4202.0509999999995,4210.385,4200.897,4186.026,4198.59,4198.077,0,0
432,23,0,0,4195.769,4201.923,4189.359,4199.744000000001,4205.255999999999,4196.923,4186.667,4171.538,4186.026,4195.513,4196.667,4186.154,4187.564,4200.897,0,0
433,24,0,0,4201.795,4202.179,4191.41,4205.641,4198.077,4192.692,4185.513,4182.692,4189.359,4195.769,4196.538,4189.103,4185.385,4211.026,0,0
434,25,0,0,4203.333,4207.9490000000005,4201.282,4215.897,4203.974,4197.821,4198.59,4190.641,4200.897,4202.564,4202.821,4193.59,4190.897,4211.795,0,0
435,26,0,0,4197.564,4208.718,4205.897,4216.667,4206.795,4202.308,4207.179,4187.692,4201.923,4203.077,4206.282,4192.564,4191.026,4203.333,0,0
436,27,0,0,4186.282,4202.9490000000005,4199.103,4213.077,4201.026,4200.641,4202.436,4185.769,4198.333,4199.103,4200.0,4186.538,4185.769,4194.744000000001,0,0
437,28,0,0,4187.692,4198.846,4196.538,4212.436,4203.846,4200.255999999999,4193.846,4191.41,4198.846,4196.795,4196.538,4188.205,4185.897,4195.641,0,0
438,29,0,0,4201.538,4206.923,4202.692,4216.026,4214.359,4203.333,4197.0509999999995,4198.846,4199.744000000001,4200.0,4199.615,4193.974,4190.128,4206.923,0,0
439,30,0,0,4204.487,4214.103,4205.385,4218.077,4213.333,4203.59,4199.872,4197.9490000000005,4200.128,4203.718,4204.487,4193.462,4190.128,4215.641,0,0
440,31,0,0,4200.769,4210.769,4203.974,4216.538,4205.897,4202.436,4189.872,4188.974,4199.359,4203.077,4207.692,4192.564,4185.128,4215.0,0,0
441,32,0,0,4204.103,4210.0,4205.255999999999,4217.0509999999995,4205.255999999999,4203.333,4189.103,4177.821,4195.769,4201.667,4206.026,4192.9490000000005,4187.9490000000005,4215.255999999999,0,0
442,33,0,0,4203.718,4211.795,4207.179,4218.333,4205.769,4202.692,4201.667,4174.615,4195.769,4201.41,4202.179,4192.692,4194.744000000001,4215.0,0,0
443,34,0,0,4203.974,4206.026,4208.974,4217.821,4203.718,4202.692,4204.487,4185.513,4199.231,4204.744000000001,4205.641,4193.462,4192.179,4208.333,0,0
444,35,0,0,4199.231,4198.974,4205.255999999999,4215.255999999999,4201.795,4203.974,4199.359,4187.692,4193.205,4198.974,4205.255999999999,4192.692,4183.333,4200.0,0,0
445,36,0,0,4187.821,4199.103,4197.564,4210.0,4200.897,4201.795,4200.128,4181.154,4183.846,4184.103,4193.205,4188.205,4179.872,4192.692,0,0
446,37,0,0,4189.744000000001,4200.769,4199.231,4209.103,4201.154,4199.359,4199.744000000001,4189.744000000001,4189.103,4187.179,4191.538,4188.846,4182.436,4192.0509999999995,0,0
447,38,0,0,4202.821,4206.667,4207.179,4215.255999999999,4203.205,4200.385,4199.487,4196.538,4196.538,4202.9490000000005,4200.769,4192.436,4185.128,4199.103,0,0
448,39,0,0,4204.231,4213.205,4206.026,4219.487,4205.128,4202.436,4203.205,4186.667,4191.154,4199.231,4197.821,4190.769,4184.487,4201.026,0,0
449,40,0,0,4194.615,4210.641,4198.718,4212.0509999999995,4199.231,4197.179,4197.9490000000005,4182.821,4187.0509999999995,4185.641,4187.308,4188.974,4182.179,4194.872,0,0
450,41,0,0,4194.231,4204.359,4195.0,4204.359,4189.359,4190.769,4188.59,4189.872,4189.231,4185.128,4185.255999999999,4187.179,4182.821,4194.231,0,0
451,42,0,0,4196.026,4200.513,4196.667,4204.103,4189.231,4191.026,4188.59,4185.255999999999,4186.41,4188.718,4187.821,4187.179,4183.718,4197.436,0,0
452,43,0,0,4194.872,4203.59,4199.487,4207.9490000000005,4199.231,4191.667,4193.077,4180.769,4190.513,4194.103,4191.923,4190.255999999999,4184.359,4201.667,0,0
453,44,0,0,4198.462,4212.821,4204.103,4216.154,4204.103,4189.359,4190.897,4191.923,4201.154,4203.333,4199.231,4192.821,4189.487,4207.179,0,0
454,45,0,0,4204.872,4216.41,4204.872,4219.487,4197.0509999999995,4186.795,4187.179,4186.282,4193.846,4195.769,4200.641,4192.179,4190.128,4207.821,0,0
455,46,0,0,4206.538,4214.615,4199.487,4216.795,4192.9490000000005,4185.128,4184.103,4170.0,4183.205,4186.026,4200.385,4191.41,4185.641,4209.872,0,0
456,47,0,0,4203.846,4217.308,4199.487,4215.769,4198.974,4185.641,4183.077,4176.41,4188.333,4195.128,4203.59,4188.974,4185.641,4214.615,0,0
457,48,0,0,4206.282,4221.795,4208.205,4217.821,4204.103,4193.718,4191.923,4185.0,4191.282,4197.821,4202.436,4186.795,4188.077,4215.641,0,0
458,49,0,0,4207.564,4220.897,4210.128,4217.0509999999995,4201.026,4197.692,4193.59,4179.487,4187.821,4191.667,4199.487,4186.282,4187.308,4213.333,0,0
459,50,0,0,4203.59,4217.436,4202.436,4215.128,4197.564,4190.0,4182.9490000000005,4180.128,4188.077,4194.359,4200.255999999999,4186.154,4186.026,4208.333,0,0
460,51,0,0,4198.205,4213.974,4197.436,4213.077,4200.0,4186.923,4181.667,4186.41,4188.846,4195.513,4199.231,4183.333,4185.897,4202.179,0,0
461,52,0,0,4199.103,4212.9490000000005,4199.359,4206.923,4198.077,4187.179,4187.564,4193.974,4194.872,4195.769,4199.359,4183.59,4187.564,4203.846,0,0
462,53,0,0,4200.0,4215.0,4200.128,4202.692,4192.0509999999995,4185.255999999999,4186.667,4202.692,4201.41,4203.205,4206.667,4184.872,4191.41,4208.718,0,0
463,54,0,0,4187.9490000000005,4208.59,4191.41,4202.308,4187.436,4183.462,4181.667,4184.487,4188.59,4193.205,4201.923,4180.513,4185.641,4196.667,0,0
464,55,0,0,4171.923,4193.974,4180.769,4198.077,4186.026,4180.0,4182.179,4165.513,4171.41,4169.231,4180.513,4171.667,4170.385,4175.0,0,0
465,56,0,0,4168.462,4188.077,4179.872,4187.0509999999995,4184.872,4177.564,4182.821,4178.718,4171.795,4166.154,4172.9490000000005,4169.231,4166.282,4169.103,0,0
466,57,0,0,4176.282,4195.128,4182.821,4182.821,4183.205,4180.897,4181.538,4181.154,4173.333,4173.333,4183.462,4176.154,4171.41,4179.231,0,0
467,58,0,0,4185.513,4204.231,4186.41,4193.205,4183.974,4183.974,4184.103,4173.205,4171.026,4175.128,4188.718,4179.487,4171.923,4187.0509999999995,0,0
468,59,0,0,4191.41,4207.308,4192.821,4203.846,4184.359,4183.333,4182.9490000000005,4181.154,4174.103,4173.718,4184.872,4179.103,4175.128,4191.795,0,0
469,60,0,0,4190.769,4205.897,4195.128,4202.0509999999995,4185.255999999999,4185.641,4177.308,4186.026,4179.487,4171.923,4184.872,4178.462,4183.718,4197.179,0,0
470,61,0,0,4186.923,4202.308,4193.333,4197.692,4185.513,4187.692,4173.205,4181.538,4182.564,4175.769,4187.0509999999995,4178.077,4184.744000000001,4197.692,0,0
471,62,0,0,4190.897,4200.255999999999,4193.59,4200.0,4183.846,4187.308,4173.846,4180.769,4182.179,4182.9490000000005,4188.077,4177.692,4183.718,4199.487,0,0
472,63,0,0,4196.923,4201.538,4194.872,4200.641,4184.487,4188.205,4178.205,4181.41,4181.923,4184.103,4189.744000000001,4179.359,4186.538,4205.128,0,0
473,64,0,2274,4190.897,4199.231,4191.026,4197.692,4184.103,4185.255999999999,4182.0509999999995,4180.385,4182.564,4180.897,4187.564,4178.462,4183.462,4197.0509999999995,0,0
474,65,0,2814,4187.436,4198.718,4191.923,4198.59,4185.769,4186.41,4185.255999999999,4184.359,4183.718,4182.308,4186.667,4175.385,4181.923,4188.077,0,0
475,66,0,3152,4197.821,4201.923,4193.846,4202.436,4194.103,4195.255999999999,4187.179,4187.9490000000005,4185.513,4186.41,4192.9490000000005,4175.769,4187.436,4195.513,0,0
476,67,0,2928,4203.59,4205.641,4192.0509999999995,4206.41,4200.513,4197.9490000000005,4188.462,4200.513,4194.231,4193.205,4201.795,4177.9490000000005,4190.255999999999,4203.077,0,0
477,68,0,3583,4195.513,4208.462,4192.436,4208.462,4199.231,4192.308,4186.667,4211.923,4202.308,4201.923,4201.667,4177.564,4188.462,4198.846,0,0
478,69,0,3154,4186.795,4206.026,4195.128,4204.744000000001,4196.667,4188.333,4183.974,4191.41,4192.564,4198.333,4191.154,4175.0,4187.821,4190.513,0,0
479,70,0,3300,4191.154,4205.513,4194.872,4201.667,4197.564,4192.436,4185.513,4174.872,4184.487,4191.154,4185.128,4173.846,4190.641,4186.026,0,0
480,71,0,3339,4199.744000000001,4213.333,4193.462,4204.487,4197.308,4194.872,4187.308,4198.59,4193.205,4199.231,4190.897,4173.718,4191.923,4191.41,0,0
481,72,0,3081,4199.744000000001,4214.615,4191.667,4204.231,4193.846,4188.59,4183.205,4204.231,4194.615,4202.308,4197.564,4175.0,4189.615,4198.974,0,0
482,73,0,3558,4195.255999999999,4206.667,4188.59,4199.872,4193.462,4185.385,4177.436,4168.333,4180.513,4187.564,4197.436,4177.0509999999995,4186.923,4197.564,0,0
483,74,0,2626,4199.487,4208.59,4192.821,4201.667,4196.923,4194.231,4182.564,4164.872,4179.103,4185.385,4198.846,4178.846,4187.821,4198.333,0,0
484,75,0,3285,4203.974,4215.255999999999,4195.897,4205.769,4200.0,4201.026,4189.231,4194.487,4187.308,4195.128,4197.692,4176.795,4187.179,4201.538,0,0
485,76,0,3154,4197.179,4211.538,4188.846,4203.333,4198.974,4197.436,4185.255999999999,4188.846,4184.872,4189.359,4187.308,4174.359,4183.205,4198.718,0,0
486,77,0,1541,4192.564,4211.154,4188.718,4205.128,4199.487,4197.9490000000005,4184.359,4176.282,4182.436,4183.846,4185.641,4177.308,4183.205,4196.795,0,0
487,78,0,2626,4201.026,4217.0509999999995,4198.846,4213.59,4203.077,4202.821,4190.769,4204.231,4190.897,4197.9490000000005,4197.692,4183.077,4187.308,4201.41,0,0
488,79,0,3285,4203.077,4212.821,4198.462,4210.0,4203.333,4198.333,4188.462,4210.255999999999,4189.487,4202.0509999999995,4199.359,4181.538,4188.333,4202.564,0,0
489,80,0,3154,4186.923,4201.795,4185.641,4197.179,4197.9490000000005,4190.897,4179.487,4173.205,4175.0,4186.026,4185.769,4176.026,4183.205,4193.974,0,0
490,81,0,1541,4183.718,4201.026,4183.846,4198.718,4196.154,4195.641,4188.333,4174.103,4177.692,4187.0509999999995,4186.154,4176.026,4185.385,4191.667,0,0
491,82,0,2626,4195.513,4205.0,4192.564,4205.641,4200.897,4203.718,4200.128,4202.821,4191.41,4200.897,4194.744000000001,4179.744000000001,4192.564,4199.103,0,0
492,83,0,3285,4190.641,4201.923,4191.667,4198.846,4197.436,4197.692,4192.564,4193.333,4186.282,4193.077,4190.769,4179.231,4189.359,4200.897,0,0
493,84,0,3154,4186.282,4198.846,4185.641,4194.744000000001,4187.821,4191.41,4183.205,4174.872,4178.718,4180.897,4190.255999999999,4178.59,4183.846,4199.231,0,0
494,85,0,1541,4197.436,4203.205,4188.974,4201.795,4186.026,4196.923,4185.255999999999,4182.179,4182.0509999999995,4185.255999999999,4196.667,4178.462,4185.641,4201.282,0,0
495,86,0,2626,4200.641,4205.513,4193.846,4202.9490000000005,4192.692,4200.385,4191.154,4194.615,4182.436,4191.41,4195.255999999999,4177.692,4189.615,4200.385,0,0
496,87,0,3285,4196.538,4203.974,4195.0,4200.128,4200.385,4201.026,4198.974,4205.897,4191.154,4196.538,4196.795,4180.385,4190.641,4198.718,0,0
497,88,0,3154,4199.615,4204.615,4197.821,4203.205,4202.0509999999995,4203.462,4204.103,4212.179,4201.026,4202.821,4201.026,4181.154,4190.128,4203.077,0,0
498,89,0,1541,4197.436,4205.897,4197.821,4202.821,4200.0,4202.179,4197.179,4199.744000000001,4188.205,4198.718,4192.9490000000005,4178.333,4187.0509999999995,4202.308,0,0
499,90,0,2626,4188.718,4207.692,4195.255999999999,4199.231,4199.231,4199.359,4193.974,4193.462,4183.077,4194.231,4189.359,4176.795,4185.255999999999,4196.538,0,0
500,91,0,3285,4190.128,4213.077,4198.974,4204.359,4201.667,4202.9490000000005,4204.103,4212.821,4200.128,4202.436,4201.154,4185.385,4188.462,4197.436,0,0
501,92,0,3154,4194.615,4212.692,4199.359,4208.846,4202.9490000000005,4204.872,4204.231,4225.513,4205.641,4206.026,4205.385,4190.255999999999,4190.385,4200.128,0,0
502,93,0,1541,4192.436,4203.462,4195.385,4202.0509999999995,4200.0,4202.308,4196.026,4206.923,4196.282,4199.872,4198.462,4187.0509999999995,4191.923,4199.872,0,0
503,94,0,2626,4193.718,4200.769,4196.795,4197.564,4198.462,4203.462,4202.0509999999995,4194.487,4199.103,4199.872,4198.462,4188.846,4198.718,4202.308,0,0
504,95,0,3285,4197.0509999999995,4203.077,4197.436,4199.103,4197.0509999999995,4205.641,4202.9490000000005,4201.923,4201.667,4203.462,4201.41,4190.0,4200.641,4200.0,0,0
505,96,0,3154,4188.462,4198.59,4190.897,4196.154,4193.333,4201.154,4182.9490000000005,4192.436,4192.821,4200.385,4190.641,4181.923,4191.923,4187.0509999999995,0,0
506,97,0,1541,4180.769,4195.128,4190.255999999999,4192.9490000000005,4192.308,4197.692,4179.487,4184.103,4189.615,4196.026,4182.821,4175.513,4188.59,4177.9490000000005,0,0
507,98,0,2626,4190.897,4205.0,4198.333,4197.9490000000005,4200.769,4207.308,4200.0,4206.795,4200.0,4201.154,4192.436,4182.692,4198.718,4188.077,0,0
508,99,0,3285,4207.821,4215.513,4207.0509999999995,4209.615,4215.385,4218.333,4211.538,4221.154,4211.538,4212.9490000000005,4205.513,4191.667,4205.385,4201.154,0,0
509,100,0,3154,4215.385,4215.769,4209.359,4216.667,4217.821,4211.923,4209.359,4216.026,4211.282,4215.513,4208.59,4193.462,4201.795,4203.333,0,0
510,101,0,1541,4215.385,4215.513,4207.564,4216.026,4206.41,4201.026,4205.0,4217.692,4205.641,4208.077,4206.154,4192.9490000000005,4198.333,4207.821,0,0
511,102,0,2626,4214.487,4212.821,4207.564,4209.231,4199.487,4202.179,4202.9490000000005,4215.897,4201.795,4203.974,4202.308,4192.308,4202.0509999999995,4213.077,0,0
512,103,0,3285,4215.255999999999,4206.538,4209.744000000001,4205.897,4204.359,4206.667,4205.385,4213.718,4202.179,4205.897,4203.333,4191.923,4202.564,4211.667,0,0
513,104,0,3154,4215.128,4207.0509999999995,4209.615,4206.923,4204.872,4203.077,4206.538,4217.9490000000005,4202.821,4204.744000000001,4205.255999999999,4192.436,4191.667,4211.538,0,0
514,105,0,1541,4216.154,4213.205,4206.41,4207.179,4201.026,4198.846,4203.462,4207.0509999999995,4193.718,4200.385,4201.282,4191.795,4187.821,4212.0509999999995,0,0
515,106,0,2626,4213.846,4214.487,4206.923,4208.205,4203.846,4199.744000000001,4201.923,4197.0509999999995,4191.41,4199.231,4200.255999999999,4190.0,4198.846,4209.103,0,0
516,107,0,3285,4208.462,4213.077,4208.846,4210.385,4204.359,4200.641,4201.026,4203.846,4197.821,4200.128,4202.692,4190.513,4201.538,4212.179,0,0
517,108,0,3154,4211.026,4215.128,4206.923,4210.641,4203.205,4199.744000000001,4199.487,4198.462,4193.718,4200.641,4201.154,4194.487,4192.308,4215.897,0,0
518,109,0,1541,4213.59,4215.513,4201.795,4207.308,4204.487,4198.462,4197.436,4185.513,4184.744000000001,4198.59,4198.59,4192.692,4186.923,4205.128,0,0
519,110,0,2626,4208.59,4213.462,4201.923,4210.128,4204.103,4199.744000000001,4198.974,4193.205,4191.154,4196.538,4197.436,4188.718,4185.641,4196.667,0,0
520,111,0,3285,4207.179,4212.821,4206.923,4214.872,4204.231,4202.564,4203.59,4204.103,4200.385,4198.974,4199.231,4188.846,4188.974,4203.077,0,0
521,112,0,3154,4210.769,4213.462,4207.0509999999995,4213.077,4201.923,4201.795,4200.897,4200.0,4196.538,4199.744000000001,4199.359,4191.026,4191.923,4204.231,0,0
522,113,0,1541,4212.308,4214.359,4205.385,4212.308,4199.231,4200.255999999999,4195.128,4202.9490000000005,4197.436,4199.744000000001,4199.615,4191.795,4187.179,4201.154,0,0
523,114,0,2626,4215.255999999999,4215.897,4209.615,4216.282,4207.436,4202.821,4199.872,4218.077,4203.462,4202.564,4208.205,4195.385,4190.897,4210.0,0,0
524,115,0,3285,4218.462,4218.205,4214.872,4218.462,4214.487,4204.744000000001,4206.41,4225.128,4200.255999999999,4203.462,4213.974,4198.846,4196.667,4220.128,0,0
525,116,0,3154,4217.821,4218.462,4214.231,4215.769,4208.974,4201.795,4202.179,4212.692,4192.821,4200.385,4206.923,4194.872,4190.128,4216.282,0,0
526,117,0,1541,4217.436,4219.103,4210.128,4215.769,4205.769,4201.795,4199.487,4206.41,4193.718,4198.718,4201.538,4190.641,4184.359,4211.282,0,0
527,118,0,2626,4219.103,4220.769,4208.077,4211.538,4208.205,4203.846,4209.744000000001,4227.436,4204.872,4202.436,4202.821,4193.077,4188.846,4216.41,0,0
528,119,0,3285,4216.795,4213.974,4208.974,4202.821,4202.821,4201.41,4213.718,4225.255999999999,4202.0509999999995,4202.436,4199.744000000001,4193.205,4190.255999999999,4214.744000000001,0,0
529,120,0,3154,4206.538,4203.846,4204.359,4199.359,4196.026,4198.718,4196.923,4193.462,4188.077,4199.744000000001,4197.564,4190.385,4187.436,4203.077,0,0
530,121,0,1541,4200.897,4202.692,4198.333,4201.795,4198.59,4199.744000000001,4187.436,4191.667,4193.462,4199.231,4198.846,4190.513,4190.769,4199.744000000001,0,0
531,122,0,2626,4203.077,4205.769,4199.615,4201.538,4200.897,4199.872,4193.333,4209.872,4202.179,4194.103,4193.333,4189.231,4191.538,4203.59,0,0
532,123,0,3285,4201.154,4203.718,4202.821,4198.718,4197.0509999999995,4200.0,4191.41,4204.615,4190.0,4185.255999999999,4184.744000000001,4188.333,4187.821,4199.872,0,0
533,124,0,3154,4201.41,4201.282,4199.744000000001,4200.385,4193.077,4200.513,4188.846,4195.641,4186.667,4184.872,4183.205,4187.692,4186.538,4196.795,0,0
534,125,0,1541,4203.718,4203.333,4195.769,4202.179,4191.538,4197.436,4195.0,4203.718,4203.077,4186.538,4188.59,4182.9490000000005,4188.974,4198.718,0,0
535,126,0,2626,4194.103,4199.615,4191.154,4195.128,4187.308,4198.333,4191.538,4201.538,4198.846,4176.795,4183.462,4177.9490000000005,4185.255999999999,4190.641,0,0
536,127,0,52,4182.436,4187.821,4186.667,4184.744000000001,4183.974,4200.0,4183.462,4186.667,4181.667,4167.308,4170.513,4178.846,4171.923,4179.615,0,0
537,0,0,2272,4182.821,4182.821,4187.9490000000005,4185.128,4185.513,4190.513,4182.692,4179.744000000001,4180.0,4168.077,4170.513,4178.077,4168.333,4181.41,0,0
538,1,0,2814,4189.615,4192.821,4197.0509999999995,4192.564,4187.692,4185.385,4185.255999999999,4190.385,4185.897,4175.513,4183.077,4181.026,4177.821,4189.103,0,0
539,2,0,3152,4201.282,4204.615,4207.0509999999995,4203.59,4194.744000000001,4197.436,4193.59,4206.026,4194.103,4191.41,4196.538,4191.795,4187.179,4202.179,0,0
540,3,0,2929,4209.615,4205.641,4212.9490000000005,4214.487,4202.436,4206.154,4204.615,4209.744000000001,4203.205,4204.487,4203.718,4197.308,4194.744000000001,4212.9490000000005,0,0
541,4,0,3583,4203.59,4201.923,4210.385,4213.59,4202.821,4202.0509999999995,4210.513,4222.436,4205.0,4203.205,4203.846,4194.231,4199.231,4207.9490000000005,0,0
542,5,0,3154,4200.255999999999,4202.436,4203.846,4209.487,4203.718,4202.564,4216.795,4234.103,4203.59,4201.154,4202.436,4193.462,4200.128,4202.0509999999995,0,0
543,6,0,3300,4202.308,4204.615,4200.641,4211.154,4206.667,4205.513,4213.846,4218.974,4200.897,4202.308,4200.769,4193.205,4198.462,4204.615,0,0
544,7,0,3342,4192.9490000000005,4201.667,4198.59,4205.641,4201.795,4201.41,4195.385,4195.641,4192.179,4193.077,4192.308,4187.821,4192.564,4200.255999999999,0,0
545,8,0,3084,4187.9490000000005,4198.974,4196.154,4197.179,4197.308,4199.744000000001,4183.333,4187.9490000000005,4180.128,4183.077,4185.769,4187.564,4186.538,4194.615,0,0
546,9,0,3558,4197.9490000000005,4201.282,4195.641,4200.255999999999,4198.718,4201.538,4185.641,4182.9490000000005,4172.179,4183.718,4189.872,4190.641,4190.255999999999,4199.872,0,0
547,10,0,2626,4201.667,4201.667,4198.846,4204.231,4199.487,4200.897,4189.744000000001,4179.487,4174.359,4185.641,4190.128,4190.897,4192.692,4203.59,0,0
548,11,0,3285,4196.923,4201.795,4202.0509999999995,4199.872,4200.255999999999,4200.769,4195.0,4193.974,4183.077,4186.41,4188.974,4188.333,4188.205,4199.615,0,0
549,12,0,3156,4203.718,4204.359,4205.128,4200.255999999999,4202.692,4203.846,4201.026,4202.179,4185.641,4190.0,4192.0509999999995,4188.462,4192.436,4200.128,0,0
550,13,0,1539,4213.077,4207.9490000000005,4207.692,4206.538,4203.718,4203.333,4198.59,4189.615,4182.9490000000005,4191.282,4189.744000000001,4191.538,4195.513,4202.9490000000005,0,0
551,14,0,2626,4213.205,4212.308,4206.154,4206.667,4204.487,4199.487,4190.385,4185.769,4182.821,4187.9490000000005,4187.179,4193.718,4189.487,4202.692,0,0
552,15,0,3285,4213.333,4211.795,4203.718,4200.513,4203.462,4197.308,4187.436,4197.0509999999995,4183.205,4187.308,4193.59,4192.692,4186.795,4205.897,0,0
553,16,0,0,4215.385,4210.0,4207.821,4204.744000000001,4202.821,4200.769,4193.718,4202.179,4183.077,4192.0509999999995,4198.974,4191.795,4188.846,4212.436,0,0
554,17,0,0,4215.513,4214.231,4212.692,4215.385,4210.255999999999,4208.974,4208.718,4204.872,4189.615,4198.59,4199.615,4194.103,4191.667,4215.641,0,0
555,18,0,0,4217.821,4214.103,4211.795,4211.667,4214.359,4210.255999999999,4218.846,4219.615,4202.179,4203.846,4205.128,4197.0509999999995,4197.436,4217.564,0,0
556,19,0,0,4216.538,4203.974,4208.077,4199.487,4203.974,4203.718,4208.333,4220.897,4203.974,4203.333,4204.615,4193.205,4198.077,4214.103,0,0
557,20,0,0,4206.41,4199.103,4202.436,4196.41,4196.795,4200.0,4193.59,4202.179,4190.385,4195.769,4192.9490000000005,4186.538,4195.897,4204.359,0,0
558,21,0,0,4201.41,4203.462,4196.667,4198.59,4201.923,4200.769,4197.821,4196.795,4188.333,4191.026,4187.821,4186.154,4197.436,4200.897,0,0
559,22,0,0,4205.513,4204.487,4196.923,4198.205,4197.564,4200.897,4201.923,4206.795,4197.9490000000005,4191.026,4189.615,4190.0,4192.0509999999995,4205.0,0,0
560,23,0,0,4197.436,4196.026,4195.769,4190.769,4184.231,4194.744000000001,4187.9490000000005,4198.205,4192.821,4187.179,4186.282,4187.179,4184.103,4202.308,0,0
561,24,0,0,4184.615,4187.308,4188.974,4186.026,4188.59,4193.333,4182.179,4179.615,4182.564,4184.615,4183.333,4181.026,4190.385,4195.128,0,0
562,25,0,0,4186.923,4191.795,4188.846,4189.744000000001,4198.462,4197.436,4193.718,4184.231,4184.744000000001,4186.154,4183.718,4179.872,4195.385,4194.359,0,0
563,26,0,0,4198.718,4198.462,4195.128,4191.923,4192.692,4195.769,4200.128,4199.872,4191.795,4187.564,4186.282,4183.333,4190.385,4196.667,0,0
564,27,0,0,4201.923,4198.462,4198.718,4193.462,4187.692,4193.974,4199.872,4204.103,4199.359,4194.231,4193.846,4189.744000000001,4192.179,4200.769,0,0
565,28,0,0,4191.41,4193.718,4194.872,4193.333,4190.128,4197.564,4201.795,4201.026,4199.872,4195.641,4195.0,4186.026,4193.718,4201.667,0,0
566,29,0,0,4186.538,4189.359,4190.0,4188.333,4187.308,4198.462,4199.487,4198.205,4192.821,4190.255999999999,4188.333,4180.0,4191.026,4197.692,0,0
567,30,0,0,4198.462,4191.667,4192.0509999999995,4189.359,4185.769,4193.846,4196.41,4201.538,4192.564,4193.333,4185.769,4183.718,4194.103,4197.179,0,0
568,31,0,0,4205.0,4198.59,4201.154,4198.846,4190.897,4194.359,4200.0,4202.0509999999995,4193.974,4195.641,4187.179,4190.128,4192.9490000000005,4199.615,0,0
569,32,0,0,4197.9490000000005,4198.077,4204.744000000001,4201.154,4188.59,4195.769,4196.026,4186.795,4187.0509999999995,4191.282,4191.41,4190.255999999999,4186.154,4204.487,0,0
570,33,0,0,4204.231,4196.795,4206.538,4199.103,4185.128,4193.846,4191.154,4188.59,4188.59,4196.923,4200.513,4192.436,4192.308,4213.59,0,0
571,34,0,0,4217.436,4203.205,4211.795,4203.077,4190.513,4191.923,4202.564,4215.385,4202.308,4206.282,4205.385,4196.795,4200.128,4220.897,0,0
572,35,0,0,4208.333,4202.821,4211.667,4202.436,4190.769,4187.308,4202.692,4211.538,4201.154,4201.795,4201.923,4192.9490000000005,4191.923,4217.9490000000005,0,0
573,36,0,0,4196.538,4196.667,4206.282,4198.333,4183.846,4184.359,4185.255999999999,4184.872,4190.0,4194.615,4198.974,4191.538,4187.821,4212.179,0,0
574,37,0,0,4205.385,4197.692,4205.897,4198.59,4189.231,4188.59,4187.179,4190.641,4192.308,4196.41,4201.538,4196.667,4193.59,4215.255999999999,0,0
575,38,0,0,4216.795,4203.462,4210.641,4204.103,4199.487,4198.846,4204.744000000001,4214.103,4202.308,4202.692,4207.308,4200.255999999999,4198.718,4221.923,0,0
576,39,0,0,4211.154,4203.462,4210.769,4205.513,4193.718,4201.923,4206.923,4215.769,4203.205,4204.615,4207.821,4196.282,4198.462,4216.026,0,0
577,40,0,0,4202.821,4200.255999999999,4208.846,4201.667,4189.359,4198.462,4204.359,4210.128,4198.974,4199.231,4204.103,4194.487,4197.179,4205.513,0,0
578,41,0,0,4204.487,4202.564,4208.974,4201.667,4202.436,4201.41,4215.769,4216.795,4202.821,4202.821,4205.897,4198.333,4201.667,4207.436,0,0
579,42,0,0,4204.231,4201.154,4207.308,4202.9490000000005,4204.103,4200.897,4218.205,4222.9490000000005,4206.41,4203.333,4206.026,4196.923,4200.769,4208.333,0,0
580,43,0,0,4196.923,4195.513,4203.59,4199.744000000001,4190.385,4194.872,4204.744000000001,4216.282,4201.667,4190.513,4198.59,4189.359,4190.513,4198.718,0,0
581,44,0,0,4195.897,4199.359,4205.255999999999,4199.103,4187.564,4197.0509999999995,4198.59,4209.231,4196.026,4187.0509999999995,4197.692,4189.744000000001,4187.179,4199.103,0,0
582,45,0,0,4194.615,4199.615,4204.744000000001,4201.667,4190.641,4198.462,4203.333,4214.231,4198.974,4192.308,4199.872,4193.59,4191.154,4201.667,0,0
583,46,0,0,4184.487,4186.923,4195.641,4197.0509999999995,4185.255999999999,4191.41,4202.308,4211.154,4197.9490000000005,4187.692,4190.641,4185.769,4186.795,4188.462,0,0
584,47,0,0,4180.128,4186.41,4188.846,4190.128,4182.692,4185.641,4189.744000000001,4191.923,4189.487,4180.769,4183.462,4175.255999999999,4183.462,4179.103,0,0
585,48,0,0,4185.128,4198.462,4191.154,4191.795,4186.154,4188.333,4182.436,4179.744000000001,4190.513,4186.923,4190.385,4179.744000000001,4192.0509999999995,4187.9490000000005,0,0
586,49,0,0,4189.359,4201.667,4197.821,4198.974,4189.615,4196.154,4193.077,4192.436,4200.769,4199.487,4201.667,4187.564,4201.154,4199.872,0,0
587,50,0,0,4188.718,4196.667,4200.641,4203.077,4190.513,4197.564,4204.231,4215.513,4206.41,4200.897,4202.0509999999995,4188.333,4198.462,4204.231,0,0
588,51,0,0,4183.205,4188.846,4194.359,4195.255999999999,4187.308,4188.59,4195.513,4214.744000000001,4198.333,4188.205,4191.41,4183.846,4187.821,4197.308,0,0
589,52,0,0,4179.359,4186.026,4189.231,4187.9490000000005,4183.59,4182.564,4182.821,4189.231,4184.615,4179.103,4183.462,4182.179,4183.205,4185.255999999999,0,0
590,53,0,0,4183.59,4192.308,4194.359,4191.795,4184.359,4184.744000000001,4183.974,4177.436,4182.436,4185.641,4186.154,4184.615,4187.9490000000005,4182.692,0,0
591,54,0,0,4186.282,4194.103,4193.462,4193.077,4186.026,4183.974,4186.538,4188.846,4187.179,4187.9490000000005,4187.821,4183.333,4188.333,4188.462,0,0
592,55,0,0,4181.154,4187.308,4187.308,4187.308,4184.872,4182.821,4187.308,4197.9490000000005,4186.667,4180.769,4181.923,4179.103,4185.128,4181.795,0,0
593,56,0,0,4175.128,4185.641,4184.615,4184.872,4183.974,4184.872,4190.641,4198.974,4190.128,4179.615,4180.128,4180.128,4186.154,4170.255999999999,0,0
594,57,0,0,4172.692,4187.308,4185.513,4187.821,4182.436,4185.769,4191.667,4202.0509999999995,4200.255999999999,4186.667,4183.846,4183.974,4188.462,4176.667,0,0
595,58,0,0,4172.179,4185.128,4186.538,4187.0509999999995,4180.255999999999,4183.974,4191.282,4206.667,4200.897,4188.205,4182.9490000000005,4180.255999999999,4187.0509999999995,4183.077,0,0
596,59,0,0,4172.179,4184.487,4187.564,4185.897,4184.487,4185.897,4199.231,4218.718,4200.641,4185.897,4179.487,4179.487,4187.564,4174.615,0,0
597,60,0,0,4171.282,4185.897,4187.179,4187.308,4191.026,4193.718,4207.821,4227.564,4206.923,4190.641,4181.795,4182.564,4190.0,4170.128,0,0
598,61,0,0,4169.487,4186.282,4184.615,4188.333,4188.077,4192.179,4194.487,4205.769,4195.255999999999,4184.231,4180.128,4180.641,4187.821,4171.538,0,0
599,62,0,0,4169.231,4186.41,4181.538,4187.436,4182.436,4182.0509999999995,4175.897,4186.026,4178.333,4168.333,4173.718,4178.205,4183.077,4170.128,0,0
600,63,0,0,4176.026,4186.282,4182.564,4184.872,4185.0,4186.282,4187.0509999999995,4198.974,4186.795,4174.615,4177.308,4183.205,4183.462,4175.385,0,0
601,64,0,2274,4181.795,4187.179,4188.59,4187.436,4188.205,4200.128,4205.769,4208.462,4198.205,4186.41,4185.255999999999,4185.385,4188.333,4181.41,0,0
602,65,0,2814,4180.0,4190.385,4187.821,4187.0509999999995,4190.385,4201.538,4200.0,4197.308,4187.821,4179.103,4182.436,4181.923,4187.821,4179.487,0,0
603,66,0,3150,4182.179,4197.179,4183.333,4184.103,4198.205,4197.0509999999995,4195.385,4196.154,4181.667,4178.333,4182.564,4184.103,4185.385,4183.718,0,0
604,67,0,2929,4187.692,4202.821,4189.359,4190.897,4201.795,4198.718,4203.333,4206.538,4195.641,4188.718,4195.769,4191.795,4192.179,4190.385,0,0
605,68,0,3582,4186.667,4204.615,4193.974,4196.795,4200.255999999999,4200.641,4196.538,4205.128,4200.513,4187.436,4199.487,4190.128,4198.718,4187.564,0,0
606,69,0,3154,4185.385,4204.103,4190.385,4193.205,4201.41,4199.231,4185.513,4197.821,4191.795,4183.974,4190.385,4185.385,4194.744000000001,4186.026,0,0
607,70,0,3300,4186.41,4201.282,4188.846,4186.667,4198.077,4198.077,4192.179,4192.692,4187.821,4187.179,4186.538,4187.308,4187.0509999999995,4188.974,0,0
608,71,0,3334,4182.9490000000005,4199.103,4188.846,4185.513,4192.564,4199.359,4201.154,4196.667,4189.744000000001,4182.564,4187.0509999999995,4187.692,4183.333,4187.436,0,0
609,72,0,3080,4179.231,4198.333,4185.641,4189.231,4194.744000000001,4199.231,4204.487,4203.462,4189.872,4172.821,4183.59,4184.231,4179.872,4182.821,0,0
610,73,0,3556,4184.103,4202.821,4186.41,4196.795,4199.359,4199.872,4204.744000000001,4193.59,4184.872,4172.821,4180.769,4183.205,4178.59,4182.9490000000005,0,0
611,74,0,2624,4189.872,4206.282,4192.564,4200.128,4198.846,4199.487,4195.385,4183.205,4183.846,4181.282,4184.231,4188.077,4183.974,4190.641,0,0
612,75,0,3285,4190.0,4204.615,4193.462,4198.333,4194.359,4192.821,4183.846,4190.769,4189.103,4186.795,4193.59,4189.103,4187.821,4196.538,0,0
613,76,0,3156,4191.282,4208.462,4192.9490000000005,4198.333,4187.821,4185.769,4182.436,4197.179,4191.667,4186.154,4197.308,4186.154,4187.821,4196.795,0,0
614,77,0,1540,4196.667,4212.821,4192.821,4192.9490000000005,4183.333,4184.615,4185.385,4189.744000000001,4188.974,4186.667,4188.59,4185.897,4186.923,4197.564,0,0
615,78,0,2624,4201.41,4213.205,4194.487,4192.564,4189.103,4188.846,4184.615,4184.231,4188.974,4189.487,4188.59,4189.744000000001,4188.205,4200.128,0,0
616,79,0,3285,4203.718,4217.308,4198.846,4203.718,4197.308,4191.026,4186.41,4191.795,4192.436,4190.128,4200.0,4190.385,4188.462,4202.308,0,0
617,80,0,3156,4203.718,4221.41,4201.154,4206.923,4196.923,4188.077,4191.538,4205.385,4197.179,4189.231,4202.9490000000005,4188.718,4187.436,4201.923,0,0
618,81,0,1540,4201.538,4217.436,4197.692,4199.615,4192.308,4185.0,4188.462,4200.255999999999,4195.641,4187.564,4198.974,4189.872,4186.026,4202.821,0,0
619,82,0,2624,4199.744000000001,4213.59,4194.359,4197.564,4193.333,4186.026,4186.795,4186.538,4189.744000000001,4186.795,4198.718,4188.718,4186.282,4198.974,0,0
620,83,0,3285,4198.846,4215.641,4192.564,4201.667,4196.795,4188.718,4196.154,4196.41,4193.974,4187.692,4197.0509999999995,4183.846,4190.255999999999,4190.255999999999,0,0
621,84,0,3156,4198.974,4220.255999999999,4192.9490000000005,4203.333,4197.9490000000005,4195.897,4207.436,4205.513,4200.255999999999,4190.769,4197.564,4183.59,4192.0509999999995,4192.308,0,0
622,85,0,1540,4201.923,4219.359,4197.692,4203.333,4197.179,4203.333,4202.308,4188.333,4193.462,4192.564,4203.59,4190.385,4190.641,4204.103,0,0
623,86,0,2624,4200.255999999999,4207.692,4195.0,4199.359,4189.103,4195.255999999999,4185.255999999999,4181.154,4184.615,4186.154,4201.538,4189.615,4188.974,4203.59,0,0
624,87,0,3285,4196.026,4205.255999999999,4191.795,4196.795,4182.692,4185.641,4180.255999999999,4197.436,4188.333,4183.333,4194.487,4185.641,4187.436,4195.128,0,0
625,88,0,3156,4202.0509999999995,4216.026,4196.923,4200.385,4190.385,4192.308,4190.513,4202.9490000000005,4195.641,4193.59,4199.487,4190.513,4188.077,4202.179,0,0
626,89,0,1540,4211.154,4218.846,4202.308,4202.821,4197.179,4200.0,4198.205,4199.872,4198.718,4201.923,4209.744000000001,4197.9490000000005,4190.385,4216.026,0,0
627,90,0,2624,4211.41,4212.179,4201.154,4200.255999999999,4190.255999999999,4198.077,4196.667,4207.436,4200.769,4201.282,4208.205,4196.538,4192.179,4215.128,0,0
628,91,0,3285,4206.667,4209.231,4198.59,4198.462,4185.128,4196.538,4197.179,4213.077,4203.077,4197.821,4200.128,4192.564,4187.692,4203.333,0,0
629,92,0,3156,4205.513,4211.026,4201.41,4199.744000000001,4194.615,4201.154,4198.333,4211.795,4203.974,4196.538,4200.0,4192.308,4186.154,4199.103,0,0
630,93,0,1540,4204.103,4212.9490000000005,4204.359,4201.026,4203.59,4203.205,4197.692,4212.179,4203.718,4198.718,4203.077,4193.718,4193.974,4203.59,0,0
631,94,0,2624,4203.077,4211.923,4203.974,4201.026,4201.282,4201.538,4203.462,4217.692,4208.846,4200.128,4200.897,4193.205,4196.667,4200.641,0,0
632,95,0,3285,4207.179,4211.538,4205.255999999999,4199.744000000001,4198.846,4200.0,4205.513,4211.41,4210.641,4200.769,4198.462,4193.333,4195.897,4197.564,0,0
633,96,0,3156,4207.436,4212.436,4208.846,4199.103,4199.744000000001,4199.744000000001,4200.641,4203.462,4204.231,4200.513,4200.769,4194.744000000001,4196.282,4201.667,0,0
634,97,0,1540,4203.462,4211.667,4205.128,4200.255999999999,4198.974,4200.513,4205.513,4213.59,4203.205,4193.462,4196.667,4193.077,4192.821,4197.436,0,0
635,98,0,2624,4206.154,4213.462,4200.641,4202.564,4198.718,4204.487,4212.179,4214.615,4204.872,4189.615,4189.103,4190.641,4191.795,4190.255999999999,0,0
636,99,0,3285,4209.103,4216.282,4200.769,4203.974,4201.667,4208.462,4206.538,4203.59,4203.077,4197.821,4187.436,4191.667,4199.359,4194.103,0,0
637,100,0,3156,4205.513,4216.667,4199.872,4202.692,4201.795,4205.128,4201.667,4205.385,4207.564,4200.769,4190.128,4191.923,4200.513,4200.255999999999,0,0
638,101,0,1540,4203.077,4211.795,4201.282,4202.9490000000005,4196.538,4200.0,4201.923,4210.128,4213.718,4197.308,4195.513,4192.0509999999995,4196.282,4196.795,0,0
639,102,0,2624,4199.103,4203.846,4199.744000000001,4198.333,4189.615,4196.282,4198.59,4203.333,4207.9490000000005,4199.231,4196.026,4192.436,4196.282,4188.205,0,0
640,103,0,3285,4188.718,4197.9490000000005,4192.9490000000005,4189.231,4186.282,4195.128,4200.513,4201.667,4197.564,4198.718,4187.436,4190.128,4192.692,4184.103,0,0
641,104,0,3156,4183.718,4198.333,4191.282,4188.846,4188.333,4195.128,4200.897,4207.821,4201.795,4196.41,4183.846,4187.308,4190.641,4181.795,0,0
642,105,0,1540,4183.462,4199.231,4191.026,4191.795,4187.564,4192.308,4189.359,4205.385,4210.513,4198.718,4187.179,4182.308,4192.308,4175.769,0,0
643,106,0,2624,4183.59,4197.9490000000005,4190.128,4185.641,4185.641,4188.077,4188.59,4201.923,4207.179,4199.231,4187.0509999999995,4182.564,4189.231,4174.487,0,0
644,107,0,3285,4187.9490000000005,4198.59,4193.462,4185.255999999999,4190.769,4188.077,4198.205,4204.744000000001,4200.769,4200.0,4188.974,4187.9490000000005,4188.974,4183.846,0,0
645,108,0,3156,4188.077,4199.231,4198.077,4196.795,4191.795,4192.821,4198.077,4204.872,4200.513,4196.923,4190.255999999999,4187.9490000000005,4190.128,4187.308,0,0
646,109,0,1540,4183.974,4198.59,4196.154,4199.103,4186.795,4194.615,4195.641,4198.846,4201.282,4190.641,4186.026,4184.615,4189.615,4182.179,0,0
647,110,0,2624,4189.359,4199.359,4196.282,4193.462,4186.667,4189.872,4200.255999999999,4195.513,4198.974,4190.385,4186.923,4188.462,4193.718,4183.846,0,0
648,111,0,3285,4196.026,4201.41,4196.795,4194.872,4187.692,4186.538,4199.615,4196.154,4196.154,4191.41,4188.718,4188.462,4195.255999999999,4188.462,0,0
649,112,0,3156,4196.282,4203.59,4196.41,4200.641,4191.154,4193.59,4197.308,4203.333,4200.641,4193.59,4191.026,4187.179,4195.128,4189.487,0,0
650,113,0,1540,4196.538,4204.359,4200.385,4200.513,4200.513,4202.564,4202.308,4216.667,4209.615,4203.718,4199.103,4193.59,4199.231,4189.615,0,0
651,114,0,2624,4194.744000000001,4201.538,4202.436,4195.641,4200.513,4201.667,4204.487,4213.077,4209.359,4202.9490000000005,4196.923,4195.641,4193.846,4188.59,0,0
652,115,0,3285,4190.641,4199.487,4200.255999999999,4195.385,4191.41,4195.385,4199.487,4201.026,4200.128,4189.744000000001,4187.308,4193.077,4184.231,4188.333,0,0
653,116,0,3156,4191.026,4202.564,4197.564,4200.0,4187.821,4192.564,4196.923,4210.385,4200.128,4190.769,4191.667,4191.41,4189.231,4189.872,0,0
654,117,0,1540,4190.128,4197.436,4195.255999999999,4195.897,4187.692,4192.0509999999995,4197.692,4212.692,4205.513,4199.872,4198.333,4189.359,4198.718,4185.385,0,0
655,118,0,2624,4186.026,4189.231,4194.615,4186.026,4190.255999999999,4194.359,4198.077,4197.692,4204.359,4199.231,4196.795,4189.103,4198.077,4181.154,0,0
656,119,0,3285,4190.769,4194.359,4201.795,4188.462,4196.41,4199.872,4200.385,4206.667,4201.923,4197.692,4199.103,4194.103,4195.897,4191.154,0,0
657,120,0,3156,4197.308,4198.846,4206.41,4192.0509999999995,4193.205,4197.308,4198.205,4223.333,4201.282,4199.744000000001,4204.103,4194.231,4198.205,4201.154,0,0
658,121,0,1540,4196.41,4190.641,4199.872,4187.436,4184.103,4188.333,4193.846,4215.897,4200.0,4201.538,4203.205,4192.308,4197.436,4199.231,0,0
659,122,0,2624,4190.513,4185.513,4194.872,4183.974,4183.077,4183.846,4196.282,4207.821,4198.462,4196.41,4195.897,4193.333,4189.744000000001,4196.026,0,0
660,123,0,3285,4185.641,4186.282,4197.821,4185.128,4184.872,4184.359,4200.128,4214.744000000001,4198.59,4189.359,4193.333,4193.462,4188.333,4198.59,0,0
661,124,0,3156,4187.564,4186.923,4198.462,4186.026,4185.641,4192.308,4202.692,4222.692,4200.641,4193.333,4198.846,4193.205,4198.333,4199.744000000001,0,0
662,125,0,1540,4188.333,4188.59,4196.282,4185.641,4186.538,4198.077,4200.641,4212.0509999999995,4198.974,4197.692,4200.385,4193.59,4199.872,4195.769,0,0
663,126,0,2624,4185.0,4187.692,4195.769,4184.359,4185.255999999999,4190.641,4201.923,4204.872,4196.923,4191.667,4190.897,4191.538,4188.462,4193.077,0,0
664,127,0,52,4190.513,4190.513,4198.077,4185.385,4185.769,4190.641,4210.641,4226.667,4205.641,4196.667,4190.513,4191.282,4190.769,4197.692,0,0
665,0,0,2274,4198.974,4195.769,4198.205,4187.0509999999995,4186.41,4196.795,4202.436,4228.077,4205.769,4202.9490000000005,4200.769,4192.821,4200.897,4202.692,0,0
666,1,0,2812,4190.897,4190.0,4194.487,4183.846,4185.255999999999,4188.974,4180.897,4193.59,4187.821,4188.718,4198.205,4191.026,4195.0,4193.462,0,0
667,2,0,3151,4179.872,4185.897,4191.154,4183.077,4185.255999999999,4186.41,4185.641,4188.59,4186.795,4186.282,4191.923,4189.231,4185.255999999999,4184.103,0,0
668,3,0,2929,4187.692,4194.487,4190.897,4187.179,4188.333,4198.59,4203.718,4205.641,4198.077,4199.615,4195.385,4190.0,4191.667,4192.308,0,0
669,4,0,3582,4199.744000000001,4200.897,4195.769,4190.255999999999,4193.205,4200.385,4199.872,4195.897,4192.308,4193.333,4196.41,4191.026,4196.795,4198.846,0,0
670,5,0,3154,4196.923,4201.795,4201.154,4195.897,4200.897,4199.487,4197.308,4199.615,4189.872,4184.231,4190.641,4191.282,4188.846,4193.846,0,0
671,6,0,3299,4187.0509999999995,4201.795,4200.641,4197.308,4203.718,4204.103,4203.077,4215.641,4201.282,4188.462,4186.154,4189.615,4184.744000000001,4188.205,0,0
672,7,0,3337,4183.974,4197.564,4195.641,4191.667,4196.538,4204.231,4200.255999999999,4204.615,4200.897,4187.436,4187.436,4187.436,4188.333,4187.0509999999995,0,0
673,8,0,3082,4189.487,4195.128,4195.513,4187.9490000000005,4191.282,4206.923,4205.769,4202.0509999999995,4196.026,4187.821,4194.872,4192.436,4194.615,4192.308,0,0
674,9,0,3556,4197.308,4195.513,4202.436,4189.487,4193.59,4207.821,4213.205,4216.795,4201.923,4198.462,4203.077,4196.795,4199.487,4202.308,0,0
675,10,0,2622,4201.667,4195.385,4206.795,4196.026,4196.667,4202.564,4209.103,4221.026,4206.154,4203.974,4204.615,4197.179,4201.538,4207.821,0,0
676,11,0,3285,4196.282,4195.128,4204.872,4199.359,4193.462,4202.692,4205.255999999999,4215.769,4202.692,4199.359,4203.077,4195.641,4198.846,4204.872,0,0
677,12,0,3156,4192.0509999999995,4195.897,4203.59,4191.667,4185.897,4199.872,4202.821,4208.077,4192.0509999999995,4190.128,4198.718,4194.103,4190.255999999999,4202.436,0,0
678,13,0,1540,4195.641,4194.359,4205.513,4185.769,4183.718,4190.513,4199.231,4199.231,4184.359,4184.231,4192.436,4193.205,4183.462,4200.385,0,0
679,14,0,2622,4190.897,4189.744000000001,4202.821,4187.179,4182.692,4188.462,4203.718,4196.923,4187.9490000000005,4183.333,4188.333,4192.436,4184.359,4191.41,0,0
680,15,0,3285,4172.692,4183.333,4191.282,4179.231,4173.718,4189.103,4202.308,4191.923,4182.821,4173.846,4181.026,4183.846,4180.641,4175.128,0,0
681,16,0,0,4166.026,4178.077,4187.0509999999995,4171.154,4165.128,4184.487,4186.923,4177.0509999999995,4168.974,4161.282,4176.282,4178.205,4167.436,4169.359,0,0
682,17,0,0,4179.103,4181.538,4195.641,4177.436,4169.231,4184.615,4180.897,4181.282,4172.0509999999995,4168.718,4182.436,4187.9490000000005,4165.128,4183.718,0,0
683,18,0,0,4190.128,4191.026,4201.795,4187.0509999999995,4177.692,4189.103,4189.872,4199.744000000001,4185.513,4183.462,4193.333,4195.255999999999,4176.41,4192.179,0,0
684,19,0,0,4190.897,4197.0509999999995,4200.255999999999,4191.41,4182.436,4190.897,4198.333,4203.718,4188.333,4187.436,4197.821,4190.128,4186.154,4189.487,0,0
685,20,0,0,4192.308,4196.923,4197.564,4190.769,4185.128,4192.179,4201.923,4199.359,4187.821,4187.9490000000005,4192.436,4187.692,4187.564,4191.795,0,0
686,21,0,0,4197.0509999999995,4194.615,4197.9490000000005,4187.821,4187.179,4188.846,4196.282,4196.667,4188.077,4187.9490000000005,4185.641,4190.0,4185.513,4194.744000000001,0,0
687,22,0,0,4200.513,4191.026,4201.282,4187.564,4188.846,4186.538,4187.9490000000005,4199.103,4187.308,4186.41,4191.282,4189.744000000001,4187.0509999999995,4195.128,0,0
688,23,0,0,4197.692,4187.821,4203.333,4190.641,4189.487,4193.205,4190.128,4201.41,4188.462,4185.385,4196.538,4190.769,4188.59,4195.641,0,0
689,24,0,0,4190.385,4186.667,4195.513,4187.436,4185.128,4191.41,4187.436,4187.821,4183.974,4182.308,4188.718,4189.744000000001,4184.872,4193.846,0,0
690,25,0,0,4191.41,4185.513,4190.128,4181.538,4179.487,4182.692,4179.487,4172.564,4177.564,4180.255999999999,4189.744000000001,4188.462,4183.974,4196.795,0,0
691,26,0,0,4196.923,4191.026,4194.103,4184.359,4181.923,4184.744000000001,4187.179,4187.692,4183.205,4187.436,4203.077,4192.179,4188.974,4204.744000000001,0,0
692,27,0,0,4193.462,4197.179,4197.179,4190.513,4187.308,4191.41,4196.667,4209.744000000001,4189.359,4192.9490000000005,4206.795,4196.154,4189.359,4202.821,0,0
693,28,0,0,4187.179,4192.9490000000005,4194.872,4188.462,4187.436,4192.0509999999995,4188.205,4198.974,4186.41,4187.179,4200.897,4190.513,4186.154,4195.897,0,0
694,29,0,0,4184.359,4187.0509999999995,4192.0509999999995,4182.821,4184.103,4194.615,4180.255999999999,4187.436,4183.077,4180.513,4199.872,4184.744000000001,4186.154,4197.0509999999995,0,0
695,30,0,0,4184.872,4188.974,4191.026,4185.513,4185.385,4201.282,4192.436,4198.718,4187.179,4185.385,4202.821,4187.436,4188.205,4198.974,0,0
696,31,0,0,4190.513,4195.0,4194.872,4189.487,4190.897,4204.231,4202.821,4206.923,4194.359,4195.0,4203.974,4189.872,4189.744000000001,4197.692,0,0
697,32,0,0,4191.795,4196.667,4196.923,4188.205,4191.538,4205.641,4201.667,4202.564,4192.0509999999995,4193.205,4202.692,4187.0509999999995,4189.615,4196.026,0,0
698,33,0,0,4186.41,4196.41,4193.462,4187.179,4188.59,4206.154,4202.0509999999995,4199.487,4185.0,4185.641,4200.128,4186.667,4186.795,4198.59,0,0
699,34,0,0,4189.615,4195.385,4190.255999999999,4187.308,4186.41,4204.231,4199.744000000001,4203.718,4193.077,4186.538,4201.282,4187.436,4185.513,4200.128,0,0
700,35,0,0,4191.923,4190.513,4190.0,4185.255999999999,4185.255999999999,4201.923,4192.9490000000005,4202.308,4199.744000000001,4189.359,4198.462,4185.385,4186.795,4191.538,0,0
701,36,0,0,4186.667,4185.255999999999,4192.821,4184.231,4184.487,4199.487,4194.487,4202.0509999999995,4191.41,4185.0,4187.564,4183.205,4184.872,4183.333,0,0
702,37,0,0,4185.513,4185.897,4191.026,4187.0509999999995,4186.282,4199.615,4201.41,4208.974,4190.0,4183.59,4182.821,4181.667,4183.205,4187.308,0,0
703,38,0,0,4185.897,4187.692,4184.359,4186.154,4185.255999999999,4199.487,4193.974,4203.077,4194.231,4187.0509999999995,4186.923,4182.179,4185.385,4190.385,0,0
704,39,0,0,4183.205,4185.513,4182.564,4178.333,4181.154,4198.077,4180.513,4184.487,4185.897,4186.795,4186.923,4182.308,4186.41,4186.538,0,0
705,40,0,0,4186.795,4186.154,4185.128,4176.538,4182.692,4198.462,4185.385,4176.795,4180.385,4184.872,4183.59,4180.769,4186.282,4185.513,0,0
706,41,0,0,4189.744000000001,4187.9490000000005,4181.282,4183.974,4185.255999999999,4198.333,4196.282,4192.564,4191.667,4185.897,4186.026,4178.077,4187.436,4186.538,0,0
707,42,0,0,4187.0509999999995,4190.385,4178.846,4187.564,4185.769,4195.513,4193.974,4213.462,4203.077,4191.41,4188.974,4178.846,4188.974,4187.308,0,0
708,43,0,0,4185.385,4190.641,4180.255999999999,4182.821,4180.641,4189.103,4182.564,4200.385,4191.154,4186.667,4185.641,4179.487,4185.641,4185.513,0,0
709,44,0,0,4185.769,4188.333,4181.923,4181.923,4177.9490000000005,4186.154,4178.846,4170.769,4171.026,4175.513,4183.59,4178.333,4183.462,4183.077,0,0
710,45,0,0,4187.0509999999995,4187.564,4182.308,4183.718,4182.308,4192.179,4184.872,4173.205,4172.9490000000005,4175.385,4182.9490000000005,4176.538,4185.255999999999,4186.026,0,0
711,46,0,0,4184.103,4185.897,4179.744000000001,4178.077,4183.718,4198.846,4186.41,4186.41,4183.462,4177.179,4175.769,4175.513,4184.103,4183.718,0,0
712,47,0,0,4175.641,4183.333,4176.667,4170.769,4182.564,4198.846,4184.359,4179.231,4181.538,4174.359,4170.513,4176.026,4182.308,4173.59,0,0
713,48,0,0,4173.846,4183.462,4177.179,4174.359,4183.59,4196.41,4181.795,4175.769,4176.923,4176.026,4177.436,4174.615,4182.564,4171.795,0,0
714,49,0,0,4183.077,4187.308,4183.59,4184.103,4187.692,4200.0,4185.385,4190.385,4185.0,4186.538,4184.744000000001,4175.255999999999,4184.744000000001,4180.897,0,0
715,50,0,0,4187.0509999999995,4188.718,4187.436,4187.436,4190.641,4205.769,4196.923,4207.821,4197.692,4193.205,4185.641,4179.231,4186.923,4181.795,0,0
716,51,0,0,4181.667,4184.872,4184.103,4183.59,4190.0,4206.026,4201.282,4213.974,4196.923,4190.0,4187.692,4181.538,4186.154,4177.308,0,0
717,52,0,0,4182.564,4183.333,4186.667,4184.359,4187.692,4201.795,4196.795,4202.9490000000005,4185.0,4183.59,4188.333,4181.923,4182.179,4180.513,0,0
718,53,0,0,4188.077,4188.59,4198.333,4192.179,4188.974,4199.103,4194.231,4196.026,4182.308,4184.359,4187.308,4184.103,4181.795,4185.897,0,0
719,54,0,0,4187.179,4191.026,4197.308,4192.821,4189.615,4200.255999999999,4192.821,4208.333,4188.974,4187.179,4183.333,4183.205,4183.333,4184.615,0,0
720,55,0,0,4181.538,4186.538,4186.795,4184.615,4183.077,4196.41,4185.641,4203.205,4180.897,4176.282,4175.897,4179.744000000001,4177.436,4180.769,0,0
721,56,0,0,4180.769,4184.872,4188.205,4182.692,4181.41,4188.846,4180.897,4181.923,4171.667,4170.385,4175.513,4177.692,4175.128,4181.923,0,0
722,57,0,0,4184.359,4187.179,4191.026,4185.641,4186.923,4191.026,4183.59,4194.744000000001,4183.974,4180.513,4183.077,4178.333,4181.795,4186.282,0,0
723,58,0,0,4184.103,4184.487,4183.462,4184.103,4185.769,4197.9490000000005,4184.872,4208.974,4192.179,4185.385,4184.359,4178.077,4182.9490000000005,4188.333,0,0
724,59,0,0,4181.282,4183.718,4181.795,4182.9490000000005,4184.615,4198.59,4182.308,4182.308,4178.59,4181.41,4179.744000000001,4177.821,4179.487,4185.769,0,0
725,60,0,0,4186.41,4193.718,4189.231,4185.513,4192.9490000000005,4198.333,4183.846,4167.308,4171.923,4182.564,4182.308,4178.462,4183.205,4187.308,0,0
726,61,0,0,4197.692,4200.128,4192.308,4191.538,4197.0509999999995,4198.846,4188.846,4188.974,4185.641,4186.667,4186.41,4180.513,4187.9490000000005,4193.59,0,0
727,62,0,0,4198.718,4198.333,4187.436,4196.538,4191.41,4193.205,4188.077,4193.59,4190.0,4184.872,4184.872,4179.615,4183.974,4193.59,0,0
728,63,0,0,4191.026,4200.513,4188.333,4193.974,4188.59,4187.821,4183.333,4182.179,4183.974,4184.231,4183.333,4177.9490000000005,4180.897,4191.026,0,0
729,64,0,2276,4186.667,4199.744000000001,4189.487,4186.667,4188.59,4188.974,4182.821,4188.077,4183.718,4184.615,4185.0,4179.103,4181.667,4188.974,0,0
730,65,0,2817,4185.128,4192.436,4182.179,4186.154,4185.897,4189.487,4183.462,4190.897,4183.462,4182.9490000000005,4183.333,4178.846,4180.641,4183.846,0,0
731,66,0,3152,4186.538,4190.641,4184.231,4192.179,4188.205,4189.872,4185.641,4184.615,4181.154,4183.205,4181.41,4177.564,4181.538,4184.231,0,0
732,67,0,2929,4189.359,4192.821,4191.154,4192.821,4193.718,4189.615,4192.692,4184.359,4182.564,4185.255999999999,4185.255999999999,4176.154,4182.9490000000005,4191.026,0,0
733,68,0,3588,4187.9490000000005,4191.026,4183.205,4187.436,4190.513,4186.154,4192.0509999999995,4186.026,4183.846,4183.974,4182.308,4175.385,4181.026,4186.923,0,0
734,69,0,3154,4184.615,4192.9490000000005,4176.923,4185.255999999999,4185.385,4183.974,4183.974,4187.9490000000005,4184.744000000001,4183.718,4177.0509999999995,4177.179,4181.667,4179.231,0,0
735,70,0,3302,4185.897,4198.077,4187.821,4190.513,4191.282,4188.974,4190.513,4193.077,4186.282,4186.667,4181.795,4179.359,4184.615,4183.846,0,0
736,71,0,3339,4190.385,4201.026,4193.205,4194.744000000001,4198.59,4195.255999999999,4201.282,4199.872,4188.333,4188.974,4189.231,4176.795,4184.231,4190.769,0,0
737,72,0,3082,4188.462,4196.923,4185.897,4190.641,4190.641,4191.154,4192.179,4192.308,4183.59,4183.333,4188.077,4176.026,4182.308,4189.615,0,0
738,73,0,3556,4179.231,4188.205,4179.744000000001,4183.846,4182.179,4183.846,4178.077,4176.41,4175.385,4174.359,4182.0509999999995,4176.667,4183.077,4178.718,0,0
739,74,0,2622,4175.385,4187.179,4179.744000000001,4182.9490000000005,4186.154,4185.513,4181.282,4171.923,4175.513,4174.359,4177.692,4174.359,4185.128,4170.513,0,0
740,75,0,3285,4177.436,4187.9490000000005,4180.385,4185.513,4186.923,4189.359,4188.718,4175.128,4178.59,4176.41,4175.385,4173.846,4179.615,4175.385,0,0
741,76,0,3156,4180.385,4185.897,4181.154,4186.154,4183.718,4187.692,4186.923,4174.103,4173.846,4172.0509999999995,4178.077,4176.026,4173.333,4183.077,0,0
742,77,0,1540,4184.359,4192.308,4185.385,4187.821,4187.308,4187.0509999999995,4184.103,4168.59,4168.59,4171.026,4182.0509999999995,4175.128,4178.846,4184.744000000001,0,0
743,78,0,2622,4187.692,4200.897,4187.821,4189.231,4190.128,4187.179,4185.641,4166.538,4171.154,4175.513,4182.821,4176.41,4184.615,4186.795,0,0
744,79,0,3285,4187.436,4195.0,4185.255999999999,4187.821,4187.308,4183.718,4186.154,4171.41,4171.41,4172.692,4180.769,4177.9490000000005,4176.795,4187.9490000000005,0,0
745,80,0,3156,4184.615,4186.154,4184.744000000001,4187.0509999999995,4184.103,4181.154,4182.308,4172.821,4167.0509999999995,4167.692,4181.41,4175.641,4171.538,4186.154,0,0
746,81,0,1540,4184.744000000001,4189.103,4190.769,4189.872,4184.231,4183.718,4183.59,4173.718,4175.0,4177.308,4188.333,4179.103,4180.769,4192.0509999999995,0,0
747,82,0,2622,4190.0,4194.103,4195.128,4193.718,4187.308,4186.667,4190.128,4188.333,4190.769,4190.513,4192.0509999999995,4184.872,4188.205,4199.487,0,0
748,83,0,3285,4191.026,4190.255999999999,4192.564,4191.538,4186.795,4184.487,4184.872,4191.667,4184.615,4185.255999999999,4186.667,4179.872,4180.897,4193.333,0,0
749,84,0,3156,4186.795,4186.282,4188.077,4187.0509999999995,4185.128,4183.333,4184.487,4176.282,4169.615,4172.308,4182.0509999999995,4175.0,4173.974,4185.0,0,0
750,85,0,1540,4192.436,4193.718,4188.974,4190.769,4187.436,4186.282,4196.923,4190.513,4182.9490000000005,4176.795,4187.0509999999995,4181.41,4181.41,4189.744000000001,0,0
751,86,0,2622,4195.513,4199.487,4190.128,4193.333,4188.462,4184.615,4189.231,4198.846,4189.487,4180.255999999999,4184.615,4181.538,4182.692,4191.795,0,0
752,87,0,3285,4185.641,4194.103,4185.128,4187.821,4185.513,4182.436,4171.154,4155.128,4166.538,4163.205,4171.026,4173.718,4169.359,4182.179,0,0
753,88,0,3156,4181.026,4188.205,4179.615,4183.333,4183.718,4184.231,4170.255999999999,4128.974,4157.564,4156.41,4165.513,4171.667,4167.308,4178.718,0,0
754,89,0,1540,4183.974,4185.513,4177.9490000000005,4181.667,4182.821,4182.308,4173.205,4157.692,4169.615,4165.255999999999,4172.0509999999995,4174.487,4173.333,4185.128,0,0
755,90,0,2622,4187.564,4187.436,4185.385,4185.641,4184.359,4179.615,4175.769,4183.077,4177.692,4171.282,4181.41,4176.282,4171.795,4188.59,0,0
756,91,0,3285,4194.615,4195.897,4196.026,4196.154,4186.41,4181.795,4182.564,4183.59,4181.154,4177.0509999999995,4182.692,4177.308,4174.615,4187.821,0,0
757,92,0,3156,4200.128,4202.564,4196.026,4202.0509999999995,4186.282,4183.718,4185.641,4184.359,4186.667,4185.255999999999,4180.769,4178.205,4183.462,4194.103,0,0
758,93,0,1540,4201.026,4200.385,4194.103,4200.0,4193.846,4185.769,4190.0,4188.462,4190.385,4188.846,4189.872,4184.231,4186.667,4201.923,0,0
759,94,0,2622,4202.308,4200.769,4195.641,4200.255999999999,4199.359,4186.667,4194.615,4188.462,4190.641,4188.846,4198.718,4187.564,4186.667,4202.564,0,0
760,95,0,3285,4202.0509999999995,4201.026,4195.128,4201.154,4193.974,4185.897,4190.641,4189.744000000001,4187.564,4188.718,4194.231,4186.538,4186.795,4200.385,0,0
761,96,0,3156,4197.308,4192.564,4192.436,4195.641,4188.333,4188.718,4185.641,4193.59,4185.897,4186.667,4187.0509999999995,4185.128,4182.9490000000005,4195.769,0,0
762,97,0,1540,4195.255999999999,4191.282,4193.333,4192.308,4189.615,4196.026,4188.59,4194.744000000001,4187.9490000000005,4186.282,4187.564,4184.231,4181.538,4193.077,0,0
763,98,0,2622,4197.179,4200.513,4195.128,4196.41,4196.795,4201.282,4196.667,4195.255999999999,4186.795,4186.026,4189.487,4185.0,4186.41,4196.667,0,0
764,99,0,3285,4198.718,4202.308,4195.769,4201.41,4201.026,4200.769,4202.9490000000005,4199.103,4186.538,4182.692,4187.308,4184.872,4184.359,4201.154,0,0
765,100,0,3156,4197.9490000000005,4200.128,4196.154,4198.333,4196.41,4198.59,4202.308,4194.744000000001,4187.308,4184.231,4185.255999999999,4180.769,4177.9490000000005,4197.436,0,0
766,101,0,1540,4194.615,4197.9490000000005,4192.179,4190.641,4188.846,4196.667,4196.667,4182.692,4185.513,4183.718,4180.641,4175.897,4174.744000000001,4191.026,0,0
767,102,0,2622,4186.667,4189.359,4188.333,4186.667,4185.897,4191.282,4190.128,4185.641,4186.154,4175.513,4173.846,4176.923,4171.923,4184.872,0,0
768,103,0,3285,4174.872,4181.538,4183.205,4183.333,4183.974,4184.744000000001,4182.308,4190.769,4186.795,4171.154,4170.897,4175.385,4172.821,4175.128,0,0
769,104,0,3156,4173.59,4183.718,4181.41,4182.308,4185.255999999999,4187.436,4183.59,4177.564,4184.487,4181.41,4178.077,4175.0,4182.0509999999995,4170.641,0,0
770,105,0,1540,4181.795,4186.026,4183.333,4184.872,4189.231,4191.538,4188.846,4162.821,4177.9490000000005,4186.795,4184.615,4178.462,4185.385,4173.846,0,0
771,106,0,2622,4181.154,4183.718,4184.231,4185.641,4186.41,4184.615,4185.385,4158.462,4171.026,4173.59,4175.897,4177.436,4176.667,4174.359,0,0
