,COUNTER, INTERPOLATED, RAW_CQ, AF3, F7, F3, FC5, T7, P7, O1, O2, P8, T8, FC6, F4, F8, AF4, MARKER_HARDWARE, MARKER
0,90,0,2605,4246.026,4236.282,4222.821,4245.0,4230.769,4234.103,4227.9490000000005,4242.308,4251.667,4240.897,4269.872,4171.795,4227.821,4212.436,0,0
1,91,0,3246,4248.718,4239.615,4227.308,4249.744000000001,4235.769,4239.615,4241.41,4256.41,4257.179,4245.897,4274.487,4172.308,4230.897,4217.308,0,0
2,92,0,3000,4249.744000000001,4245.385,4230.641,4251.026,4236.026,4239.615,4249.231,4255.255999999999,4250.513,4245.513,4270.513,4169.487,4231.667,4219.103,0,0
3,93,0,1050,4244.872,4243.846,4225.769,4248.718,4232.821,4233.205,4243.333,4240.769,4253.846,4243.462,4263.59,4168.718,4230.513,4205.513,0,0
4,94,0,2605,4234.359,4237.0509999999995,4220.897,4244.744000000001,4232.308,4232.821,4242.179,4255.769,4264.744000000001,4246.923,4265.897,4167.821,4231.282,4194.487,0,0
5,95,0,3246,4226.923,4230.769,4216.923,4239.359,4231.41,4234.872,4248.077,4265.897,4255.385,4240.641,4263.205,4166.282,4231.154,4193.974,0,0
6,96,0,3000,4230.0,4231.538,4212.821,4236.41,4229.872,4232.0509999999995,4240.0,4227.179,4239.872,4228.59,4259.744000000001,4165.897,4229.103,4194.872,0,0
7,97,0,1050,4232.821,4233.846,4210.641,4234.615,4231.154,4229.872,4220.255999999999,4200.513,4242.179,4233.462,4263.718,4166.154,4230.385,4191.026,0,0
8,98,0,2605,4230.897,4232.564,4211.667,4233.333,4232.9490000000005,4227.0509999999995,4215.255999999999,4223.59,4250.0,4248.462,4264.487,4167.821,4235.769,4189.231,0,0
9,99,0,3246,4227.308,4232.0509999999995,4214.231,4232.692,4227.436,4224.103,4223.846,4235.385,4250.641,4246.795,4259.359,4168.205,4235.769,4187.692,0,0
10,100,0,3000,4222.692,4233.462,4214.872,4233.077,4223.718,4229.487,4229.231,4225.128,4246.667,4231.795,4257.436,4166.154,4229.359,4184.487,0,0
11,101,0,1050,4225.769,4234.103,4215.513,4236.282,4227.436,4232.179,4233.077,4234.487,4249.872,4232.308,4263.205,4167.308,4228.462,4192.9490000000005,0,0
12,102,0,2605,4227.821,4231.795,4212.9490000000005,4233.718,4227.692,4228.846,4232.0509999999995,4232.564,4249.872,4236.923,4264.359,4170.255999999999,4230.513,4202.0509999999995,0,0
13,103,0,3246,4223.333,4228.205,4210.255999999999,4230.385,4225.897,4225.255999999999,4228.333,4229.231,4245.513,4229.231,4263.205,4167.564,4229.359,4199.744000000001,0,0
14,104,0,3000,4229.615,4232.0509999999995,4219.615,4240.513,4230.641,4227.436,4242.179,4261.667,4257.9490000000005,4232.564,4271.923,4169.872,4230.385,4205.128,0,0
15,105,0,1050,4233.333,4230.769,4222.692,4245.0,4232.9490000000005,4234.872,4253.846,4259.615,4266.026,4240.513,4270.769,4172.9490000000005,4232.0509999999995,4211.538,0,0
16,106,0,2605,4217.564,4220.255999999999,4210.385,4232.308,4227.692,4230.0,4231.026,4207.436,4243.462,4228.462,4252.308,4168.59,4229.744000000001,4200.385,0,0
17,107,0,3246,4210.128,4221.923,4205.641,4228.205,4228.205,4215.0,4201.154,4187.564,4223.718,4213.846,4244.615,4163.974,4228.333,4192.692,0,0
18,108,0,3000,4222.564,4231.795,4218.077,4241.41,4233.974,4216.923,4209.359,4217.436,4238.718,4217.179,4253.974,4166.795,4230.0,4198.59,0,0
19,109,0,1050,4230.641,4233.077,4222.9490000000005,4246.795,4234.487,4227.308,4230.0,4234.359,4252.308,4224.744000000001,4262.564,4169.744000000001,4230.641,4202.821,0,0
20,110,0,2605,4228.205,4229.103,4215.769,4236.154,4228.846,4221.41,4223.974,4212.564,4236.923,4220.385,4259.872,4170.128,4229.103,4196.923,0,0
21,111,0,3246,4227.821,4227.436,4213.077,4232.0509999999995,4227.436,4213.462,4208.59,4192.308,4227.564,4216.026,4254.615,4167.308,4228.59,4193.974,0,0
22,112,0,3000,4240.897,4236.538,4221.795,4243.333,4234.359,4214.872,4216.41,4216.41,4242.821,4226.282,4259.103,4167.564,4228.718,4205.641,0,0
23,113,0,1050,4251.026,4247.564,4226.538,4249.872,4236.154,4220.385,4235.128,4246.795,4253.462,4237.179,4266.154,4172.179,4230.128,4214.487,0,0
24,114,0,2605,4242.692,4240.897,4219.872,4245.385,4231.795,4228.718,4232.9490000000005,4228.718,4246.026,4233.59,4263.59,4173.718,4232.436,4205.513,0,0
25,115,0,3246,4235.769,4228.333,4215.128,4243.974,4231.41,4229.103,4223.846,4218.333,4243.718,4228.718,4259.103,4170.255999999999,4229.487,4195.385,0,0
26,116,0,3000,4246.026,4237.436,4220.255999999999,4247.564,4234.744000000001,4218.59,4228.077,4240.128,4250.255999999999,4233.974,4265.0,4171.154,4225.897,4205.385,0,0
27,117,0,1050,4247.564,4247.308,4221.667,4250.128,4235.897,4214.359,4229.872,4229.359,4245.0,4232.436,4270.385,4173.462,4225.385,4213.462,0,0
28,118,0,2605,4236.154,4238.462,4215.897,4248.462,4235.128,4224.487,4231.282,4228.205,4243.333,4227.0509999999995,4266.154,4169.744000000001,4225.769,4206.154,0,0
29,119,0,3246,4237.179,4232.9490000000005,4216.41,4247.179,4233.846,4232.564,4243.462,4260.255999999999,4255.385,4232.0509999999995,4262.308,4169.615,4228.333,4204.487,0,0
30,120,0,3000,4240.769,4235.897,4219.615,4247.692,4231.41,4225.641,4238.718,4239.744000000001,4252.9490000000005,4236.923,4264.872,4170.128,4232.436,4210.769,0,0
31,121,0,1050,4234.487,4234.872,4217.0509999999995,4244.744000000001,4230.897,4222.692,4216.282,4183.59,4233.333,4232.821,4266.923,4170.513,4233.205,4214.744000000001,0,0
32,122,0,2605,4231.282,4231.538,4212.564,4243.333,4233.333,4230.385,4209.872,4180.897,4228.077,4226.282,4264.487,4169.744000000001,4228.59,4210.769,0,0
33,123,0,3246,4234.231,4231.538,4213.077,4243.846,4233.077,4226.026,4211.795,4209.231,4242.436,4229.103,4264.744000000001,4171.154,4226.538,4206.154,0,0
34,124,0,3000,4233.205,4232.564,4214.359,4240.769,4229.359,4213.846,4219.231,4218.205,4250.769,4241.795,4265.769,4171.41,4230.0,4207.179,0,0
35,125,0,1050,4233.718,4233.846,4218.205,4240.385,4229.359,4212.821,4226.923,4218.333,4240.128,4243.59,4267.0509999999995,4171.41,4235.0,4216.154,0,0
36,126,0,2605,4237.308,4235.255999999999,4220.385,4242.9490000000005,4231.667,4220.385,4221.026,4214.744000000001,4235.128,4228.974,4269.103,4172.821,4227.692,4218.846,0,0
37,127,0,51,4231.282,4230.513,4216.667,4241.41,4234.744000000001,4232.0509999999995,4224.103,4224.744000000001,4258.205,4230.385,4267.564,4176.538,4229.103,4206.41,0,0
38,0,0,2106,4227.308,4225.385,4217.0509999999995,4240.385,4237.436,4231.026,4232.564,4249.744000000001,4269.103,4251.41,4263.846,4177.436,4246.154,4199.103,0,0
39,1,0,2728,4246.538,4240.897,4227.821,4254.359,4232.9490000000005,4206.026,4231.282,4257.0509999999995,4248.974,4256.667,4269.872,4176.154,4245.513,4211.154,0,0
40,2,0,3123,4240.897,4235.769,4224.487,4248.205,4236.795,4243.462,4253.718,4250.641,4262.308,4236.538,4264.744000000001,4173.59,4227.9490000000005,4206.026,0,0
41,3,0,2888,4202.564,4199.231,4210.128,4220.0,4255.769,4314.231,4280.128,4240.641,4289.744000000001,4236.923,4251.923,4169.872,4233.205,4180.641,0,0
42,4,0,3574,4201.795,4193.462,4214.487,4218.59,4247.564,4279.231,4244.615,4221.538,4271.923,4260.128,4254.103,4171.538,4251.795,4180.385,0,0
43,5,0,2991,4209.744000000001,4195.897,4210.0,4223.333,4211.923,4204.359,4190.897,4196.538,4243.333,4242.564,4240.897,4168.333,4225.385,4178.718,0,0
44,6,0,3265,4189.872,4183.974,4192.821,4207.0509999999995,4206.026,4208.462,4186.667,4183.205,4227.564,4204.103,4218.59,4160.128,4184.615,4159.231,0,0
45,7,0,3340,4178.718,4179.231,4188.205,4192.0509999999995,4216.538,4228.462,4182.692,4166.538,4205.641,4201.795,4210.769,4157.308,4180.0,4152.0509999999995,0,0
46,8,0,2920,4162.308,4160.641,4181.667,4185.513,4196.154,4187.692,4151.538,4156.026,4198.205,4200.128,4194.487,4154.872,4167.821,4135.255999999999,0,0
47,9,0,3561,4144.872,4156.538,4170.513,4181.538,4171.026,4157.179,4156.538,4176.154,4208.333,4186.026,4183.59,4151.026,4150.128,4122.436,0,0
48,10,0,2603,4167.179,4197.692,4180.513,4187.564,4162.0509999999995,4166.538,4196.923,4183.205,4192.436,4180.255999999999,4192.0509999999995,4156.923,4166.795,4143.974,0,0
49,11,0,3255,4160.255999999999,4199.744000000001,4179.872,4178.205,4144.487,4157.564,4182.821,4155.255999999999,4173.974,4151.795,4177.9490000000005,4156.667,4184.359,4139.359,0,0
50,12,0,2998,4097.821,4147.308,4148.205,4141.667,4111.923,4128.077,4113.333,4111.667,4165.513,4121.667,4148.077,4140.769,4191.795,4092.051,0,0
51,13,0,1055,4090.1279999999997,4131.923,4146.667,4116.923,4087.692,4117.308,4086.41,4089.8720000000003,4144.359,4114.872,4145.513,4132.564,4222.0509999999995,4076.923,0,0
52,14,0,2603,4113.846,4124.487,4170.897,4098.205,4079.8720000000003,4124.744000000001,4104.615,4101.026,4139.103,4066.795,4137.179,4140.641,4232.564,4080.256,0,0
53,15,0,3255,4096.026,4103.846,4164.231,4088.974,4090.256,4111.41,4108.718,4120.641,4152.564,4033.205,4111.538,4139.744000000001,4216.538,4062.5640000000003,0,0
54,16,0,0,4072.692,4138.205,4137.179,4101.026,4113.077,4096.538,4095.513,4112.436,4137.436,4071.41,4096.538,4127.821,4224.615,4048.462,0,0
55,17,0,0,4070.513,4176.795,4132.9490000000005,4107.564,4126.026,4103.462,4097.436,4094.3590000000004,4118.974,4078.718,4094.2309999999998,4125.513,4233.077,4049.2309999999998,0,0
56,18,0,0,4076.923,4163.205,4148.718,4106.41,4123.077,4119.487,4115.897,4112.9490000000005,4143.205,4045.6409999999996,4103.077,4135.0,4228.205,4058.8459999999995,0,0
57,19,0,0,4093.462,4166.154,4165.128,4119.231,4124.615,4126.282,4125.641,4139.615,4164.103,4070.385,4120.769,4142.821,4230.385,4079.8720000000003,0,0
58,20,0,0,4113.077,4194.231,4180.385,4138.462,4136.41,4126.026,4135.513,4147.821,4160.897,4102.436,4130.128,4145.128,4224.872,4105.897,0,0
59,21,0,0,4102.308,4175.641,4176.923,4134.872,4138.718,4139.103,4143.077,4138.718,4165.897,4076.41,4114.615,4141.538,4212.0509999999995,4105.255999999999,0,0
60,22,0,0,4083.8459999999995,4153.462,4163.333,4127.9490000000005,4137.0509999999995,4147.436,4133.333,4136.538,4174.359,4065.0,4098.205,4133.846,4218.205,4095.7690000000002,0,0
61,23,0,0,4098.077,4180.255999999999,4163.59,4139.615,4135.641,4134.103,4134.615,4148.846,4169.615,4078.974,4105.641,4137.436,4221.538,4117.9490000000005,0,0
62,24,0,0,4114.103,4180.385,4156.538,4140.641,4119.487,4123.846,4146.795,4146.923,4156.41,4064.744,4103.974,4140.128,4201.795,4134.231,0,0
63,25,0,0,4101.667,4148.077,4132.179,4125.513,4107.9490000000005,4130.641,4130.385,4124.359,4147.308,4040.897,4082.308,4134.103,4190.0,4122.564,0,0
64,26,0,0,4104.103,4154.487,4124.487,4128.846,4120.641,4136.667,4128.974,4126.41,4158.205,4058.59,4089.8720000000003,4135.513,4200.641,4135.897,0,0
65,27,0,0,4132.436,4176.026,4141.026,4148.59,4137.0509999999995,4142.821,4168.205,4168.974,4178.205,4092.308,4113.59,4141.923,4208.59,4165.385,0,0
66,28,0,0,4131.41,4168.846,4140.897,4146.538,4137.821,4135.513,4153.974,4156.538,4160.128,4084.103,4095.7690000000002,4133.462,4198.846,4154.103,0,0
67,29,0,0,4112.436,4158.462,4130.128,4135.641,4132.0509999999995,4119.744000000001,4098.718,4087.051,4129.231,4061.667,4068.462,4127.564,4187.0509999999995,4131.154,0,0
68,30,0,0,4118.077,4165.385,4135.513,4137.0509999999995,4130.255999999999,4124.872,4105.255999999999,4076.41,4137.692,4074.615,4080.897,4132.0509999999995,4187.308,4139.487,0,0
69,31,0,0,4133.846,4169.487,4151.538,4139.487,4135.128,4138.205,4139.872,4122.692,4156.538,4098.846,4099.103,4133.846,4191.41,4149.615,0,0
70,32,0,0,4131.026,4166.41,4156.154,4138.077,4142.308,4137.0509999999995,4139.487,4137.179,4150.513,4095.256,4089.487,4133.59,4184.359,4139.744000000001,0,0
71,33,0,0,4128.974,4175.128,4158.718,4142.308,4142.0509999999995,4133.462,4137.308,4131.923,4151.923,4098.846,4090.6409999999996,4139.359,4178.59,4142.436,0,0
72,34,0,0,4145.128,4182.308,4169.615,4152.821,4139.103,4143.974,4152.9490000000005,4150.128,4171.154,4126.41,4114.744000000001,4143.205,4190.128,4165.385,0,0
73,35,0,0,4156.795,4178.462,4174.103,4158.462,4147.0509999999995,4153.462,4163.59,4160.0,4175.255999999999,4141.795,4121.667,4142.821,4201.538,4171.923,0,0
74,36,0,0,4154.872,4184.103,4170.897,4163.462,4162.692,4151.667,4163.59,4157.179,4174.487,4139.231,4113.846,4145.385,4197.692,4165.641,0,0
75,37,0,0,4158.077,4192.564,4169.487,4170.128,4170.897,4153.59,4163.846,4157.436,4180.897,4136.795,4117.0509999999995,4146.026,4193.077,4170.769,0,0
76,38,0,0,4168.462,4187.0509999999995,4172.0509999999995,4170.897,4167.9490000000005,4156.026,4165.897,4157.0509999999995,4176.923,4144.103,4123.974,4148.333,4197.692,4176.41,0,0
77,39,0,0,4171.154,4183.077,4172.9490000000005,4168.205,4165.769,4153.462,4163.333,4159.872,4174.231,4152.564,4124.487,4150.385,4199.744000000001,4171.538,0,0
78,40,0,0,4176.154,4193.205,4176.667,4173.718,4175.897,4161.282,4168.718,4171.538,4183.846,4156.795,4130.385,4152.821,4199.231,4169.103,0,0
79,41,0,0,4189.231,4203.718,4184.359,4185.255999999999,4192.179,4173.077,4184.103,4186.282,4190.897,4164.359,4142.821,4157.821,4205.513,4175.0,0,0
80,42,0,0,4191.154,4199.359,4190.0,4187.179,4198.846,4171.923,4193.718,4185.897,4189.103,4168.846,4143.333,4162.692,4206.923,4175.385,0,0
81,43,0,0,4186.41,4189.231,4190.897,4178.846,4193.333,4176.41,4190.385,4183.205,4191.667,4168.077,4138.974,4161.795,4202.308,4164.872,0,0
82,44,0,0,4192.308,4188.718,4191.41,4178.462,4189.103,4186.667,4183.974,4195.255999999999,4203.846,4177.9490000000005,4147.564,4164.231,4210.513,4161.923,0,0
83,45,0,0,4194.231,4189.103,4191.538,4186.538,4194.103,4184.103,4185.128,4196.41,4204.872,4189.103,4156.41,4165.769,4217.9490000000005,4168.59,0,0
84,46,0,0,4186.41,4185.641,4189.872,4188.974,4198.974,4181.667,4191.41,4184.872,4193.077,4182.9490000000005,4155.897,4164.615,4205.641,4170.0,0,0
85,47,0,0,4185.769,4184.359,4186.026,4182.564,4193.59,4187.564,4191.41,4182.0509999999995,4189.359,4182.564,4156.154,4165.641,4197.179,4170.641,0,0
86,48,0,0,4185.641,4174.872,4183.718,4177.0509999999995,4184.744000000001,4186.538,4183.974,4176.923,4192.308,4190.769,4157.9490000000005,4167.821,4201.154,4170.513,0,0
87,49,0,0,4181.795,4169.231,4185.255999999999,4180.897,4187.0509999999995,4179.615,4184.744000000001,4176.795,4192.308,4194.359,4159.231,4168.077,4201.923,4168.974,0,0
88,50,0,0,4184.231,4181.795,4187.436,4187.821,4195.897,4181.923,4195.0,4191.795,4197.308,4198.974,4166.923,4168.333,4200.0,4176.923,0,0
89,51,0,0,4188.077,4188.846,4191.41,4188.333,4198.077,4190.128,4196.41,4192.692,4205.897,4204.103,4179.744000000001,4171.282,4201.923,4186.41,0,0
90,52,0,0,4183.974,4181.923,4192.9490000000005,4190.513,4198.462,4191.667,4198.846,4179.359,4201.923,4208.462,4183.59,4169.872,4200.897,4184.487,0,0
91,53,0,0,4187.436,4186.41,4194.872,4197.9490000000005,4202.9490000000005,4188.077,4213.462,4187.179,4201.923,4218.846,4179.872,4169.231,4200.513,4184.359,0,0
92,54,0,0,4188.333,4187.179,4193.718,4192.692,4198.333,4187.564,4201.026,4185.128,4203.59,4217.436,4174.231,4166.154,4201.795,4181.154,0,0
93,55,0,0,4178.974,4173.205,4187.308,4178.846,4186.41,4184.615,4164.231,4157.436,4190.513,4199.231,4166.154,4162.564,4194.744000000001,4166.795,0,0
94,56,0,0,4186.282,4177.308,4187.308,4183.333,4191.667,4181.154,4164.231,4157.0509999999995,4187.179,4198.077,4167.564,4164.744000000001,4190.385,4168.462,0,0
95,57,0,0,4201.795,4195.0,4200.513,4197.564,4204.231,4188.846,4188.205,4177.692,4199.231,4214.487,4181.026,4171.282,4198.718,4184.359,0,0
96,58,0,0,4205.0,4197.179,4207.564,4201.41,4205.128,4198.974,4192.821,4187.179,4212.308,4224.487,4192.308,4172.692,4206.923,4188.846,0,0
97,59,0,0,4204.872,4195.385,4203.846,4202.0509999999995,4203.974,4200.769,4195.769,4185.897,4213.846,4224.872,4189.231,4172.436,4205.128,4186.538,0,0
98,60,0,0,4205.385,4197.308,4200.255999999999,4201.026,4205.0,4199.615,4200.769,4176.282,4200.255999999999,4212.179,4180.641,4173.462,4196.538,4186.026,0,0
99,61,0,0,4208.462,4196.41,4202.692,4200.769,4206.154,4201.795,4199.103,4176.026,4196.154,4207.692,4189.103,4176.154,4198.077,4191.795,0,0
100,62,0,0,4218.846,4200.897,4209.872,4211.538,4213.077,4205.0,4206.667,4199.231,4213.333,4222.821,4206.282,4177.0509999999995,4205.641,4204.615,0,0
101,63,0,0,4223.205,4205.897,4212.436,4220.255999999999,4218.59,4203.59,4210.897,4208.077,4221.667,4227.308,4208.846,4174.744000000001,4206.154,4203.205,0,0
102,64,0,2107,4211.795,4200.255999999999,4207.436,4212.308,4214.744000000001,4202.308,4204.359,4188.462,4212.308,4217.0509999999995,4199.487,4172.179,4205.641,4187.0509999999995,0,0
103,65,0,2732,4207.308,4196.923,4205.897,4206.026,4212.436,4203.333,4201.538,4183.718,4210.897,4214.231,4198.718,4173.59,4209.359,4185.0,0,0
104,66,0,3128,4213.077,4201.282,4209.615,4212.821,4214.872,4203.846,4203.718,4198.59,4215.0,4216.923,4209.744000000001,4177.564,4210.385,4193.333,0,0
105,67,0,2891,4215.385,4204.103,4208.718,4215.385,4215.769,4207.821,4210.255999999999,4201.154,4216.538,4221.538,4216.538,4180.255999999999,4213.333,4195.0,0,0
106,68,0,3567,4213.333,4206.795,4210.897,4214.103,4218.462,4213.59,4216.923,4196.538,4216.923,4228.205,4216.41,4181.282,4223.974,4193.333,0,0
107,69,0,2986,4213.846,4213.718,4217.692,4221.667,4227.0509999999995,4217.821,4217.9490000000005,4205.897,4219.359,4229.359,4218.205,4181.026,4231.538,4196.41,0,0
108,70,0,3250,4225.255999999999,4223.205,4224.744000000001,4233.333,4233.974,4224.487,4225.385,4221.41,4228.974,4233.205,4232.9490000000005,4186.923,4238.718,4206.538,0,0
109,71,0,3333,4233.718,4223.59,4225.897,4235.128,4232.436,4229.359,4235.513,4221.667,4234.615,4238.846,4245.385,4190.255999999999,4241.923,4214.103,0,0
110,72,0,2913,4231.026,4217.0509999999995,4223.846,4229.487,4235.513,4227.9490000000005,4230.513,4209.744000000001,4225.641,4232.0509999999995,4239.103,4186.923,4233.846,4211.538,0,0
111,73,0,3552,4234.103,4223.462,4226.026,4232.436,4246.795,4234.872,4230.128,4222.308,4228.205,4234.359,4239.872,4186.026,4237.821,4211.667,0,0
112,74,0,2600,4243.974,4234.487,4234.359,4244.103,4253.077,4250.128,4249.615,4248.333,4246.41,4250.513,4256.026,4192.692,4256.282,4225.385,0,0
113,75,0,3244,4251.923,4234.231,4240.769,4250.897,4255.0,4251.795,4256.026,4240.513,4247.692,4253.59,4264.872,4194.615,4268.333,4234.359,0,0
114,76,0,2996,4261.795,4235.128,4244.103,4252.308,4259.231,4249.487,4248.59,4231.795,4240.0,4249.359,4262.0509999999995,4192.308,4262.9490000000005,4235.255999999999,0,0
115,77,0,1045,4258.205,4233.846,4240.641,4250.0,4258.077,4253.846,4253.846,4241.667,4235.897,4248.333,4260.0,4191.538,4251.923,4232.692,0,0
116,78,0,2600,4234.744000000001,4217.821,4230.255999999999,4240.641,4243.077,4240.255999999999,4244.872,4227.179,4224.231,4233.077,4248.462,4189.103,4243.59,4218.59,0,0
117,79,0,3244,4223.333,4207.9490000000005,4222.436,4229.231,4227.436,4216.282,4208.077,4192.436,4210.385,4215.513,4230.128,4182.9490000000005,4239.359,4201.154,0,0
118,80,0,2996,4229.744000000001,4213.846,4224.103,4231.026,4225.513,4218.462,4198.205,4187.436,4211.538,4219.872,4233.846,4182.564,4239.872,4197.821,0,0
119,81,0,1045,4232.821,4218.974,4227.436,4237.308,4235.513,4235.128,4227.821,4212.564,4227.0509999999995,4234.872,4249.615,4187.436,4245.0,4210.0,0,0
120,82,0,2600,4230.641,4220.641,4228.077,4236.41,4238.333,4236.026,4246.154,4232.179,4237.692,4242.308,4250.255999999999,4185.641,4248.333,4216.667,0,0
121,83,0,3244,4232.436,4222.436,4231.282,4237.179,4237.692,4232.179,4241.923,4236.923,4236.538,4248.718,4252.0509999999995,4184.359,4249.615,4217.308,0,0
122,84,0,2996,4234.103,4221.538,4231.026,4239.615,4242.0509999999995,4236.282,4235.128,4231.154,4233.974,4248.077,4260.641,4185.0,4251.154,4216.667,0,0
123,85,0,1045,4227.692,4217.9490000000005,4223.59,4233.333,4237.436,4234.487,4232.564,4232.179,4239.744000000001,4235.641,4255.769,4183.333,4250.128,4208.205,0,0
124,86,0,2600,4223.974,4215.897,4222.9490000000005,4231.795,4234.487,4233.846,4245.385,4249.359,4251.795,4237.436,4253.718,4183.846,4255.513,4207.179,0,0
125,87,0,3244,4229.615,4221.795,4230.513,4241.41,4242.564,4240.385,4259.487,4254.359,4250.769,4248.974,4264.487,4188.077,4264.487,4216.41,0,0
126,88,0,2996,4232.179,4230.769,4230.641,4249.487,4249.231,4243.462,4247.436,4230.0,4236.154,4246.41,4264.615,4186.282,4263.077,4219.744000000001,0,0
127,89,0,1045,4235.128,4233.333,4232.821,4252.821,4254.872,4246.538,4233.974,4220.769,4234.872,4242.564,4265.641,4188.462,4262.821,4223.205,0,0
128,90,0,2600,4242.308,4231.026,4238.718,4254.615,4263.846,4248.59,4247.564,4245.769,4247.308,4248.59,4278.718,4192.9490000000005,4265.641,4233.205,0,0
129,91,0,3244,4246.154,4235.128,4238.077,4255.0,4265.385,4248.718,4262.9490000000005,4256.795,4252.0509999999995,4253.59,4280.641,4193.59,4261.538,4233.077,0,0
130,92,0,2996,4252.821,4245.641,4236.154,4260.769,4264.359,4255.385,4261.795,4247.692,4257.564,4257.821,4276.667,4193.205,4263.205,4231.282,0,0
131,93,0,1045,4264.103,4251.026,4242.564,4267.0509999999995,4267.308,4264.487,4258.462,4244.487,4264.359,4265.641,4283.077,4193.718,4277.308,4243.333,0,0
132,94,0,2600,4261.026,4249.231,4247.821,4263.974,4265.513,4264.487,4264.231,4248.462,4258.205,4259.231,4285.641,4193.718,4280.897,4245.255999999999,0,0
133,95,0,3244,4262.0509999999995,4250.0,4253.718,4267.179,4274.872,4262.564,4278.077,4263.462,4260.255999999999,4260.897,4289.744000000001,4199.744000000001,4275.255999999999,4246.026,0,0
134,96,0,2996,4273.718,4250.128,4261.026,4274.103,4281.923,4266.538,4283.846,4272.692,4270.897,4274.615,4296.538,4205.255999999999,4270.128,4257.692,0,0
135,97,0,1045,4271.282,4243.59,4258.59,4267.9490000000005,4266.667,4265.641,4276.923,4263.59,4266.154,4269.103,4293.846,4200.128,4263.846,4260.897,0,0
136,98,0,2600,4268.333,4242.821,4256.667,4266.795,4263.205,4265.641,4279.359,4272.179,4271.154,4268.846,4300.641,4198.974,4268.205,4264.615,0,0
137,99,0,3244,4281.282,4246.282,4262.821,4275.897,4279.615,4274.487,4293.846,4298.333,4291.795,4293.333,4323.205,4207.0509999999995,4279.744000000001,4284.615,0,0
138,100,0,2996,4293.59,4244.487,4265.897,4277.9490000000005,4281.923,4281.667,4301.795,4300.513,4293.59,4305.641,4331.154,4210.513,4281.795,4299.872,0,0
139,101,0,1045,4296.923,4245.513,4266.026,4276.667,4278.205,4276.282,4292.308,4281.667,4281.154,4297.0509999999995,4325.128,4206.795,4279.615,4298.974,0,0
140,102,0,2600,4296.795,4249.359,4264.615,4276.667,4278.974,4264.487,4270.769,4267.179,4274.487,4287.179,4327.436,4206.41,4278.462,4297.692,0,0
141,103,0,3244,4293.333,4248.333,4259.487,4270.385,4268.718,4256.795,4258.718,4265.255999999999,4270.769,4282.179,4329.359,4207.564,4276.667,4296.154,0,0
142,104,0,2996,4294.872,4246.282,4262.821,4268.718,4263.462,4260.513,4270.385,4276.538,4274.872,4292.821,4327.0509999999995,4210.255999999999,4284.103,4294.744000000001,0,0
143,105,0,1045,4293.974,4241.41,4266.667,4271.282,4270.769,4269.359,4282.9490000000005,4295.897,4287.9490000000005,4306.667,4326.795,4207.9490000000005,4288.205,4295.897,0,0
144,106,0,2600,4283.205,4231.538,4262.564,4266.026,4268.846,4267.308,4278.077,4298.077,4284.615,4292.692,4323.59,4206.538,4276.026,4290.897,0,0
145,107,0,3244,4281.538,4232.436,4262.821,4260.641,4263.59,4260.255999999999,4271.795,4271.795,4269.487,4280.385,4322.0509999999995,4210.769,4276.282,4285.128,0,0
146,108,0,2996,4289.231,4242.179,4270.0,4266.41,4263.846,4259.615,4271.41,4258.718,4267.564,4283.205,4323.462,4215.641,4286.41,4284.487,0,0
147,109,0,1045,4295.255999999999,4248.333,4270.255999999999,4273.974,4268.333,4263.718,4280.255999999999,4281.667,4277.821,4285.385,4324.615,4214.359,4282.692,4289.615,0,0
148,110,0,2600,4293.974,4246.282,4266.154,4272.436,4274.359,4266.667,4292.436,4293.205,4283.718,4291.41,4325.641,4213.077,4280.513,4294.487,0,0
149,111,0,3244,4281.41,4237.179,4259.103,4263.205,4271.538,4260.641,4282.436,4265.641,4270.0,4285.513,4316.923,4209.231,4281.795,4281.41,0,0
150,112,0,2996,4270.0,4232.179,4252.821,4257.821,4261.538,4255.128,4258.077,4248.59,4257.436,4272.179,4303.333,4203.077,4275.641,4265.128,0,0
151,113,0,1045,4275.513,4233.846,4260.128,4261.667,4264.359,4262.821,4258.333,4260.769,4270.385,4281.154,4307.436,4206.923,4276.795,4271.538,0,0
152,114,0,2600,4284.231,4235.897,4262.9490000000005,4264.231,4273.333,4270.128,4276.795,4267.692,4277.821,4291.026,4312.564,4210.128,4284.359,4278.462,0,0
153,115,0,3244,4277.821,4239.615,4257.564,4262.179,4271.154,4266.41,4282.821,4275.897,4269.231,4281.667,4300.641,4206.538,4275.255999999999,4267.308,0,0
154,116,0,2996,4270.0,4240.513,4254.872,4260.513,4263.462,4262.692,4279.615,4287.0509999999995,4269.744000000001,4271.026,4295.769,4204.744000000001,4265.385,4261.154,0,0
155,117,0,1045,4270.128,4233.462,4255.0,4259.231,4261.41,4261.41,4280.128,4283.333,4271.41,4269.487,4304.103,4209.231,4273.205,4265.769,0,0
156,118,0,2600,4271.667,4231.41,4255.0,4256.795,4262.436,4259.103,4280.513,4279.615,4266.154,4273.59,4307.436,4208.974,4278.718,4268.205,0,0
157,119,0,3244,4267.564,4233.333,4253.846,4251.282,4257.436,4256.41,4268.077,4274.744000000001,4263.974,4271.026,4300.128,4207.179,4266.667,4266.026,0,0
158,120,0,2996,4258.718,4224.615,4245.641,4243.205,4244.359,4246.154,4246.538,4249.744000000001,4252.692,4249.744000000001,4283.718,4204.231,4249.615,4253.59,0,0
159,121,0,1045,4258.59,4221.282,4242.9490000000005,4242.179,4244.744000000001,4245.641,4247.821,4237.0509999999995,4243.077,4242.692,4279.487,4203.205,4251.154,4246.154,0,0
160,122,0,2600,4259.872,4225.128,4246.795,4249.359,4259.359,4262.692,4267.436,4257.564,4255.897,4258.077,4287.564,4202.179,4257.0509999999995,4251.154,0,0
161,123,0,3244,4254.103,4222.9490000000005,4245.0,4246.026,4256.41,4260.513,4267.564,4271.923,4263.333,4258.333,4284.103,4201.026,4247.821,4247.179,0,0
162,124,0,2996,4262.436,4228.718,4247.564,4243.59,4251.41,4248.718,4265.769,4280.0,4260.128,4263.718,4284.231,4203.462,4251.41,4248.846,0,0
163,125,0,1045,4280.641,4240.897,4258.205,4258.59,4259.103,4252.308,4263.59,4277.179,4263.077,4281.282,4300.897,4210.769,4270.128,4264.487,0,0
164,126,0,2600,4278.077,4237.308,4255.641,4259.744000000001,4257.179,4253.462,4251.795,4260.128,4262.436,4270.385,4300.385,4212.0509999999995,4261.026,4264.359,0,0
165,127,0,51,4270.385,4232.564,4250.128,4247.9490000000005,4251.667,4250.0,4268.846,4269.487,4262.821,4260.641,4290.513,4208.59,4244.872,4258.718,0,0
166,0,0,2102,4274.744000000001,4232.308,4251.282,4251.795,4254.103,4246.026,4271.538,4261.538,4261.41,4274.359,4295.641,4210.513,4258.462,4265.0,0,0
167,1,0,2726,4267.436,4222.821,4248.462,4253.462,4250.385,4237.179,4224.872,4220.0,4250.513,4272.821,4296.41,4209.615,4263.205,4262.821,0,0
168,2,0,3115,4257.436,4222.436,4244.487,4245.897,4245.0,4237.436,4213.077,4218.718,4242.692,4257.308,4285.385,4203.333,4248.205,4250.897,0,0
169,3,0,2882,4263.077,4232.564,4245.641,4247.9490000000005,4253.077,4250.0,4250.128,4252.308,4249.615,4259.744000000001,4283.846,4202.692,4247.436,4251.282,0,0
170,4,0,3571,4264.872,4230.513,4250.128,4251.026,4255.0,4252.308,4254.487,4261.795,4262.821,4269.359,4290.513,4208.718,4253.333,4256.538,0,0
171,5,0,3001,4260.385,4224.744000000001,4250.385,4248.333,4250.641,4247.308,4241.41,4261.41,4265.255999999999,4270.897,4295.0,4207.9490000000005,4251.667,4254.359,0,0
172,6,0,3263,4258.462,4225.513,4245.641,4245.513,4246.41,4243.077,4250.641,4261.667,4253.333,4268.333,4296.154,4203.718,4247.179,4250.255999999999,0,0
173,7,0,3322,4251.154,4220.641,4241.282,4236.41,4237.436,4234.487,4246.282,4244.359,4243.846,4260.128,4288.846,4202.0509999999995,4238.462,4244.615,0,0
174,8,0,2914,4246.923,4215.513,4240.255999999999,4231.667,4233.462,4232.692,4232.436,4235.385,4245.897,4254.615,4281.026,4202.821,4229.359,4237.821,0,0
175,9,0,3559,4247.308,4216.538,4234.359,4234.487,4234.487,4234.872,4228.333,4231.795,4238.718,4251.282,4276.282,4197.308,4223.846,4230.641,0,0
176,10,0,2599,4240.897,4213.974,4230.513,4230.385,4231.667,4231.154,4228.718,4227.308,4223.846,4239.744000000001,4266.923,4195.513,4215.641,4225.513,0,0
177,11,0,3239,4236.41,4213.333,4232.436,4227.821,4232.0509999999995,4232.179,4232.436,4237.436,4230.128,4237.308,4263.59,4199.872,4212.0509999999995,4227.692,0,0
178,12,0,2996,4243.59,4216.026,4232.0509999999995,4232.0509999999995,4242.0509999999995,4240.769,4235.0,4235.255999999999,4241.667,4247.308,4273.59,4198.718,4216.667,4232.692,0,0
179,13,0,1045,4245.641,4215.255999999999,4232.179,4231.795,4243.462,4243.718,4235.255999999999,4222.308,4237.179,4250.513,4278.205,4195.641,4219.615,4236.667,0,0
180,14,0,2599,4236.282,4212.692,4230.641,4229.103,4234.487,4234.487,4231.923,4225.897,4231.538,4244.359,4268.974,4197.821,4218.59,4228.974,0,0
181,15,0,3239,4232.308,4212.9490000000005,4226.026,4227.564,4231.154,4228.462,4230.513,4237.0509999999995,4237.308,4248.718,4265.255999999999,4195.128,4219.231,4218.077,0,0
182,16,0,0,4235.128,4213.205,4225.897,4225.513,4232.308,4231.795,4233.333,4232.564,4237.692,4247.692,4267.564,4191.154,4217.436,4216.154,0,0
183,17,0,0,4235.255999999999,4213.718,4229.872,4226.795,4230.385,4227.436,4231.795,4226.667,4231.026,4233.462,4268.462,4197.179,4213.462,4218.718,0,0
184,18,0,0,4240.769,4216.923,4232.308,4231.795,4230.641,4226.154,4230.769,4244.487,4240.769,4243.205,4276.795,4202.436,4216.282,4220.385,0,0
185,19,0,0,4246.154,4217.821,4233.846,4233.59,4233.333,4239.487,4232.436,4249.744000000001,4248.462,4255.385,4278.974,4199.744000000001,4220.128,4218.846,0,0
186,20,0,0,4237.9490000000005,4215.513,4232.9490000000005,4233.59,4235.385,4244.487,4236.538,4247.692,4246.795,4245.641,4270.897,4196.41,4216.026,4216.795,0,0
187,21,0,0,4229.872,4214.231,4234.103,4230.385,4237.0509999999995,4235.128,4237.692,4266.538,4254.615,4247.0509999999995,4266.538,4196.026,4216.282,4215.128,0,0
188,22,0,0,4233.974,4217.0509999999995,4232.821,4224.487,4226.667,4217.9490000000005,4216.923,4246.667,4245.385,4251.41,4267.9490000000005,4194.103,4227.0509999999995,4212.821,0,0
189,23,0,0,4237.308,4217.436,4226.41,4224.744000000001,4212.436,4209.487,4193.59,4188.59,4220.128,4229.487,4265.128,4195.641,4230.641,4210.0,0,0
190,24,0,0,4225.385,4202.692,4217.9490000000005,4220.641,4215.513,4228.077,4205.769,4194.103,4225.769,4221.154,4256.667,4191.41,4224.872,4202.436,0,0
191,25,0,0,4210.641,4189.103,4214.359,4206.41,4223.718,4239.487,4224.744000000001,4237.692,4241.026,4239.103,4244.744000000001,4181.923,4226.026,4190.641,0,0
192,26,0,0,4216.026,4198.333,4218.718,4207.9490000000005,4214.872,4219.744000000001,4213.077,4226.026,4221.154,4230.513,4241.026,4180.769,4223.59,4190.0,0,0
193,27,0,0,4249.744000000001,4230.641,4236.538,4238.974,4211.282,4204.615,4208.205,4210.513,4207.692,4220.385,4265.0,4196.41,4216.923,4223.846,0,0
194,28,0,0,4238.333,4215.385,4230.513,4229.872,4230.385,4248.462,4231.026,4222.308,4241.538,4231.667,4268.205,4198.333,4228.333,4224.487,0,0
195,29,0,0,4164.359,4145.897,4189.872,4168.718,4232.692,4287.436,4220.128,4228.59,4271.795,4229.359,4217.821,4174.615,4236.667,4157.821,0,0
196,30,0,0,4168.077,4155.897,4190.769,4173.974,4202.564,4221.667,4178.462,4225.385,4242.692,4234.744000000001,4217.0509999999995,4173.59,4228.462,4153.718,0,0
197,31,0,0,4243.333,4229.872,4228.59,4233.462,4185.769,4165.897,4192.308,4206.41,4199.231,4241.795,4273.462,4195.769,4213.462,4221.538,0,0
198,32,0,0,4201.667,4190.0,4201.026,4196.667,4184.615,4215.128,4207.821,4163.974,4196.667,4186.154,4228.333,4182.179,4171.41,4182.436,0,0
199,33,0,0,4095.513,4083.333,4139.744000000001,4115.769,4176.026,4238.333,4143.59,4127.436,4195.769,4139.872,4126.026,4145.128,4145.128,4072.949,0,0
200,34,0,0,4131.795,4115.385,4167.308,4147.308,4171.923,4168.59,4112.0509999999995,4145.641,4183.205,4198.718,4163.333,4158.718,4185.128,4107.308,0,0
201,35,0,0,4209.744000000001,4205.0,4218.462,4201.667,4165.0,4130.385,4165.513,4185.128,4194.615,4235.897,4237.564,4186.795,4197.564,4194.359,0,0
202,36,0,0,4138.077,4156.282,4180.0,4149.359,4142.308,4148.59,4154.359,4157.821,4183.974,4151.282,4166.41,4163.718,4133.974,4128.462,0,0
203,37,0,0,4043.205,4072.308,4130.128,4090.6409999999996,4123.205,4135.641,4078.8459999999995,4099.359,4131.41,4086.282,4083.077,4134.487,4115.255999999999,4033.59,0,0
204,38,0,0,4057.4359999999997,4084.103,4144.231,4107.0509999999995,4109.103,4101.667,4082.821,4102.179,4110.897,4101.923,4098.462,4142.179,4160.897,4049.2309999999998,0,0
205,39,0,0,4078.718,4112.436,4150.0,4115.0,4083.462,4076.1540000000005,4108.974,4111.538,4113.077,4095.0,4102.9490000000005,4145.128,4187.308,4067.692,0,0
206,40,0,0,4027.5640000000003,4084.487,4102.821,4067.051,4041.026,4051.795,4041.41,4042.949,4072.179,4027.179,4041.41,4122.9490000000005,4195.897,4004.487,0,0
207,41,0,0,3982.051,4043.8459999999995,4068.718,4037.051,3998.077,4022.051,3970.7690000000002,3985.513,4031.41,3976.538,3998.462,4104.231,4215.128,3961.026,0,0
208,42,0,0,3975.1279999999997,4022.308,4070.6409999999996,4040.1279999999997,3979.3590000000004,4001.795,3976.667,3995.1279999999997,4030.6409999999996,3966.282,4003.8459999999995,4101.538,4231.923,3971.667,0,0
209,43,0,0,3951.923,3995.256,4066.667,4017.4359999999997,3971.923,3994.8720000000003,3983.59,3987.692,4018.077,3945.897,3992.5640000000003,4097.692,4234.359,3960.0,0,0
210,44,0,0,3924.3590000000004,3981.41,4057.692,3985.256,3956.667,3986.41,3960.513,3948.333,3992.4359999999997,3919.3590000000004,3957.692,4091.41,4226.154,3935.1279999999997,0,0
211,45,0,0,3920.385,4002.051,4052.051,3981.282,3944.8720000000003,3990.256,3959.103,3959.615,4006.41,3901.923,3944.744,4088.077,4205.385,3932.051,0,0
212,46,0,0,3928.205,4031.923,4055.385,3992.821,3951.41,3997.179,3973.077,3996.795,4032.4359999999997,3904.744,3966.41,4092.692,4189.359,3942.4359999999997,0,0
213,47,0,0,3950.6409999999996,4043.077,4075.897,4004.2309999999998,3972.821,3996.538,3977.692,3992.051,4027.821,3932.051,3988.077,4101.795,4186.154,3966.538,0,0
214,48,0,0,3967.051,4018.462,4086.667,4000.385,3982.4359999999997,4001.795,3982.179,3987.051,4019.2309999999998,3937.949,3980.1279999999997,4102.692,4168.077,3989.744,0,0
215,49,0,0,3960.1279999999997,4003.462,4080.0,3987.179,3977.5640000000003,4012.051,3987.949,4001.41,4031.667,3917.5640000000003,3965.385,4102.0509999999995,4142.9490000000005,3987.051,0,0
216,50,0,0,3961.1540000000005,4037.308,4087.5640000000003,3997.4359999999997,3986.026,4019.487,3989.8720000000003,4001.923,4046.538,3930.7690000000002,3978.59,4107.436,4139.487,3989.2309999999998,0,0
217,51,0,0,3984.8720000000003,4077.5640000000003,4113.333,4025.1279999999997,4011.795,4039.3590000000004,4010.897,4029.615,4059.103,3967.821,4003.59,4119.744000000001,4146.282,4021.538,0,0
218,52,0,0,3993.974,4052.308,4115.641,4033.462,4011.923,4056.923,4037.949,4068.59,4069.487,3967.179,3999.744,4125.769,4142.0509999999995,4038.462,0,0
219,53,0,0,4000.7690000000002,4011.667,4097.9490000000005,4032.308,3991.923,4053.077,4039.103,4047.179,4069.8720000000003,3951.923,3983.8459999999995,4127.179,4140.128,4039.2309999999998,0,0
220,54,0,0,4026.1540000000005,4049.2309999999998,4080.256,4031.923,3992.692,4038.718,4020.897,4006.1540000000005,4055.7690000000002,3944.615,3978.974,4126.282,4133.974,4055.385,0,0
221,55,0,0,4038.59,4088.718,4071.41,4025.256,4008.59,4040.1279999999997,4013.205,4010.897,4048.974,3938.8459999999995,3974.615,4125.385,4124.359,4069.103,0,0
222,56,0,0,4040.0,4070.0,4075.256,4026.538,4020.385,4058.205,4029.2309999999998,4032.4359999999997,4060.6409999999996,3944.103,3971.538,4123.59,4119.744000000001,4065.256,0,0
223,57,0,0,4057.692,4058.59,4085.513,4038.077,4013.077,4058.8459999999995,4047.692,4032.949,4061.538,3945.7690000000002,3972.179,4121.923,4110.769,4067.051,0,0
224,58,0,0,4073.462,4076.667,4094.3590000000004,4042.179,4007.692,4046.026,4036.282,4025.897,4054.615,3938.333,3973.077,4117.179,4103.205,4080.0,0,0
225,59,0,0,4082.692,4092.4359999999997,4103.205,4047.179,4019.103,4049.103,4012.692,4035.1279999999997,4066.026,3955.256,3985.513,4117.436,4106.795,4097.821,0,0
226,60,0,0,4098.846,4099.872,4115.255999999999,4061.795,4036.026,4067.308,4032.051,4062.821,4085.6409999999996,3991.41,4007.4359999999997,4127.9490000000005,4114.231,4114.615,0,0
227,61,0,0,4103.974,4108.462,4119.872,4066.538,4044.744,4081.282,4066.795,4081.282,4092.051,3998.077,4011.1540000000005,4135.769,4112.179,4115.385,0,0
228,62,0,0,4094.3590000000004,4113.077,4115.0,4060.256,4043.077,4081.026,4065.6409999999996,4075.513,4090.1279999999997,3987.308,4005.7690000000002,4134.359,4109.231,4105.128,0,0
229,63,0,0,4099.359,4120.513,4115.513,4066.923,4047.051,4080.0,4067.051,4077.308,4091.923,3996.923,4012.308,4134.615,4109.487,4106.923,0,0
230,64,0,2103,4110.385,4126.41,4117.436,4077.051,4052.4359999999997,4081.282,4068.59,4078.974,4086.026,4001.41,4007.4359999999997,4137.692,4102.308,4108.59,0,0
231,65,0,2726,4106.41,4122.821,4110.769,4071.667,4051.282,4081.795,4051.1540000000005,4065.513,4075.6409999999996,3990.6409999999996,3992.949,4132.308,4095.385,4101.923,0,0
232,66,0,3120,4107.436,4120.385,4109.744000000001,4068.077,4053.59,4083.205,4054.2309999999998,4070.385,4083.59,4006.795,4004.2309999999998,4131.538,4104.359,4108.718,0,0
233,67,0,2878,4117.821,4124.359,4114.615,4074.487,4061.026,4090.0,4078.462,4096.026,4103.462,4036.1540000000005,4024.103,4134.615,4115.128,4118.59,0,0
234,68,0,3573,4122.692,4129.744000000001,4116.41,4076.667,4062.179,4093.205,4085.0,4100.513,4103.59,4036.538,4022.4359999999997,4136.923,4111.282,4116.538,0,0
235,69,0,2983,4123.974,4133.205,4116.923,4076.026,4064.744,4091.026,4075.513,4086.667,4092.5640000000003,4029.8720000000003,4019.103,4138.462,4102.0509999999995,4120.897,0,0
236,70,0,3254,4121.667,4133.974,4117.179,4079.2309999999998,4071.1540000000005,4093.8459999999995,4079.744,4089.3590000000004,4096.923,4033.718,4018.462,4139.359,4091.667,4121.795,0,0
237,71,0,3326,4121.154,4137.436,4114.744000000001,4079.8720000000003,4070.897,4092.821,4089.487,4098.718,4105.128,4039.3590000000004,4017.692,4139.231,4093.205,4112.692,0,0
238,72,0,2912,4122.821,4138.59,4113.077,4079.2309999999998,4070.513,4090.256,4077.051,4093.077,4099.359,4048.59,4023.333,4139.872,4107.9490000000005,4112.692,0,0
239,73,0,3561,4122.179,4133.462,4112.821,4078.974,4072.4359999999997,4092.179,4060.897,4083.8459999999995,4092.821,4055.6409999999996,4026.538,4137.821,4106.538,4116.923,0,0
240,74,0,2588,4136.41,4139.231,4122.436,4084.3590000000004,4079.3590000000004,4091.538,4077.949,4097.0509999999995,4102.436,4065.1279999999997,4035.7690000000002,4141.282,4102.9490000000005,4126.667,0,0
241,75,0,3237,4151.154,4146.667,4132.179,4091.667,4087.179,4092.692,4097.436,4119.615,4109.487,4081.1540000000005,4045.7690000000002,4148.077,4111.538,4136.667,0,0
242,76,0,2999,4150.0,4140.641,4134.872,4091.923,4093.462,4104.744000000001,4098.462,4128.59,4108.462,4090.0,4047.308,4149.103,4107.821,4130.641,0,0
243,77,0,1038,4150.128,4138.333,4139.487,4091.282,4100.769,4120.255999999999,4118.462,4126.41,4114.103,4089.103,4051.795,4151.026,4096.795,4126.41,0,0
244,78,0,2588,4148.59,4138.205,4138.462,4092.821,4102.821,4120.0,4125.128,4118.205,4115.255999999999,4092.692,4055.1279999999997,4156.154,4102.9490000000005,4126.795,0,0
245,79,0,3237,4135.513,4126.154,4128.718,4089.8720000000003,4096.667,4105.897,4093.59,4116.026,4109.359,4102.0509999999995,4052.949,4155.255999999999,4110.769,4113.077,0,0
246,80,0,2999,4134.872,4121.795,4129.359,4090.1279999999997,4098.974,4105.255999999999,4086.795,4123.974,4115.513,4105.255999999999,4062.179,4152.0509999999995,4103.59,4106.154,0,0
247,81,0,1038,4148.718,4136.282,4140.255999999999,4102.0509999999995,4114.872,4119.231,4111.41,4121.795,4123.59,4111.41,4077.949,4156.923,4101.795,4121.282,0,0
248,82,0,2588,4151.923,4141.667,4142.821,4110.0,4121.282,4128.59,4123.333,4119.615,4126.667,4134.615,4087.051,4163.846,4116.026,4129.744000000001,0,0
249,83,0,3237,4158.077,4137.564,4149.103,4112.564,4123.846,4132.308,4127.821,4140.897,4136.667,4157.0509999999995,4100.769,4171.154,4127.308,4131.795,0,0
250,84,0,2999,4168.462,4143.59,4158.59,4120.513,4133.333,4137.179,4136.41,4159.744000000001,4142.821,4155.897,4113.462,4171.923,4125.0,4138.077,0,0
251,85,0,1038,4170.641,4153.846,4161.795,4132.9490000000005,4141.026,4137.564,4145.0,4162.179,4138.462,4153.205,4118.846,4170.255999999999,4120.897,4141.026,0,0
252,86,0,2588,4172.821,4157.436,4164.744000000001,4137.179,4142.179,4140.897,4157.179,4167.564,4139.103,4166.41,4127.564,4174.359,4127.692,4144.615,0,0
253,87,0,3237,4168.974,4151.282,4163.846,4130.769,4136.154,4143.846,4154.872,4168.462,4139.487,4162.308,4127.0509999999995,4179.103,4128.205,4140.513,0,0
254,88,0,2999,4168.333,4150.128,4160.128,4130.897,4143.718,4141.41,4144.487,4169.744000000001,4139.231,4150.769,4122.821,4177.308,4126.41,4137.564,0,0
255,89,0,1038,4178.333,4155.769,4164.487,4139.615,4152.179,4141.41,4149.744000000001,4170.513,4140.769,4162.9490000000005,4132.308,4177.692,4136.41,4147.692,0,0
256,90,0,2588,4180.128,4154.103,4169.744000000001,4140.255999999999,4142.821,4141.026,4155.255999999999,4171.667,4143.462,4174.487,4142.0509999999995,4179.487,4136.026,4150.255999999999,0,0
257,91,0,3237,4175.513,4152.821,4169.231,4137.564,4142.821,4141.923,4151.538,4178.846,4148.077,4170.128,4142.0509999999995,4179.231,4128.205,4146.923,0,0
258,92,0,2999,4175.0,4150.385,4165.513,4140.385,4155.769,4145.769,4154.231,4179.487,4142.821,4170.0,4139.744000000001,4175.128,4127.564,4142.9490000000005,0,0
259,93,0,1038,4170.641,4143.974,4160.769,4137.692,4152.0509999999995,4148.333,4161.154,4175.128,4138.974,4172.308,4136.667,4173.333,4126.282,4132.9490000000005,0,0
260,94,0,2588,4164.103,4144.872,4159.615,4134.615,4142.0509999999995,4148.718,4156.538,4165.513,4148.333,4169.487,4137.564,4173.205,4124.615,4128.333,0,0
261,95,0,3237,4170.513,4153.205,4166.154,4142.308,4151.538,4151.026,4146.667,4152.821,4153.205,4175.513,4146.923,4172.9490000000005,4133.333,4138.333,0,0
262,96,0,2999,4180.385,4154.359,4174.359,4152.9490000000005,4159.359,4157.436,4156.41,4165.897,4150.0,4187.564,4159.103,4176.795,4140.513,4146.538,0,0
263,97,0,1038,4174.487,4150.513,4175.128,4155.385,4156.282,4159.615,4172.436,4188.077,4155.0,4190.0,4160.385,4175.385,4136.667,4142.179,0,0
264,98,0,2588,4167.692,4150.0,4170.385,4150.385,4159.872,4158.205,4161.282,4171.538,4157.179,4181.282,4154.103,4169.487,4136.667,4136.667,0,0
265,99,0,3237,4173.974,4153.846,4166.41,4152.821,4167.692,4161.41,4148.077,4153.846,4150.255999999999,4174.744000000001,4158.974,4169.359,4137.692,4140.513,0,0
266,100,0,2999,4184.359,4161.41,4173.205,4162.0509999999995,4174.359,4172.9490000000005,4161.026,4177.436,4156.282,4181.282,4168.718,4177.0509999999995,4134.872,4152.692,0,0
267,101,0,1038,4184.487,4160.513,4179.359,4163.205,4174.872,4173.59,4173.846,4199.103,4171.667,4195.897,4175.769,4177.821,4143.718,4155.255999999999,0,0
268,102,0,2588,4183.974,4156.41,4178.974,4159.744000000001,4172.436,4166.538,4178.205,4202.179,4178.59,4205.128,4189.487,4177.436,4155.0,4154.359,0,0
269,103,0,3237,4182.692,4159.615,4176.795,4161.154,4173.59,4175.641,4187.436,4200.897,4172.564,4201.41,4195.128,4177.692,4147.9490000000005,4157.179,0,0
270,104,0,2999,4175.385,4155.128,4173.205,4158.974,4172.821,4181.538,4185.897,4203.59,4170.769,4195.897,4180.255999999999,4174.872,4138.846,4150.385,0,0
271,105,0,1038,4175.769,4147.9490000000005,4173.333,4152.308,4167.821,4168.974,4179.231,4219.872,4184.744000000001,4201.667,4179.872,4176.154,4147.821,4148.462,0,0
272,106,0,2588,4183.846,4157.692,4179.103,4159.615,4169.615,4167.821,4186.282,4221.154,4188.718,4208.718,4199.231,4179.103,4156.41,4159.103,0,0
273,107,0,3237,4182.308,4162.692,4177.308,4166.795,4177.564,4176.026,4181.795,4191.154,4170.255999999999,4198.462,4192.436,4173.205,4150.513,4153.59,0,0
274,108,0,2999,4182.308,4157.0509999999995,4176.667,4164.487,4182.692,4175.641,4173.333,4192.692,4168.59,4193.59,4182.9490000000005,4171.026,4149.359,4147.179,0,0
275,109,0,1038,4196.026,4168.333,4190.641,4174.615,4193.077,4182.821,4195.385,4224.231,4186.667,4211.538,4202.9490000000005,4179.359,4158.59,4170.0,0,0
276,110,0,2588,4212.308,4186.795,4199.359,4189.872,4204.487,4201.026,4220.513,4213.718,4187.821,4227.564,4220.0,4184.231,4167.692,4191.41,0,0
277,111,0,3237,4215.0,4186.923,4196.923,4192.308,4204.744000000001,4203.205,4207.179,4194.487,4190.641,4232.308,4224.872,4184.487,4174.231,4189.615,0,0
278,112,0,2999,4207.0509999999995,4177.9490000000005,4192.0509999999995,4186.667,4200.641,4194.487,4181.282,4209.359,4201.282,4235.897,4228.077,4178.205,4175.0,4182.692,0,0
279,113,0,1038,4202.9490000000005,4177.0509999999995,4191.667,4185.897,4202.179,4195.769,4180.641,4213.077,4193.333,4234.615,4222.179,4171.026,4172.179,4178.59,0,0
280,114,0,2588,4204.231,4186.41,4193.333,4191.41,4209.615,4197.0509999999995,4192.436,4200.128,4186.154,4229.872,4216.026,4171.538,4170.385,4180.255999999999,0,0
281,115,0,3237,4204.103,4194.359,4193.974,4199.872,4214.487,4193.846,4203.205,4221.41,4199.872,4233.077,4228.718,4179.231,4173.333,4190.255999999999,0,0
282,116,0,2999,4202.436,4189.615,4191.538,4199.615,4214.744000000001,4194.359,4205.897,4239.487,4201.795,4231.795,4235.255999999999,4179.872,4170.128,4191.282,0,0
283,117,0,1038,4206.282,4188.974,4196.282,4196.41,4215.641,4200.513,4206.026,4218.974,4192.821,4229.615,4230.385,4180.769,4162.436,4189.487,0,0
284,118,0,2588,4208.846,4201.154,4203.846,4202.9490000000005,4219.872,4203.077,4209.231,4218.077,4203.462,4246.795,4241.026,4184.872,4174.487,4199.487,0,0
285,119,0,3237,4203.462,4202.9490000000005,4202.821,4205.769,4217.692,4194.103,4201.667,4229.231,4207.692,4253.462,4250.513,4185.255999999999,4185.513,4204.231,0,0
286,120,0,2999,4200.513,4192.308,4198.077,4198.077,4207.436,4186.795,4185.897,4203.846,4192.0509999999995,4236.923,4244.359,4183.205,4177.0509999999995,4201.538,0,0
287,121,0,1038,4197.9490000000005,4185.0,4192.9490000000005,4192.179,4200.128,4185.128,4182.436,4182.179,4182.436,4226.538,4233.462,4182.564,4167.564,4199.103,0,0
288,122,0,2588,4196.795,4191.154,4191.667,4194.103,4204.615,4187.308,4193.077,4206.538,4187.692,4229.744000000001,4231.795,4182.308,4168.333,4195.769,0,0
289,123,0,3237,4207.436,4200.641,4200.641,4201.923,4215.0,4193.077,4202.9490000000005,4220.513,4195.0,4234.103,4241.795,4187.308,4171.538,4196.538,0,0
290,124,0,2999,4212.692,4200.385,4209.744000000001,4204.359,4218.846,4196.795,4206.026,4210.128,4196.923,4235.641,4249.615,4192.308,4172.0509999999995,4203.462,0,0
291,125,0,1038,4205.897,4197.308,4210.0,4204.231,4216.41,4198.462,4205.385,4221.923,4198.333,4230.513,4247.179,4189.487,4168.846,4202.0509999999995,0,0
292,126,0,2588,4209.872,4200.641,4209.231,4210.255999999999,4218.718,4203.205,4205.255999999999,4228.205,4199.231,4230.769,4246.154,4187.9490000000005,4170.0,4196.41,0,0
293,127,0,51,4219.744000000001,4205.128,4212.436,4216.923,4226.795,4205.255999999999,4206.538,4217.179,4200.897,4242.564,4254.359,4190.385,4178.718,4204.231,0,0
294,0,0,2108,4217.564,4208.718,4214.615,4215.255999999999,4230.769,4198.974,4201.026,4214.103,4198.077,4238.846,4253.59,4191.154,4176.923,4214.872,0,0
295,1,0,2735,4217.9490000000005,4212.179,4215.0,4215.641,4231.154,4204.872,4203.974,4216.538,4195.0,4228.205,4244.744000000001,4186.026,4171.154,4214.872,0,0
296,2,0,3127,4227.564,4216.026,4220.641,4225.897,4232.821,4220.128,4223.462,4233.205,4208.718,4241.026,4252.564,4186.154,4179.231,4216.026,0,0
297,3,0,2892,4228.718,4220.255999999999,4220.769,4228.462,4233.077,4216.41,4228.846,4254.359,4219.744000000001,4255.513,4263.462,4188.462,4185.513,4219.872,0,0
298,4,0,3578,4215.641,4214.103,4212.0509999999995,4218.718,4229.615,4208.205,4218.462,4234.487,4208.59,4247.436,4255.641,4185.255999999999,4184.615,4212.308,0,0
299,5,0,2999,4203.462,4202.564,4205.641,4213.59,4229.615,4213.59,4214.872,4198.974,4195.897,4236.795,4245.0,4179.615,4184.359,4200.769,0,0
300,6,0,3273,4205.0,4205.128,4207.436,4216.538,4233.974,4216.538,4215.513,4205.0,4195.897,4231.154,4246.795,4180.769,4180.897,4200.641,0,0
301,7,0,3341,4210.769,4211.538,4211.282,4216.923,4234.359,4212.9490000000005,4221.026,4232.436,4203.077,4232.179,4250.769,4185.255999999999,4180.641,4211.026,0,0
302,8,0,2924,4205.255999999999,4205.769,4211.538,4213.205,4231.282,4215.128,4227.308,4236.154,4209.231,4240.255999999999,4249.615,4186.282,4188.077,4213.205,0,0
303,9,0,3560,4200.128,4197.692,4209.103,4212.692,4229.231,4217.564,4223.333,4221.026,4204.615,4239.359,4249.231,4184.231,4187.436,4203.846,0,0
304,10,0,2603,4207.692,4200.385,4213.205,4215.128,4230.641,4212.821,4213.59,4219.231,4196.026,4236.538,4252.0509999999995,4184.231,4182.821,4203.718,0,0
305,11,0,3244,4214.872,4210.641,4219.872,4218.718,4233.974,4212.692,4217.821,4233.462,4201.154,4246.282,4258.077,4186.538,4185.897,4215.255999999999,0,0
306,12,0,2999,4215.897,4217.9490000000005,4221.923,4220.769,4235.255999999999,4219.872,4230.769,4239.103,4206.41,4247.0509999999995,4265.128,4187.564,4188.077,4221.667,0,0
307,13,0,1044,4216.41,4217.436,4217.692,4215.641,4233.974,4220.513,4228.59,4233.077,4199.872,4234.872,4262.692,4185.128,4181.282,4219.744000000001,0,0
308,14,0,2603,4215.513,4214.103,4214.487,4207.692,4231.538,4212.821,4213.718,4225.255999999999,4197.179,4234.744000000001,4253.462,4183.205,4179.359,4216.795,0,0
309,15,0,3244,4217.9490000000005,4216.667,4218.974,4210.897,4237.692,4220.385,4222.692,4227.821,4200.513,4238.205,4251.795,4187.821,4182.436,4215.641,0,0
310,16,0,0,4220.641,4221.282,4221.026,4220.897,4245.769,4234.744000000001,4241.154,4228.974,4200.769,4237.436,4260.641,4187.308,4185.385,4217.9490000000005,0,0
311,17,0,0,4216.795,4217.436,4212.821,4212.9490000000005,4238.205,4221.795,4214.744000000001,4208.462,4198.59,4245.769,4264.872,4183.077,4190.513,4216.282,0,0
312,18,0,0,4213.974,4213.462,4207.692,4201.154,4228.077,4208.846,4186.026,4192.692,4196.282,4250.128,4259.487,4183.077,4191.923,4211.154,0,0
313,19,0,0,4215.385,4217.179,4214.487,4206.923,4231.795,4221.667,4205.385,4212.564,4195.513,4238.718,4253.077,4187.9490000000005,4184.872,4208.846,0,0
314,20,0,0,4207.0509999999995,4213.846,4213.077,4208.59,4233.59,4223.205,4222.821,4230.897,4196.795,4230.0,4249.231,4185.385,4181.282,4203.205,0,0
315,21,0,0,4203.205,4206.923,4209.103,4199.744000000001,4226.667,4210.0,4215.0,4225.385,4200.641,4237.9490000000005,4248.846,4183.59,4189.359,4199.231,0,0
316,22,0,0,4213.333,4214.359,4214.872,4200.769,4226.538,4213.462,4213.974,4225.641,4203.462,4243.077,4250.255999999999,4186.538,4190.0,4205.128,0,0
317,23,0,0,4214.487,4221.026,4217.308,4206.667,4228.333,4220.128,4219.872,4232.179,4204.231,4236.923,4249.231,4186.154,4183.718,4205.128,0,0
318,24,0,0,4201.667,4209.615,4210.255999999999,4200.513,4224.872,4214.744000000001,4216.667,4227.692,4202.308,4231.282,4245.385,4183.333,4190.769,4197.436,0,0
319,25,0,0,4201.026,4203.59,4210.128,4199.744000000001,4226.923,4218.846,4222.821,4233.462,4204.231,4238.846,4248.718,4185.897,4198.846,4203.846,0,0
320,26,0,0,4214.872,4215.128,4218.59,4214.487,4235.513,4229.615,4236.538,4254.359,4217.564,4251.795,4263.974,4190.769,4195.769,4220.0,0,0
321,27,0,0,4216.795,4221.538,4215.897,4217.308,4237.9490000000005,4226.41,4230.0,4247.692,4217.9490000000005,4247.9490000000005,4265.897,4190.769,4193.718,4222.308,0,0
322,28,0,0,4206.41,4210.897,4207.436,4204.231,4230.769,4216.026,4215.769,4220.769,4204.359,4232.821,4254.615,4186.667,4195.255999999999,4211.154,0,0
323,29,0,0,4201.154,4200.128,4206.154,4197.179,4225.128,4217.308,4214.744000000001,4220.769,4205.769,4229.872,4248.59,4183.59,4189.872,4203.718,0,0
324,30,0,0,4196.41,4199.103,4206.41,4199.615,4227.436,4228.205,4219.359,4226.923,4210.897,4230.641,4240.513,4182.821,4184.487,4197.0509999999995,0,0
325,31,0,0,4193.974,4201.667,4208.077,4202.9490000000005,4233.974,4234.615,4226.667,4224.359,4210.385,4227.9490000000005,4235.513,4185.0,4184.872,4196.795,0,0
326,32,0,0,4207.308,4207.692,4217.0509999999995,4209.103,4235.0,4229.872,4231.538,4230.0,4208.974,4229.872,4245.255999999999,4191.026,4184.103,4209.744000000001,0,0
327,33,0,0,4220.641,4216.538,4221.026,4216.667,4232.179,4226.026,4222.9490000000005,4225.641,4204.615,4235.513,4252.0509999999995,4189.359,4191.282,4220.128,0,0
328,34,0,0,4216.667,4216.795,4218.59,4214.231,4234.487,4228.974,4218.205,4212.0509999999995,4206.667,4238.462,4249.359,4189.103,4202.564,4219.359,0,0
329,35,0,0,4205.128,4207.821,4212.692,4205.769,4231.41,4224.231,4215.641,4215.385,4210.769,4236.923,4247.0509999999995,4192.0509999999995,4198.59,4208.974,0,0
330,36,0,0,4200.0,4204.487,4207.436,4203.718,4222.436,4213.846,4202.821,4221.538,4206.795,4233.462,4245.641,4189.615,4191.923,4199.872,0,0
331,37,0,0,4199.231,4205.0,4205.0,4205.513,4224.231,4215.897,4206.923,4218.846,4205.897,4230.769,4246.154,4183.974,4192.179,4199.103,0,0
332,38,0,0,4198.974,4206.795,4207.821,4202.308,4230.897,4221.41,4216.538,4218.205,4208.846,4227.308,4248.462,4186.667,4190.897,4201.795,0,0
333,39,0,0,4196.667,4209.615,4208.974,4199.487,4227.9490000000005,4218.077,4203.846,4217.179,4199.744000000001,4216.154,4242.564,4187.308,4185.513,4196.795,0,0
334,40,0,0,4201.538,4215.0,4209.615,4208.205,4226.667,4222.0509999999995,4204.487,4216.538,4199.872,4212.9490000000005,4242.0509999999995,4188.846,4183.59,4196.282,0,0
335,41,0,0,4215.641,4223.333,4214.359,4219.359,4235.385,4231.026,4221.026,4221.667,4212.436,4230.641,4256.282,4195.769,4191.538,4213.59,0,0
336,42,0,0,4216.538,4224.231,4215.0,4218.974,4232.0509999999995,4223.846,4212.564,4219.744000000001,4208.846,4236.154,4258.718,4192.0509999999995,4196.282,4218.59,0,0
337,43,0,0,4203.205,4213.077,4209.359,4208.205,4218.718,4213.974,4193.333,4194.872,4197.821,4217.692,4246.41,4184.231,4187.821,4204.487,0,0
338,44,0,0,4198.59,4206.41,4207.821,4205.255999999999,4220.0,4216.154,4195.769,4178.59,4195.128,4209.872,4243.077,4184.231,4185.128,4199.487,0,0
339,45,0,0,4205.513,4213.59,4212.821,4213.205,4232.564,4221.667,4214.103,4204.359,4201.667,4222.564,4249.103,4187.0509999999995,4198.205,4205.128,0,0
340,46,0,0,4205.641,4215.513,4209.744000000001,4213.846,4231.41,4218.974,4220.0,4220.641,4203.077,4222.564,4247.9490000000005,4185.128,4199.872,4200.769,0,0
341,47,0,0,4199.872,4212.179,4206.667,4207.179,4225.385,4216.538,4205.897,4200.0,4197.0509999999995,4214.487,4243.974,4185.0,4193.462,4196.795,0,0
342,48,0,0,4199.872,4214.231,4208.077,4207.0509999999995,4227.564,4220.385,4202.179,4204.103,4203.462,4218.462,4246.923,4185.385,4197.9490000000005,4202.564,0,0
343,49,0,0,4201.923,4215.255999999999,4206.923,4209.487,4222.821,4221.538,4213.333,4232.9490000000005,4216.795,4217.9490000000005,4248.59,4186.154,4198.846,4203.59,0,0
344,50,0,0,4201.154,4214.615,4206.667,4208.974,4220.897,4220.0,4217.0509999999995,4231.41,4219.487,4221.282,4247.692,4185.0,4198.846,4203.333,0,0
345,51,0,0,4198.59,4216.154,4207.692,4211.667,4227.308,4219.872,4214.487,4214.103,4210.385,4224.615,4244.872,4182.9490000000005,4202.179,4202.821,0,0
346,52,0,0,4199.872,4216.538,4206.026,4213.462,4226.282,4217.821,4212.9490000000005,4213.462,4208.333,4221.154,4244.487,4183.718,4201.282,4201.923,0,0
347,53,0,0,4206.41,4217.436,4208.846,4214.359,4220.897,4214.744000000001,4209.103,4217.179,4215.897,4223.59,4248.59,4187.692,4200.897,4206.667,0,0
348,54,0,0,4208.462,4221.923,4209.103,4217.436,4221.923,4216.538,4209.231,4218.462,4219.615,4228.205,4248.718,4188.59,4202.821,4207.9490000000005,0,0
349,55,0,0,4204.615,4219.872,4203.077,4216.667,4220.769,4217.179,4206.667,4213.333,4210.513,4222.308,4246.538,4187.179,4201.795,4203.59,0,0
350,56,0,0,4200.128,4213.718,4200.897,4212.436,4215.385,4212.308,4198.846,4198.462,4198.846,4206.282,4243.077,4184.359,4197.821,4198.846,0,0
351,57,0,0,4203.846,4221.282,4205.255999999999,4213.59,4220.641,4211.538,4204.744000000001,4202.436,4201.923,4203.077,4243.205,4187.9490000000005,4194.872,4202.0509999999995,0,0
352,58,0,0,4215.128,4231.282,4208.462,4220.641,4230.897,4223.59,4218.333,4227.564,4216.923,4224.744000000001,4247.308,4192.564,4201.282,4209.615,0,0
353,59,0,0,4216.795,4226.795,4211.667,4219.744000000001,4235.385,4233.846,4220.128,4241.154,4229.872,4238.205,4250.513,4191.795,4211.538,4209.359,0,0
354,60,0,0,4211.026,4220.128,4214.615,4216.026,4231.026,4226.667,4211.923,4234.487,4227.692,4223.846,4254.359,4191.154,4211.667,4207.179,0,0
355,61,0,0,4217.0509999999995,4226.154,4217.308,4219.231,4233.077,4228.333,4217.0509999999995,4235.897,4229.103,4231.282,4267.436,4194.103,4215.897,4217.821,0,0
356,62,0,0,4218.974,4228.846,4219.231,4218.974,4237.821,4241.154,4237.436,4254.744000000001,4242.436,4262.179,4273.077,4197.179,4222.821,4224.103,0,0
357,63,0,0,4206.026,4218.205,4213.333,4212.821,4233.205,4239.744000000001,4245.255999999999,4256.667,4239.487,4256.795,4250.769,4194.103,4212.179,4209.231,0,0
358,64,0,2110,4203.462,4214.359,4207.564,4213.846,4230.641,4226.667,4226.026,4222.0509999999995,4217.308,4223.846,4231.795,4190.128,4201.923,4198.59,0,0
359,65,0,2734,4211.026,4220.769,4210.255999999999,4219.231,4234.744000000001,4220.385,4207.9490000000005,4192.0509999999995,4204.487,4213.077,4237.692,4189.744000000001,4210.897,4202.564,0,0
360,66,0,3133,4206.795,4207.821,4215.255999999999,4214.487,4230.769,4222.308,4213.205,4215.255999999999,4217.821,4230.513,4239.487,4194.359,4222.692,4205.641,0,0
361,67,0,2895,4197.308,4188.974,4214.487,4207.308,4225.128,4230.385,4220.128,4240.0,4229.359,4243.077,4232.9490000000005,4193.846,4217.436,4204.872,0,0
362,68,0,3577,4198.59,4208.205,4212.9490000000005,4210.513,4234.359,4236.026,4221.154,4220.0,4223.205,4234.359,4233.333,4189.103,4202.308,4201.923,0,0
363,69,0,2998,4199.103,4220.769,4211.282,4212.692,4238.718,4227.436,4217.179,4210.385,4218.974,4222.821,4228.718,4186.41,4198.718,4199.872,0,0
364,70,0,3278,4178.718,4190.641,4202.0509999999995,4196.795,4220.128,4220.128,4204.103,4224.487,4220.641,4217.308,4202.692,4185.255999999999,4202.9490000000005,4180.513,0,0
365,71,0,3350,4147.9490000000005,4172.436,4188.718,4176.923,4205.255999999999,4212.179,4196.923,4204.359,4207.564,4196.41,4176.923,4181.41,4193.462,4144.359,0,0
366,72,0,2951,4140.641,4188.462,4185.128,4178.974,4201.282,4194.744000000001,4203.974,4177.821,4188.462,4171.282,4161.795,4178.333,4180.769,4134.231,0,0
367,73,0,3598,4151.154,4197.692,4183.333,4184.872,4189.744000000001,4185.255999999999,4191.026,4191.154,4186.41,4156.538,4151.795,4177.308,4175.385,4146.795,0,0
368,74,0,2613,4154.359,4197.436,4180.385,4180.128,4186.667,4185.128,4159.615,4185.513,4183.974,4138.718,4156.795,4178.333,4175.128,4152.179,0,0
369,75,0,3254,4157.179,4202.179,4184.744000000001,4180.769,4199.487,4183.333,4156.41,4152.436,4173.846,4136.41,4167.692,4179.744000000001,4188.59,4160.128,0,0
370,76,0,3012,4159.744000000001,4188.205,4185.769,4181.667,4197.436,4179.231,4168.462,4151.026,4170.128,4145.769,4156.154,4173.846,4191.795,4166.923,0,0
371,77,0,1049,4145.897,4175.128,4177.0509999999995,4172.179,4183.59,4183.333,4168.846,4164.487,4172.564,4131.795,4128.59,4166.923,4170.128,4149.872,0,0
372,78,0,2613,4121.282,4183.333,4168.718,4161.154,4182.179,4182.9490000000005,4165.385,4152.821,4171.667,4103.59,4113.59,4163.718,4164.615,4130.255999999999,0,0
373,79,0,3254,4122.179,4186.667,4173.333,4164.615,4186.282,4180.385,4165.769,4150.385,4167.179,4107.0509999999995,4123.205,4167.0509999999995,4184.872,4147.179,0,0
374,80,0,3012,4148.462,4184.359,4180.255999999999,4179.359,4184.744000000001,4187.692,4177.308,4173.718,4168.974,4122.179,4137.692,4169.487,4190.897,4179.103,0,0
375,81,0,1049,4158.077,4192.179,4180.385,4185.513,4183.974,4187.308,4177.308,4175.385,4172.821,4110.255999999999,4134.231,4167.821,4181.026,4187.692,0,0
376,82,0,2613,4147.564,4187.308,4173.333,4175.255999999999,4184.487,4178.974,4154.744000000001,4153.462,4169.231,4103.205,4122.9490000000005,4161.923,4185.0,4186.026,0,0
377,83,0,3254,4145.385,4165.128,4168.462,4168.59,4188.59,4184.872,4165.513,4153.333,4168.462,4113.333,4123.333,4160.0,4195.0,4191.795,0,0
378,84,0,3012,4148.205,4166.41,4167.308,4171.923,4191.667,4189.103,4198.974,4187.0509999999995,4175.513,4112.436,4120.255999999999,4158.718,4189.487,4194.872,0,0
379,85,0,1049,4148.462,4177.179,4167.564,4171.41,4182.436,4173.077,4182.308,4192.9490000000005,4169.359,4105.128,4110.0,4154.359,4182.0509999999995,4193.718,0,0
380,86,0,2613,4156.154,4172.692,4169.231,4169.487,4168.846,4167.308,4153.205,4154.359,4154.615,4106.282,4108.333,4151.795,4183.205,4196.667,0,0
381,87,0,3254,4157.308,4168.205,4167.692,4169.359,4167.0509999999995,4179.231,4165.769,4134.359,4151.923,4104.359,4103.462,4151.41,4178.846,4190.0,0,0
382,88,0,3012,4150.255999999999,4173.333,4169.103,4167.0509999999995,4179.487,4182.692,4183.333,4160.769,4159.744000000001,4105.0,4098.462,4149.487,4176.154,4183.077,0,0
383,89,0,1049,4158.974,4176.154,4177.821,4170.385,4183.718,4181.41,4186.026,4192.308,4170.128,4120.897,4107.692,4152.308,4184.744000000001,4197.564,0,0
384,90,0,2613,4165.255999999999,4170.385,4177.0509999999995,4173.974,4177.436,4179.231,4180.513,4186.795,4169.872,4125.128,4105.385,4155.385,4180.0,4201.795,0,0
385,91,0,3254,4154.487,4170.769,4167.9490000000005,4170.0,4179.359,4175.897,4165.513,4163.333,4157.179,4117.436,4094.487,4151.538,4169.615,4192.9490000000005,0,0
386,92,0,3012,4149.872,4176.41,4170.897,4166.41,4187.436,4181.667,4175.513,4175.0,4156.538,4121.154,4101.795,4149.487,4173.59,4195.0,0,0
387,93,0,1049,4156.282,4179.103,4177.179,4171.026,4186.154,4187.9490000000005,4197.179,4207.436,4169.744000000001,4125.897,4107.821,4148.846,4170.641,4195.513,0,0
388,94,0,2613,4164.103,4183.333,4177.692,4180.128,4183.974,4184.487,4190.641,4200.255999999999,4169.231,4130.385,4105.0,4150.128,4168.59,4193.205,0,0
389,95,0,3254,4174.359,4192.308,4178.846,4186.795,4194.359,4182.692,4182.692,4175.513,4166.923,4148.205,4116.667,4152.179,4186.154,4200.769,0,0
390,96,0,3012,4183.333,4197.179,4184.744000000001,4189.231,4200.0,4187.9490000000005,4186.154,4179.615,4175.128,4157.436,4133.205,4154.359,4193.59,4206.923,0,0
391,97,0,1049,4186.667,4200.128,4190.513,4194.615,4198.974,4194.487,4185.897,4186.282,4180.641,4157.9490000000005,4136.282,4156.282,4185.385,4203.59,0,0
392,98,0,2613,4191.923,4203.462,4193.59,4200.255999999999,4202.0509999999995,4198.59,4191.282,4186.923,4183.974,4176.154,4139.103,4163.974,4191.667,4203.205,0,0
393,99,0,3254,4194.231,4200.769,4191.41,4196.026,4201.538,4198.205,4199.744000000001,4197.692,4187.564,4187.308,4144.231,4167.436,4196.282,4202.9490000000005,0,0
394,100,0,3012,4201.282,4206.795,4194.103,4194.615,4199.744000000001,4197.436,4203.718,4210.0,4191.795,4185.513,4151.41,4172.179,4191.026,4207.564,0,0
395,101,0,1049,4216.667,4216.923,4202.9490000000005,4203.718,4203.205,4200.0,4207.564,4216.923,4199.744000000001,4202.308,4164.231,4181.667,4199.487,4218.462,0,0
396,102,0,2613,4219.231,4213.718,4206.538,4204.359,4205.897,4200.128,4205.641,4217.308,4202.9490000000005,4213.077,4166.667,4183.205,4206.667,4215.769,0,0
397,103,0,3254,4213.718,4210.769,4203.974,4201.026,4208.077,4202.821,4206.154,4217.564,4201.154,4206.923,4168.974,4181.667,4199.487,4212.0509999999995,0,0
398,104,0,3012,4217.179,4215.769,4202.436,4205.769,4213.846,4205.385,4216.795,4220.769,4203.974,4213.462,4179.872,4187.308,4199.615,4217.821,0,0
399,105,0,1049,4217.179,4213.077,4196.026,4204.744000000001,4212.821,4201.923,4214.615,4208.205,4198.462,4215.641,4180.0,4185.255999999999,4202.9490000000005,4212.9490000000005,0,0
400,106,0,2613,4212.692,4211.41,4195.513,4201.667,4211.538,4208.462,4213.846,4203.974,4190.897,4209.359,4176.41,4178.59,4198.462,4203.333,0,0
401,107,0,3254,4212.0509999999995,4214.359,4202.179,4205.128,4214.744000000001,4215.255999999999,4227.179,4219.872,4197.821,4212.0509999999995,4185.255999999999,4182.436,4194.103,4203.974,0,0
402,108,0,3012,4205.385,4209.231,4198.462,4205.513,4213.974,4207.179,4220.513,4208.974,4200.128,4209.872,4188.59,4183.077,4192.436,4200.769,0,0
403,109,0,1049,4203.59,4206.154,4194.231,4207.821,4212.821,4203.205,4208.077,4193.846,4195.385,4203.462,4180.897,4178.846,4192.179,4196.154,0,0
404,110,0,2613,4215.513,4216.282,4200.128,4212.564,4218.077,4209.487,4214.872,4209.615,4196.795,4210.128,4184.744000000001,4181.154,4195.385,4201.282,0,0
405,111,0,3254,4230.128,4230.513,4216.026,4226.282,4225.641,4218.333,4219.359,4218.462,4202.821,4227.179,4204.359,4190.641,4208.718,4215.128,0,0
406,112,0,3012,4238.205,4230.0,4223.846,4236.154,4221.154,4220.0,4216.026,4207.9490000000005,4203.59,4233.462,4209.359,4193.718,4216.923,4223.333,0,0
407,113,0,1049,4224.615,4217.9490000000005,4209.744000000001,4217.9490000000005,4205.513,4200.897,4208.974,4204.231,4195.769,4218.462,4190.0,4189.103,4208.205,4207.564,0,0
408,114,0,2613,4202.436,4202.692,4189.744000000001,4193.462,4197.179,4177.436,4195.0,4198.205,4183.846,4196.538,4181.923,4182.564,4200.897,4184.615,0,0
409,115,0,3254,4203.846,4186.795,4192.179,4196.154,4198.974,4187.436,4199.231,4194.359,4181.923,4189.744000000001,4194.359,4183.462,4202.436,4187.436,0,0
410,116,0,3012,4215.513,4182.821,4204.487,4205.0,4192.0509999999995,4200.769,4218.077,4207.436,4190.897,4190.0,4204.744000000001,4189.487,4206.026,4204.744000000001,0,0
411,117,0,1049,4206.795,4189.487,4198.205,4198.59,4179.615,4185.128,4212.179,4204.744000000001,4189.231,4180.897,4205.0,4188.846,4206.41,4199.615,0,0
412,118,0,2613,4189.872,4195.641,4182.821,4196.667,4184.359,4181.667,4204.103,4188.462,4181.667,4171.41,4188.462,4179.744000000001,4204.872,4178.718,0,0
413,119,0,3254,4198.077,4213.846,4187.9490000000005,4208.974,4200.255999999999,4201.795,4212.179,4198.718,4189.872,4170.641,4178.205,4179.103,4207.436,4181.282,0,0
414,120,0,3012,4217.436,4235.513,4202.9490000000005,4217.0509999999995,4207.564,4204.103,4210.385,4209.744000000001,4201.154,4176.667,4190.897,4183.077,4213.077,4192.308,0,0
415,121,0,1049,4211.923,4225.385,4195.128,4205.641,4200.513,4189.744000000001,4196.026,4188.462,4191.538,4173.333,4192.821,4175.0,4208.205,4176.795,0,0
416,122,0,2613,4195.641,4213.718,4180.255999999999,4196.41,4195.128,4191.282,4194.231,4172.179,4178.846,4170.0,4178.718,4166.538,4204.231,4163.59,0,0
417,123,0,3254,4202.9490000000005,4216.795,4190.513,4206.538,4198.846,4202.436,4209.231,4184.615,4187.436,4183.718,4182.564,4171.667,4211.538,4178.718,0,0
418,124,0,3012,4226.154,4202.821,4210.897,4205.513,4199.103,4203.333,4223.205,4194.487,4200.0,4182.436,4191.154,4181.41,4206.538,4196.41,0,0
419,125,0,1049,4230.769,4201.795,4212.692,4201.41,4203.333,4203.846,4230.0,4207.9490000000005,4204.744000000001,4167.308,4184.744000000001,4186.154,4198.974,4202.0509999999995,0,0
420,126,0,2613,4217.564,4226.026,4204.359,4215.128,4212.821,4202.436,4217.436,4220.513,4201.154,4173.59,4182.692,4189.359,4208.333,4200.641,0,0
421,127,0,51,4212.0509999999995,4232.692,4200.769,4223.718,4218.333,4201.538,4205.128,4205.897,4199.872,4193.718,4193.205,4185.0,4215.641,4195.385,0,0
422,0,0,2107,4222.179,4227.9490000000005,4206.923,4217.564,4217.821,4211.795,4212.436,4189.615,4207.436,4196.538,4205.641,4181.538,4217.692,4198.846,0,0
423,1,0,2725,4220.385,4222.9490000000005,4202.436,4205.0,4208.333,4211.026,4219.359,4194.359,4205.385,4182.9490000000005,4203.333,4179.615,4216.026,4198.205,0,0
424,2,0,3127,4214.103,4215.0,4195.897,4200.128,4198.333,4197.692,4221.795,4211.795,4203.462,4187.692,4206.282,4182.436,4217.436,4199.487,0,0
425,3,0,2878,4232.179,4226.282,4209.231,4212.692,4206.538,4206.667,4229.231,4223.718,4216.282,4206.795,4227.821,4188.077,4229.615,4224.744000000001,0,0
426,4,0,3583,4242.9490000000005,4241.41,4216.282,4221.282,4219.359,4221.154,4231.795,4211.282,4221.282,4196.667,4226.667,4186.026,4230.128,4233.974,0,0
427,5,0,2998,4240.641,4235.641,4211.41,4215.385,4219.615,4216.154,4230.255999999999,4201.923,4214.744000000001,4177.308,4214.231,4181.538,4215.513,4224.744000000001,0,0
428,6,0,3272,4250.897,4235.513,4217.179,4219.487,4222.436,4219.615,4239.359,4212.9490000000005,4215.513,4183.462,4222.692,4185.0,4208.718,4229.872,0,0
429,7,0,3345,4245.769,4230.385,4218.077,4220.641,4223.718,4229.615,4243.59,4224.231,4221.154,4188.077,4222.9490000000005,4183.718,4215.0,4225.641,0,0
430,8,0,2925,4214.103,4198.974,4202.0509999999995,4198.205,4209.103,4222.821,4233.077,4222.564,4223.718,4174.872,4206.538,4173.077,4221.923,4199.231,0,0
431,9,0,3572,4191.282,4176.795,4187.308,4178.974,4197.0509999999995,4212.564,4218.846,4203.205,4212.436,4159.231,4191.538,4166.923,4218.205,4177.308,0,0
432,10,0,2602,4189.744000000001,4179.103,4184.615,4178.462,4195.0,4210.769,4211.154,4182.308,4195.897,4146.538,4184.744000000001,4168.205,4206.026,4172.179,0,0
433,11,0,3247,4196.026,4185.128,4190.897,4190.128,4199.231,4218.974,4224.487,4196.282,4205.0,4157.0509999999995,4189.872,4170.641,4210.385,4178.846,0,0
434,12,0,3007,4196.795,4185.897,4194.487,4197.308,4207.0509999999995,4231.923,4233.205,4217.308,4219.872,4175.769,4202.692,4171.026,4232.9490000000005,4184.359,0,0
435,13,0,1043,4195.385,4185.128,4195.897,4198.462,4202.821,4232.564,4227.308,4211.154,4219.231,4159.103,4207.308,4176.154,4232.821,4183.718,0,0
436,14,0,2602,4207.564,4193.205,4205.255999999999,4207.564,4201.41,4232.692,4244.615,4220.897,4228.205,4154.103,4207.564,4184.359,4223.718,4195.641,0,0
437,15,0,3247,4218.59,4207.9490000000005,4208.462,4216.154,4223.077,4242.308,4260.641,4236.538,4236.154,4183.205,4223.205,4185.128,4237.0509999999995,4205.0,0,0
438,16,0,0,4218.205,4219.487,4200.897,4222.9490000000005,4238.718,4239.872,4240.385,4221.923,4229.231,4196.923,4242.436,4176.923,4252.692,4202.821,0,0
439,17,0,0,4229.615,4223.718,4213.974,4233.718,4229.359,4236.282,4227.821,4220.641,4236.282,4206.154,4242.821,4182.179,4253.205,4219.103,0,0
440,18,0,0,4241.154,4221.795,4223.846,4233.974,4230.0,4248.333,4238.974,4235.255999999999,4243.846,4216.41,4233.333,4186.154,4248.846,4231.154,0,0
441,19,0,0,4233.333,4225.0,4206.795,4226.026,4245.255999999999,4248.846,4240.128,4232.9490000000005,4229.744000000001,4183.974,4232.821,4179.359,4245.769,4219.231,0,0
442,20,0,0,4248.59,4237.692,4216.282,4239.487,4252.564,4245.385,4250.0,4236.667,4232.821,4161.026,4244.872,4187.308,4245.641,4234.872,0,0
443,21,0,0,4283.333,4248.333,4251.923,4263.974,4256.154,4258.59,4274.872,4257.436,4260.255999999999,4212.0509999999995,4263.974,4201.154,4252.308,4272.564,0,0
444,22,0,0,4276.667,4248.974,4243.333,4261.41,4257.9490000000005,4259.103,4269.359,4251.667,4259.103,4242.821,4272.0509999999995,4190.897,4254.615,4262.9490000000005,0,0
445,23,0,0,4258.846,4256.026,4216.538,4252.0509999999995,4264.231,4248.718,4252.179,4230.0,4234.103,4209.103,4263.846,4182.308,4248.333,4241.026,0,0
446,24,0,0,4274.872,4271.795,4228.205,4258.333,4275.255999999999,4253.333,4258.59,4236.026,4232.308,4191.154,4263.718,4194.872,4235.255999999999,4258.718,0,0
447,25,0,0,4289.231,4271.667,4245.128,4268.462,4282.308,4259.487,4267.821,4249.744000000001,4245.385,4202.308,4269.615,4200.769,4219.359,4273.718,0,0
448,26,0,0,4282.308,4262.9490000000005,4237.179,4273.718,4278.846,4254.872,4259.615,4244.359,4243.333,4207.821,4270.255999999999,4196.538,4212.179,4269.487,0,0
449,27,0,0,4296.282,4270.513,4244.744000000001,4278.333,4266.795,4254.872,4263.077,4251.026,4243.462,4211.41,4283.205,4201.795,4213.974,4284.231,0,0
450,28,0,0,4321.154,4281.795,4271.026,4286.538,4266.538,4263.205,4282.436,4268.077,4257.564,4220.769,4301.795,4211.154,4215.513,4303.718,0,0
451,29,0,0,4320.513,4280.897,4271.41,4295.255999999999,4289.872,4266.538,4285.255999999999,4267.564,4263.077,4231.154,4305.513,4211.41,4212.692,4301.795,0,0
452,30,0,0,4315.769,4289.487,4256.795,4299.615,4307.9490000000005,4268.718,4289.744000000001,4291.026,4269.359,4246.795,4307.436,4210.0,4211.923,4302.308,0,0
453,31,0,0,4312.564,4299.744000000001,4249.231,4290.769,4293.974,4267.308,4294.231,4301.026,4268.846,4250.255999999999,4307.436,4204.103,4212.692,4300.641,0,0
454,32,0,0,4297.308,4286.026,4240.255999999999,4273.846,4271.795,4251.538,4261.795,4226.026,4238.333,4238.333,4296.795,4198.974,4216.154,4283.59,0,0
455,33,0,0,4282.0509999999995,4272.821,4229.872,4264.872,4262.179,4234.487,4224.231,4166.41,4217.436,4228.718,4288.718,4197.436,4218.974,4274.103,0,0
456,34,0,0,4289.103,4279.359,4233.846,4268.462,4262.692,4236.41,4229.872,4199.103,4226.538,4221.41,4294.487,4199.744000000001,4215.513,4279.487,0,0
457,35,0,0,4307.692,4286.026,4239.872,4277.821,4267.179,4249.359,4246.667,4235.769,4235.128,4222.564,4295.255999999999,4202.564,4211.538,4286.41,0,0
458,36,0,0,4312.308,4282.9490000000005,4243.333,4276.282,4262.308,4252.564,4251.026,4236.282,4238.974,4223.333,4287.821,4205.513,4212.692,4290.0,0,0
459,37,0,0,4310.255999999999,4280.0,4248.974,4271.538,4265.255999999999,4253.205,4258.974,4244.359,4246.282,4228.333,4302.0509999999995,4204.103,4218.59,4294.615,0,0
460,38,0,0,4309.744000000001,4282.179,4241.538,4276.026,4276.923,4251.538,4256.667,4246.795,4238.205,4244.872,4313.077,4196.667,4218.205,4292.692,0,0
461,39,0,0,4307.564,4280.128,4235.385,4276.538,4269.744000000001,4245.0,4247.436,4242.179,4228.462,4238.462,4299.231,4197.9490000000005,4212.692,4285.641,0,0
462,40,0,0,4301.795,4276.795,4240.255999999999,4271.667,4258.205,4242.821,4247.564,4240.513,4231.538,4214.744000000001,4286.923,4202.308,4213.59,4282.821,0,0
463,41,0,0,4295.385,4279.744000000001,4238.333,4267.564,4263.462,4244.615,4248.205,4233.846,4230.513,4216.923,4281.923,4198.974,4217.0509999999995,4277.9490000000005,0,0
464,42,0,0,4298.333,4282.0509999999995,4235.255999999999,4267.436,4266.026,4247.308,4254.615,4243.077,4236.795,4243.462,4292.564,4197.692,4223.59,4279.872,0,0
465,43,0,0,4305.769,4279.615,4241.667,4273.974,4262.692,4248.462,4261.282,4256.154,4248.718,4248.077,4313.333,4202.9490000000005,4232.436,4288.718,0,0
466,44,0,0,4303.974,4279.103,4242.436,4280.513,4270.255999999999,4252.308,4264.744000000001,4262.564,4252.0509999999995,4241.41,4310.641,4202.179,4236.026,4284.744000000001,0,0
467,45,0,0,4297.821,4275.897,4239.487,4279.872,4272.179,4259.615,4279.103,4274.487,4251.795,4243.462,4294.615,4199.615,4233.462,4276.154,0,0
468,46,0,0,4297.179,4265.255999999999,4235.641,4271.154,4262.821,4259.744000000001,4273.205,4265.641,4248.974,4240.513,4295.641,4198.846,4235.0,4278.205,0,0
469,47,0,0,4294.615,4261.026,4232.179,4266.154,4261.154,4257.436,4247.692,4241.41,4245.769,4234.103,4296.026,4198.718,4239.103,4278.846,0,0
470,48,0,0,4293.462,4266.026,4237.308,4272.0509999999995,4263.846,4261.795,4252.821,4247.308,4247.564,4231.026,4295.897,4200.897,4238.333,4277.821,0,0
471,49,0,0,4303.205,4267.564,4245.128,4281.154,4264.231,4264.231,4270.641,4266.41,4254.231,4235.128,4304.615,4205.0,4241.026,4287.0509999999995,0,0
472,50,0,0,4304.359,4262.692,4242.564,4277.692,4264.359,4261.026,4262.692,4263.462,4260.128,4243.846,4300.385,4203.333,4246.923,4288.077,0,0
473,51,0,0,4293.846,4260.897,4238.974,4268.718,4264.872,4261.795,4257.821,4260.513,4261.282,4249.231,4291.538,4201.154,4248.718,4276.795,0,0
474,52,0,0,4291.282,4261.154,4241.667,4270.255999999999,4266.282,4264.615,4270.513,4266.795,4262.0509999999995,4247.821,4296.154,4202.179,4248.205,4277.179,0,0
475,53,0,0,4288.974,4254.359,4242.179,4270.513,4268.333,4263.462,4279.103,4270.0,4263.59,4247.179,4299.359,4203.718,4248.333,4278.462,0,0
476,54,0,0,4273.205,4241.154,4233.59,4257.308,4263.462,4262.308,4277.821,4261.795,4255.513,4236.154,4281.538,4199.231,4240.0,4259.103,0,0
477,55,0,0,4258.077,4230.641,4229.231,4243.59,4259.872,4261.923,4268.974,4250.255999999999,4243.974,4216.667,4262.821,4193.462,4228.846,4243.077,0,0
478,56,0,0,4251.795,4223.974,4233.846,4242.0509999999995,4259.487,4265.255999999999,4265.128,4254.487,4245.128,4214.744000000001,4260.641,4197.692,4231.538,4242.821,0,0
479,57,0,0,4246.538,4221.667,4229.872,4244.487,4251.282,4264.231,4266.154,4255.513,4245.128,4209.615,4252.564,4200.128,4231.795,4232.821,0,0
480,58,0,0,4250.0,4229.744000000001,4223.462,4246.795,4247.821,4251.282,4259.103,4251.41,4242.0509999999995,4196.282,4248.974,4196.538,4226.538,4230.513,0,0
481,59,0,0,4254.744000000001,4235.641,4225.0,4249.872,4252.9490000000005,4248.077,4254.872,4251.282,4243.077,4205.897,4263.846,4195.769,4229.359,4248.077,0,0
482,60,0,0,4246.154,4224.359,4221.026,4247.0509999999995,4250.641,4260.641,4265.897,4254.359,4244.744000000001,4217.821,4263.462,4196.923,4235.0,4246.538,0,0
483,61,0,0,4243.077,4221.538,4218.205,4247.0509999999995,4255.0,4266.026,4276.538,4258.718,4246.795,4215.0,4254.744000000001,4194.231,4239.359,4231.41,0,0
484,62,0,0,4253.077,4231.154,4228.205,4253.077,4263.846,4258.462,4265.897,4243.462,4244.359,4219.103,4262.564,4192.821,4244.103,4235.897,0,0
485,63,0,0,4245.897,4220.255999999999,4222.564,4246.026,4255.513,4249.744000000001,4242.0509999999995,4213.974,4232.436,4217.692,4252.308,4188.846,4240.513,4230.769,0,0
486,64,0,2102,4233.974,4207.564,4215.128,4239.744000000001,4245.128,4246.795,4233.974,4216.923,4228.59,4205.385,4234.744000000001,4189.359,4231.41,4217.821,0,0
487,65,0,2731,4239.872,4214.103,4223.974,4244.615,4248.077,4248.974,4241.923,4245.255999999999,4237.564,4211.667,4251.026,4193.974,4232.179,4230.0,0,0
488,66,0,3117,4243.718,4208.974,4229.103,4244.359,4250.255999999999,4248.333,4247.436,4246.667,4244.615,4228.205,4266.538,4195.128,4241.41,4239.744000000001,0,0
489,67,0,2868,4239.872,4192.0509999999995,4228.718,4241.154,4243.718,4247.308,4254.231,4243.59,4247.821,4230.128,4262.436,4194.744000000001,4247.692,4232.9490000000005,0,0
490,68,0,3559,4241.538,4199.103,4230.769,4246.795,4247.692,4258.462,4263.59,4253.59,4249.615,4226.026,4259.744000000001,4197.564,4246.667,4235.897,0,0
491,69,0,2998,4248.205,4217.0509999999995,4230.255999999999,4253.846,4263.077,4261.795,4264.359,4252.308,4247.436,4229.231,4260.513,4197.0509999999995,4245.897,4244.231,0,0
492,70,0,3264,4248.974,4221.026,4226.538,4252.308,4258.59,4250.641,4260.769,4249.487,4248.077,4234.487,4262.308,4195.897,4251.282,4242.9490000000005,0,0
493,71,0,3336,4247.179,4214.487,4228.59,4247.308,4242.0509999999995,4251.538,4264.744000000001,4249.615,4246.795,4232.308,4266.667,4197.821,4250.128,4240.641,0,0
494,72,0,2920,4248.462,4205.255999999999,4236.026,4251.795,4250.0,4261.154,4272.0509999999995,4255.255999999999,4248.462,4228.333,4267.179,4201.154,4248.462,4244.487,0,0
495,73,0,3557,4250.255999999999,4207.0509999999995,4239.103,4258.333,4263.205,4262.564,4275.385,4267.564,4257.821,4234.103,4261.923,4205.641,4256.667,4247.436,0,0
496,74,0,2603,4249.231,4214.872,4234.487,4251.923,4251.282,4262.0509999999995,4280.641,4269.231,4258.205,4234.231,4263.974,4202.692,4257.0509999999995,4244.872,0,0
497,75,0,3238,4245.513,4213.333,4231.41,4249.231,4245.255999999999,4265.128,4280.641,4249.744000000001,4244.744000000001,4223.462,4264.615,4200.255999999999,4248.59,4239.359,0,0
498,76,0,2998,4239.872,4207.9490000000005,4231.026,4248.974,4249.744000000001,4262.179,4264.744000000001,4230.0,4238.205,4209.615,4253.974,4201.667,4246.667,4235.513,0,0
499,77,0,1042,4233.205,4198.205,4228.59,4234.487,4237.436,4258.846,4252.821,4229.359,4241.667,4196.538,4243.59,4200.0,4247.692,4233.077,0,0
500,78,0,2603,4229.615,4188.462,4226.026,4230.128,4225.128,4261.667,4263.205,4244.615,4246.41,4209.359,4246.154,4196.282,4252.821,4231.795,0,0
501,79,0,3238,4224.615,4190.128,4221.41,4237.9490000000005,4230.255999999999,4260.0,4260.513,4242.436,4243.077,4226.026,4255.513,4196.667,4257.821,4227.436,0,0
502,80,0,2998,4225.128,4197.692,4221.667,4232.821,4232.179,4257.821,4251.154,4239.487,4239.615,4213.462,4256.795,4196.538,4250.641,4227.821,0,0
503,81,0,1042,4244.872,4210.0,4236.538,4234.872,4232.692,4264.231,4272.179,4272.436,4256.282,4220.897,4265.897,4203.846,4251.282,4246.026,0,0
504,82,1,1321,4256.154,4217.821,4240.128,4243.077,4239.359,4269.231,4275.385,4275.255999999999,4260.641,4225.255999999999,4271.154,4207.0509999999995,4253.462,4258.333,0,0
505,83,1,1600,4267.436,4225.641,4243.718,4251.282,4246.026,4274.231,4278.59,4278.077,4265.0,4229.615,4276.41,4210.255999999999,4255.641,4270.641,0,0
506,84,1,1879,4278.718,4233.462,4247.308,4259.487,4252.692,4279.231,4281.795,4280.897,4269.359,4233.974,4281.667,4213.462,4257.821,4282.9490000000005,0,0
507,85,1,2158,4290.0,4241.282,4250.897,4267.692,4259.359,4284.231,4285.0,4283.718,4273.718,4238.333,4286.923,4216.667,4260.0,4295.255999999999,0,0
508,86,1,2437,4301.282,4249.103,4254.487,4275.897,4266.026,4289.231,4288.205,4286.538,4278.077,4242.692,4292.179,4219.872,4262.179,4307.564,0,0
509,87,1,2716,4312.564,4256.923,4258.077,4284.103,4272.692,4294.231,4291.41,4289.359,4282.436,4247.0509999999995,4297.436,4223.077,4264.359,4319.872,0,0
510,88,0,2998,4323.974,4265.255999999999,4262.436,4292.9490000000005,4279.615,4300.0,4295.0,4292.179,4287.308,4251.41,4303.462,4227.0509999999995,4266.923,4332.564,0,0
511,89,0,1042,4308.974,4262.821,4254.872,4273.974,4276.026,4294.359,4284.231,4287.821,4282.564,4256.41,4327.9490000000005,4218.59,4264.872,4315.128,0,0
512,90,0,2603,4312.308,4267.179,4258.974,4284.487,4277.692,4297.821,4292.821,4303.974,4292.692,4238.205,4327.692,4214.744000000001,4263.333,4307.179,0,0
513,91,0,3238,4312.692,4253.333,4259.615,4279.615,4276.41,4295.769,4286.282,4286.026,4280.513,4211.538,4281.026,4219.615,4259.103,4311.026,0,0
514,92,0,2998,4307.692,4250.0,4257.9490000000005,4264.487,4267.308,4281.538,4269.744000000001,4257.308,4267.436,4206.026,4274.744000000001,4222.0509999999995,4259.231,4312.564,0,0
515,93,0,1042,4308.718,4260.385,4255.255999999999,4263.718,4262.692,4276.538,4272.179,4258.846,4275.128,4217.821,4315.513,4207.308,4262.821,4296.41,0,0
516,94,0,2603,4314.231,4253.462,4256.538,4263.59,4261.154,4288.59,4284.872,4266.667,4282.179,4219.231,4333.077,4202.0509999999995,4269.744000000001,4293.718,0,0
517,95,0,3238,4325.0,4249.231,4262.821,4268.974,4262.821,4298.077,4294.744000000001,4275.128,4286.667,4215.769,4323.077,4217.821,4277.9490000000005,4310.641,0,0
518,96,0,2998,4333.077,4267.821,4266.41,4276.154,4270.897,4295.128,4296.282,4280.641,4288.59,4211.538,4322.821,4224.615,4275.385,4310.385,0,0
519,97,0,1042,4340.769,4283.077,4267.9490000000005,4276.795,4278.333,4294.231,4291.154,4278.846,4286.538,4207.692,4335.128,4216.154,4272.179,4314.103,0,0
520,98,0,2603,4350.897,4281.41,4271.282,4279.231,4277.821,4299.359,4295.128,4288.462,4294.615,4212.9490000000005,4337.9490000000005,4216.667,4280.255999999999,4336.154,0,0
521,99,0,3238,4352.436,4280.769,4271.667,4281.282,4274.872,4299.487,4298.462,4292.436,4298.974,4219.359,4346.667,4220.0,4280.385,4341.667,0,0
522,100,0,2998,4349.103,4280.128,4268.205,4277.9490000000005,4275.385,4299.231,4292.308,4285.255999999999,4291.154,4218.59,4355.255999999999,4217.308,4272.179,4332.821,0,0
523,101,0,1042,4349.872,4279.487,4264.359,4277.436,4278.846,4306.41,4298.974,4298.205,4297.308,4227.692,4357.436,4217.308,4278.333,4340.513,0,0
524,102,0,2603,4348.077,4281.026,4260.513,4281.026,4281.667,4306.795,4302.0509999999995,4306.154,4306.41,4233.974,4361.41,4216.41,4284.103,4345.641,0,0
525,103,0,3238,4339.615,4278.077,4255.128,4275.513,4275.641,4293.718,4282.564,4276.923,4293.205,4219.872,4353.59,4213.205,4275.0,4329.615,0,0
526,104,0,2998,4336.795,4275.128,4252.821,4265.128,4265.513,4284.487,4270.769,4257.821,4278.846,4221.026,4351.41,4213.974,4277.0509999999995,4322.9490000000005,0,0
527,105,0,1042,4342.0509999999995,4277.436,4259.615,4268.846,4266.923,4291.923,4281.667,4273.59,4283.846,4241.026,4368.462,4217.692,4289.615,4337.436,0,0
528,106,0,2603,4343.077,4280.385,4266.41,4279.487,4274.872,4304.872,4296.667,4287.0509999999995,4296.923,4247.692,4378.846,4217.179,4291.923,4342.564,0,0
529,107,0,3238,4346.795,4287.308,4269.231,4286.667,4281.795,4314.359,4317.179,4312.179,4317.821,4261.026,4383.333,4221.154,4300.255999999999,4342.179,0,0
530,108,0,2998,4358.077,4299.103,4274.359,4296.41,4290.385,4321.026,4333.59,4342.308,4340.255999999999,4296.41,4402.821,4225.385,4326.667,4356.41,0,0
531,109,0,1042,4352.692,4297.564,4274.487,4295.385,4291.154,4317.9490000000005,4316.154,4317.821,4325.769,4289.872,4396.41,4223.205,4327.179,4353.59,0,0
532,110,0,2603,4331.282,4284.103,4264.103,4282.179,4279.872,4307.821,4291.795,4282.308,4293.974,4246.026,4362.0509999999995,4218.846,4297.9490000000005,4332.692,0,0
533,111,0,3238,4325.897,4273.846,4260.897,4277.821,4276.154,4308.718,4296.154,4289.231,4293.974,4238.846,4352.0509999999995,4216.538,4289.872,4323.333,0,0
534,112,0,2998,4325.255999999999,4267.179,4261.154,4273.718,4282.179,4311.795,4302.436,4289.487,4299.103,4245.897,4348.846,4208.59,4296.026,4310.255999999999,0,0
535,113,0,1042,4309.872,4264.359,4256.923,4261.923,4282.308,4302.308,4293.077,4276.538,4290.513,4234.872,4335.897,4204.615,4293.59,4291.538,0,0
536,114,0,2603,4296.41,4261.923,4249.487,4259.615,4280.255999999999,4295.128,4289.615,4283.59,4292.436,4232.9490000000005,4339.231,4208.462,4291.41,4292.821,0,0
537,115,0,3238,4295.0,4250.897,4243.846,4257.564,4275.897,4296.282,4291.154,4287.436,4292.179,4231.154,4339.103,4210.385,4286.667,4295.769,0,0
538,116,0,2998,4292.179,4243.462,4243.077,4250.255999999999,4268.462,4298.205,4291.154,4278.462,4281.154,4223.59,4324.359,4207.564,4278.718,4284.744000000001,0,0
539,117,0,1042,4283.974,4248.462,4243.846,4249.487,4264.359,4297.564,4288.846,4273.077,4278.205,4226.923,4322.308,4207.308,4281.282,4279.231,0,0
540,118,0,2603,4277.692,4244.359,4240.897,4249.615,4261.795,4292.0509999999995,4281.154,4279.744000000001,4280.513,4225.513,4324.744000000001,4207.692,4278.462,4276.41,0,0
541,119,0,3238,4274.872,4234.103,4235.385,4247.9490000000005,4259.231,4288.718,4283.462,4286.538,4274.103,4214.744000000001,4315.641,4204.872,4265.0,4270.513,0,0
542,120,0,2998,4275.641,4240.769,4236.282,4245.897,4258.974,4288.846,4293.462,4273.205,4267.692,4215.513,4311.795,4203.333,4268.077,4270.385,0,0
543,121,0,1042,4277.692,4248.59,4237.9490000000005,4243.974,4259.359,4282.179,4277.564,4246.026,4261.923,4216.282,4317.564,4203.718,4276.538,4273.974,0,0
544,122,0,2603,4281.026,4242.692,4238.718,4251.538,4257.821,4274.487,4251.667,4236.41,4260.513,4218.333,4322.179,4203.59,4275.769,4276.026,0,0
545,123,0,3238,4291.154,4249.872,4246.538,4266.667,4266.667,4283.462,4263.333,4257.692,4275.897,4236.154,4324.231,4204.872,4284.615,4283.846,0,0
546,124,0,2998,4308.846,4274.872,4262.179,4276.154,4286.923,4302.821,4296.026,4288.59,4294.872,4247.436,4335.255999999999,4213.333,4298.333,4300.641,0,0
547,125,0,1042,4324.231,4287.564,4269.744000000001,4281.282,4298.205,4312.9490000000005,4308.974,4308.974,4305.897,4246.026,4350.513,4218.59,4299.103,4315.641,0,0
548,126,0,2603,4323.205,4278.846,4265.128,4281.154,4291.923,4312.564,4309.615,4308.974,4305.897,4247.0509999999995,4351.538,4220.255999999999,4293.846,4316.667,0,0
549,127,0,51,4308.846,4265.513,4258.333,4269.615,4282.9490000000005,4304.744000000001,4309.487,4301.795,4297.436,4242.308,4341.282,4218.462,4287.0509999999995,4302.821,0,0
550,0,0,2097,4301.41,4263.974,4258.462,4263.59,4281.795,4297.0509999999995,4305.0,4299.231,4291.282,4226.282,4338.974,4217.436,4276.41,4299.359,0,0
551,1,0,2720,4308.59,4273.205,4261.282,4271.154,4281.026,4296.795,4302.0509999999995,4300.255999999999,4297.179,4230.385,4342.0509999999995,4217.436,4280.0,4311.667,0,0
552,2,0,3109,4315.897,4278.333,4261.154,4276.538,4278.205,4296.41,4304.744000000001,4297.308,4298.718,4252.308,4340.0,4218.846,4286.538,4314.615,0,0
553,3,0,2878,4315.769,4275.255999999999,4260.128,4274.744000000001,4280.128,4296.538,4307.308,4292.436,4289.487,4248.077,4342.179,4221.026,4279.744000000001,4307.436,0,0
554,4,0,3567,4326.795,4280.897,4266.538,4281.667,4293.846,4310.128,4311.538,4304.103,4298.333,4244.615,4348.846,4221.282,4283.205,4315.769,0,0
555,5,0,2998,4338.974,4286.923,4275.385,4290.385,4297.821,4321.795,4311.026,4309.872,4309.872,4260.769,4345.769,4220.128,4297.692,4329.231,0,0
556,6,0,3265,4335.385,4286.282,4275.897,4284.872,4281.41,4315.385,4307.308,4294.487,4299.231,4257.308,4342.0509999999995,4220.641,4297.0509999999995,4328.333,0,0
557,7,0,3340,4329.872,4287.179,4271.41,4278.846,4281.154,4312.308,4314.615,4293.718,4290.385,4251.026,4355.128,4221.667,4291.41,4322.692,0,0
558,8,0,2925,4331.667,4286.795,4264.872,4282.308,4293.59,4316.026,4312.179,4304.487,4297.692,4261.667,4365.641,4220.385,4295.641,4322.308,0,0
559,9,0,3541,4331.538,4289.359,4264.103,4281.154,4287.821,4309.872,4290.769,4298.846,4299.103,4256.282,4351.282,4223.333,4295.641,4327.436,0,0
560,10,0,2600,4330.513,4292.436,4269.487,4277.564,4281.026,4304.615,4285.641,4288.974,4294.872,4249.615,4347.564,4224.103,4294.231,4333.333,0,0
561,11,0,3238,4338.59,4292.821,4274.615,4284.744000000001,4288.333,4307.9490000000005,4296.538,4295.128,4305.128,4265.769,4365.641,4224.487,4300.385,4340.385,0,0
562,12,0,2987,4346.026,4299.615,4275.128,4292.9490000000005,4292.436,4310.0,4295.513,4301.795,4312.179,4269.359,4369.872,4228.718,4301.923,4345.897,0,0
563,13,0,1048,4342.564,4306.667,4275.641,4291.667,4291.41,4309.615,4294.487,4299.744000000001,4301.282,4258.59,4355.897,4231.154,4296.41,4346.41,0,0
564,14,0,2600,4332.821,4298.59,4274.359,4285.255999999999,4293.205,4307.436,4303.59,4294.872,4292.308,4259.615,4350.0,4226.667,4291.282,4339.359,0,0
565,15,0,3238,4326.538,4290.769,4272.436,4279.359,4288.974,4305.128,4303.59,4294.231,4296.923,4258.974,4352.9490000000005,4224.359,4290.385,4332.436,0,0
566,16,0,0,4325.0,4295.255999999999,4272.179,4278.59,4285.513,4308.462,4299.103,4295.769,4302.308,4262.564,4351.795,4222.0509999999995,4294.487,4333.59,0,0
567,17,0,0,4321.41,4292.821,4270.513,4281.538,4284.103,4308.974,4296.667,4292.179,4297.179,4265.128,4347.821,4219.744000000001,4295.255999999999,4336.282,0,0
568,18,0,0,4323.333,4290.255999999999,4269.487,4284.744000000001,4283.077,4301.923,4297.308,4300.128,4293.718,4252.821,4343.077,4222.564,4289.103,4337.9490000000005,0,0
569,19,0,0,4328.974,4294.744000000001,4271.41,4282.179,4283.077,4300.513,4301.41,4312.692,4299.872,4246.923,4342.179,4224.744000000001,4287.9490000000005,4336.795,0,0
570,20,0,0,4322.179,4290.255999999999,4267.564,4273.59,4273.59,4296.538,4292.308,4287.436,4292.9490000000005,4252.821,4341.538,4221.667,4294.359,4331.667,0,0
571,21,0,0,4309.615,4278.718,4262.179,4264.103,4259.615,4281.538,4272.9490000000005,4254.103,4277.821,4246.41,4332.9490000000005,4218.205,4293.462,4325.385,0,0
572,22,0,0,4309.615,4272.821,4265.513,4264.359,4258.974,4279.872,4276.538,4276.154,4287.0509999999995,4234.744000000001,4327.564,4219.872,4289.359,4328.205,0,0
573,23,0,0,4309.103,4272.0509999999995,4264.231,4267.9490000000005,4267.564,4291.41,4285.255999999999,4295.255999999999,4297.308,4237.0509999999995,4328.846,4219.487,4291.154,4328.59,0,0
574,24,0,0,4297.308,4270.255999999999,4255.255999999999,4260.0,4261.795,4283.718,4266.795,4259.359,4280.385,4238.077,4323.077,4215.769,4288.974,4317.0509999999995,0,0
575,25,0,0,4287.692,4262.179,4251.538,4248.974,4247.436,4264.487,4249.487,4241.41,4270.128,4230.0,4310.769,4212.0509999999995,4279.744000000001,4308.462,0,0
576,26,0,0,4282.436,4249.231,4252.308,4247.9490000000005,4245.513,4261.41,4256.667,4261.795,4275.897,4226.923,4306.41,4211.538,4274.872,4304.231,0,0
577,27,0,0,4273.974,4246.026,4247.179,4248.333,4244.103,4263.974,4263.205,4266.41,4276.41,4229.231,4302.821,4208.462,4278.205,4292.692,0,0
578,28,0,0,4263.59,4246.154,4238.974,4237.692,4233.718,4258.718,4256.41,4254.359,4273.974,4226.026,4287.436,4207.564,4278.462,4278.333,0,0
579,29,0,0,4251.923,4232.9490000000005,4232.436,4221.026,4228.59,4256.154,4249.231,4249.615,4269.744000000001,4218.333,4282.308,4206.667,4271.282,4270.641,0,0
580,30,0,0,4244.487,4218.59,4231.154,4218.846,4230.128,4257.821,4248.974,4243.846,4261.538,4212.564,4289.487,4204.487,4269.103,4266.795,0,0
581,31,0,0,4245.513,4219.103,4228.59,4229.615,4229.231,4258.974,4248.718,4242.692,4261.026,4207.179,4277.692,4201.282,4273.718,4262.308,0,0
582,32,0,0,4247.436,4225.897,4228.718,4231.923,4230.897,4261.154,4248.077,4247.308,4264.359,4201.538,4267.436,4203.205,4276.667,4263.077,0,0
583,33,0,0,4247.821,4225.513,4234.103,4224.359,4233.718,4263.077,4254.487,4246.538,4262.821,4204.231,4277.564,4205.255999999999,4277.692,4266.154,0,0
584,34,0,0,4244.872,4225.769,4236.795,4225.385,4234.359,4264.231,4263.59,4252.9490000000005,4265.769,4218.846,4281.154,4204.231,4280.769,4264.487,0,0
585,35,0,0,4237.436,4222.0509999999995,4231.282,4226.667,4227.179,4261.154,4257.821,4257.821,4268.205,4222.179,4277.564,4202.692,4278.205,4255.513,0,0
586,36,0,0,4227.821,4213.077,4223.205,4218.205,4215.769,4252.436,4246.026,4243.333,4256.282,4203.59,4274.872,4200.513,4272.308,4245.385,0,0
587,37,0,0,4222.0509999999995,4210.385,4219.487,4215.641,4213.333,4247.564,4246.282,4236.282,4250.128,4196.026,4264.359,4198.974,4271.026,4243.846,0,0
588,38,0,0,4222.179,4212.0509999999995,4219.872,4217.179,4217.821,4252.308,4253.462,4252.0509999999995,4260.0,4210.769,4260.128,4199.231,4275.255999999999,4248.718,0,0
589,39,0,0,4222.692,4210.769,4222.308,4211.41,4215.385,4249.615,4250.513,4249.231,4258.846,4212.308,4265.385,4202.0509999999995,4278.462,4246.667,0,0
590,40,0,0,4223.205,4209.615,4221.538,4210.897,4212.9490000000005,4244.744000000001,4240.513,4227.564,4244.872,4197.308,4262.179,4200.769,4272.564,4243.59,0,0
591,41,0,0,4230.128,4216.282,4224.103,4220.641,4217.9490000000005,4254.487,4239.615,4226.795,4244.615,4199.359,4261.667,4199.487,4262.692,4248.846,0,0
592,42,0,0,4237.692,4221.282,4227.9490000000005,4225.385,4219.615,4257.564,4246.282,4238.974,4253.846,4212.0509999999995,4267.692,4198.974,4264.872,4255.128,0,0
593,43,0,0,4235.0,4219.103,4229.615,4221.41,4217.179,4246.154,4246.282,4239.615,4251.795,4209.231,4264.744000000001,4199.231,4273.077,4254.231,0,0
594,44,0,0,4232.0509999999995,4217.179,4228.462,4220.0,4218.077,4243.846,4246.667,4247.179,4249.231,4202.436,4265.897,4201.282,4272.692,4253.974,0,0
595,45,0,0,4238.974,4222.821,4229.231,4223.718,4219.231,4251.41,4257.308,4261.282,4257.436,4206.41,4271.41,4207.692,4268.718,4257.9490000000005,0,0
596,46,0,0,4241.026,4225.255999999999,4229.359,4222.9490000000005,4217.9490000000005,4253.077,4262.564,4258.846,4263.59,4210.385,4267.9490000000005,4207.179,4267.0509999999995,4258.59,0,0
597,47,0,0,4229.744000000001,4217.821,4222.9490000000005,4216.154,4218.077,4248.974,4248.59,4240.255999999999,4253.718,4209.231,4259.872,4201.41,4266.795,4249.103,0,0
598,48,0,0,4218.846,4215.128,4215.0,4209.615,4216.923,4245.128,4233.718,4220.641,4237.0509999999995,4199.103,4251.026,4196.667,4263.333,4234.615,0,0
599,49,0,0,4217.436,4215.385,4217.821,4212.0509999999995,4212.692,4243.205,4230.255999999999,4213.333,4231.282,4184.872,4241.41,4195.897,4256.41,4230.769,0,0
600,50,0,0,4216.923,4216.154,4224.744000000001,4218.462,4213.718,4242.9490000000005,4231.923,4217.436,4233.077,4186.41,4240.641,4197.179,4256.282,4232.308,0,0
601,51,0,0,4222.0509999999995,4222.564,4226.282,4218.59,4218.59,4244.872,4239.231,4226.538,4239.615,4201.154,4248.462,4200.0,4262.0509999999995,4234.744000000001,0,0
602,52,0,0,4231.538,4223.846,4226.282,4216.923,4220.385,4246.667,4244.615,4236.923,4243.974,4205.897,4252.821,4201.538,4262.179,4239.487,0,0
603,53,0,0,4226.026,4215.769,4224.103,4214.872,4214.487,4240.513,4237.436,4233.462,4235.897,4195.513,4248.974,4197.821,4257.436,4235.641,0,0
604,54,0,0,4215.641,4213.718,4221.538,4216.282,4206.282,4232.821,4230.0,4219.744000000001,4228.077,4189.615,4243.718,4194.872,4257.308,4226.538,0,0
605,55,0,0,4219.744000000001,4218.077,4222.179,4219.744000000001,4207.9490000000005,4233.718,4234.103,4221.667,4232.0509999999995,4195.255999999999,4248.205,4198.462,4260.641,4229.487,0,0
606,56,0,0,4220.128,4219.872,4222.9490000000005,4221.154,4215.385,4235.641,4240.255999999999,4227.821,4234.615,4196.282,4251.282,4201.795,4263.59,4235.128,0,0
607,57,0,0,4206.795,4212.821,4216.667,4216.795,4207.821,4231.41,4227.308,4212.436,4226.282,4186.026,4237.9490000000005,4194.231,4256.795,4221.795,0,0
608,58,0,0,4207.692,4206.795,4213.59,4214.872,4200.513,4230.641,4226.667,4213.205,4223.974,4185.0,4232.821,4191.41,4247.564,4214.615,0,0
609,59,0,0,4219.744000000001,4213.462,4221.923,4217.564,4214.103,4236.154,4253.59,4236.795,4234.103,4200.255999999999,4247.564,4196.538,4255.897,4228.718,0,0
610,60,0,0,4220.385,4220.513,4227.692,4215.513,4217.308,4235.0,4243.333,4226.538,4234.359,4205.128,4249.615,4196.923,4262.564,4231.154,0,0
611,61,0,0,4213.846,4212.821,4217.821,4209.359,4200.769,4225.769,4198.205,4199.103,4219.872,4196.795,4239.615,4194.872,4252.436,4218.59,0,0
612,62,0,0,4214.231,4208.077,4214.744000000001,4211.41,4195.128,4223.333,4198.462,4201.026,4217.0509999999995,4196.923,4242.692,4200.0,4252.564,4221.282,0,0
613,63,0,0,4217.821,4215.0,4225.128,4217.436,4202.821,4230.385,4229.359,4214.103,4227.692,4202.436,4243.718,4198.462,4262.692,4233.077,0,0
614,64,0,2109,4222.692,4218.205,4229.744000000001,4215.769,4205.255999999999,4234.359,4232.179,4225.513,4231.282,4201.667,4240.385,4195.897,4259.359,4232.308,0,0
615,65,0,2732,4225.769,4214.615,4226.026,4212.179,4203.333,4233.333,4229.487,4235.385,4231.538,4202.0509999999995,4248.846,4201.026,4257.564,4232.0509999999995,0,0
616,66,0,3123,4220.897,4213.205,4225.513,4215.897,4202.308,4232.821,4235.641,4227.436,4231.538,4203.077,4253.077,4202.9490000000005,4263.205,4235.385,0,0
617,67,0,2888,4216.026,4212.308,4223.205,4216.282,4200.897,4230.641,4231.795,4212.308,4222.9490000000005,4193.59,4242.9490000000005,4197.821,4255.897,4227.0509999999995,0,0
618,68,0,3574,4212.0509999999995,4206.026,4217.0509999999995,4205.385,4201.282,4228.333,4227.179,4211.538,4213.718,4183.462,4232.821,4193.718,4244.103,4216.154,0,0
619,69,0,3006,4204.615,4196.795,4215.255999999999,4197.0509999999995,4197.0509999999995,4227.308,4222.9490000000005,4214.872,4217.9490000000005,4185.897,4231.41,4192.821,4245.769,4214.103,0,0
620,70,0,3268,4200.385,4194.872,4214.103,4198.846,4190.128,4222.308,4213.205,4212.308,4219.615,4182.9490000000005,4231.026,4192.9490000000005,4246.026,4209.359,0,0
621,71,0,3351,4199.744000000001,4195.128,4210.128,4199.103,4184.744000000001,4215.128,4206.795,4205.128,4209.103,4168.59,4225.0,4192.821,4233.974,4202.564,0,0
622,72,0,2930,4198.974,4195.897,4208.846,4198.462,4184.744000000001,4213.077,4211.795,4200.385,4205.0,4169.615,4222.179,4188.718,4228.974,4206.538,0,0
623,73,0,3559,4208.077,4205.641,4216.923,4206.026,4191.538,4216.026,4218.718,4207.692,4214.231,4182.308,4229.872,4191.026,4241.154,4216.667,0,0
624,74,0,2600,4220.641,4214.359,4223.333,4210.897,4196.026,4218.59,4219.744000000001,4216.538,4219.744000000001,4184.872,4233.077,4195.641,4248.205,4219.231,0,0
625,75,0,3248,4218.974,4208.718,4221.41,4203.462,4196.538,4218.974,4220.769,4217.436,4217.308,4181.154,4228.718,4195.0,4242.0509999999995,4216.026,0,0
626,76,0,3004,4214.359,4202.0509999999995,4219.872,4199.872,4199.103,4219.744000000001,4219.359,4210.897,4216.282,4184.359,4230.0,4191.154,4240.897,4219.359,0,0
627,77,0,1047,4221.923,4210.255999999999,4221.154,4209.103,4202.308,4224.744000000001,4222.0509999999995,4209.487,4218.718,4193.333,4234.744000000001,4195.128,4248.205,4226.538,0,0
628,78,0,2600,4231.282,4219.744000000001,4223.974,4215.641,4201.923,4230.897,4227.0509999999995,4217.821,4219.872,4198.718,4236.667,4200.255999999999,4249.744000000001,4234.872,0,0
629,79,0,3248,4236.282,4220.897,4232.692,4216.026,4202.9490000000005,4232.436,4219.359,4219.359,4219.103,4198.974,4243.974,4202.436,4247.179,4244.615,0,0
630,80,0,3004,4235.641,4217.9490000000005,4234.103,4218.077,4205.255999999999,4229.744000000001,4211.41,4215.897,4219.103,4198.59,4249.744000000001,4202.564,4248.846,4245.641,0,0
631,81,0,1047,4222.821,4212.692,4221.538,4217.0509999999995,4202.436,4226.282,4215.513,4215.641,4218.59,4199.744000000001,4240.0,4200.385,4249.359,4229.615,0,0
632,82,0,2600,4213.077,4212.436,4217.308,4214.487,4198.974,4227.564,4218.846,4221.667,4219.872,4200.255999999999,4229.103,4198.462,4247.692,4217.436,0,0
633,83,0,3248,4223.462,4217.0509999999995,4226.154,4216.41,4201.41,4232.9490000000005,4224.487,4224.103,4220.0,4201.282,4232.821,4198.718,4248.333,4226.795,0,0
634,84,0,3004,4232.308,4218.205,4228.974,4218.59,4205.255999999999,4231.154,4230.385,4220.255999999999,4218.846,4201.667,4236.154,4202.0509999999995,4249.103,4233.974,0,0
635,85,0,1047,4224.744000000001,4217.692,4227.0509999999995,4218.333,4204.487,4223.077,4223.077,4228.333,4224.103,4201.41,4231.026,4201.41,4247.179,4224.872,0,0
636,86,0,2600,4212.9490000000005,4213.718,4225.641,4216.282,4202.0509999999995,4218.718,4215.0,4232.692,4225.128,4203.974,4230.641,4200.0,4246.282,4215.128,0,0
637,87,0,3248,4208.205,4206.667,4219.231,4210.255999999999,4199.359,4220.128,4215.385,4206.667,4213.718,4200.897,4229.231,4199.744000000001,4248.718,4214.744000000001,0,0
638,88,0,3004,4208.333,4205.641,4218.462,4203.846,4197.0509999999995,4222.0509999999995,4215.385,4190.0,4209.744000000001,4193.59,4219.615,4199.744000000001,4242.564,4213.718,0,0
639,89,0,1047,4209.231,4207.308,4222.436,4202.9490000000005,4198.205,4220.769,4216.538,4208.59,4217.436,4191.667,4215.255999999999,4199.231,4237.436,4206.282,0,0
640,90,0,2600,4205.513,4205.769,4222.0509999999995,4206.923,4199.744000000001,4223.718,4218.333,4212.436,4213.59,4190.641,4216.41,4197.308,4239.872,4199.872,0,0
641,91,0,3248,4202.9490000000005,4208.077,4219.872,4211.795,4200.255999999999,4230.769,4220.513,4199.744000000001,4207.0509999999995,4193.718,4217.179,4193.333,4238.333,4199.744000000001,0,0
642,92,0,3004,4210.641,4214.231,4223.333,4214.744000000001,4202.179,4227.9490000000005,4226.795,4209.615,4214.359,4198.718,4219.231,4195.513,4239.359,4210.128,0,0
643,93,0,1047,4216.41,4211.154,4225.0,4212.564,4203.205,4218.205,4228.846,4227.9490000000005,4221.41,4199.231,4220.0,4198.205,4245.641,4218.077,0,0
644,94,0,2600,4213.846,4207.436,4225.513,4211.282,4199.744000000001,4216.667,4227.179,4234.615,4221.667,4208.59,4217.692,4198.462,4244.487,4215.255999999999,0,0
645,95,0,3248,4214.615,4212.179,4228.333,4214.872,4202.821,4224.359,4230.641,4225.385,4218.077,4198.718,4219.872,4200.385,4239.744000000001,4214.103,0,0
646,96,0,3004,4217.9490000000005,4217.564,4231.795,4217.564,4210.128,4229.231,4233.205,4211.154,4214.231,4153.974,4219.103,4203.205,4243.462,4218.974,0,0
647,97,0,1047,4218.974,4217.436,4232.308,4216.667,4210.0,4230.769,4233.974,4213.718,4214.872,4141.41,4216.154,4201.923,4244.872,4221.282,0,0
648,98,0,2600,4217.821,4216.41,4230.255999999999,4215.641,4206.282,4230.0,4235.897,4225.255999999999,4220.255999999999,4181.026,4224.872,4201.538,4241.154,4218.846,0,0
649,99,0,3248,4215.769,4220.128,4229.872,4218.077,4205.385,4225.769,4229.615,4216.923,4221.538,4204.231,4230.641,4203.462,4246.667,4219.359,0,0
650,100,0,3004,4211.154,4218.462,4227.564,4218.59,4203.59,4217.9490000000005,4217.308,4201.667,4216.923,4197.179,4220.897,4202.179,4248.59,4219.872,0,0
651,101,0,1047,4209.359,4214.231,4224.487,4212.564,4201.026,4215.128,4214.744000000001,4207.0509999999995,4213.974,4197.179,4219.744000000001,4203.59,4238.333,4219.103,0,0
652,102,0,2600,4212.179,4213.59,4225.513,4208.718,4201.795,4218.846,4219.359,4220.385,4218.205,4205.897,4232.9490000000005,4205.897,4234.487,4220.769,0,0
653,103,0,3248,4211.026,4212.821,4226.282,4209.231,4200.385,4213.462,4214.487,4216.026,4218.718,4213.205,4230.128,4204.744000000001,4242.436,4219.615,0,0
654,104,0,3004,4211.923,4215.897,4223.59,4209.487,4198.846,4207.692,4215.641,4218.462,4216.667,4218.718,4224.615,4202.179,4245.897,4217.308,0,0
655,105,0,1047,4216.026,4215.0,4224.744000000001,4205.255999999999,4201.41,4212.9490000000005,4224.872,4234.487,4220.255999999999,4216.795,4230.897,4203.846,4239.744000000001,4220.513,0,0
656,106,0,2600,4211.667,4204.872,4226.923,4202.0509999999995,4202.308,4216.795,4221.538,4224.487,4216.282,4208.205,4223.59,4203.846,4234.103,4219.744000000001,0,0
657,107,0,3248,4200.385,4203.077,4223.462,4204.231,4202.9490000000005,4214.615,4215.0,4201.026,4205.128,4201.667,4210.385,4201.923,4232.436,4207.436,0,0
658,108,0,3004,4197.308,4211.154,4216.41,4207.692,4203.077,4208.718,4212.436,4197.9490000000005,4204.615,4206.026,4212.821,4198.077,4231.667,4200.513,0,0
659,109,0,1047,4205.385,4213.846,4216.667,4211.538,4202.0509999999995,4204.744000000001,4203.462,4205.769,4209.872,4210.255999999999,4219.615,4197.9490000000005,4232.179,4207.692,0,0
660,110,0,2600,4206.923,4211.41,4220.0,4207.436,4202.0509999999995,4207.564,4198.077,4200.255999999999,4208.462,4206.923,4216.41,4197.692,4233.077,4209.231,0,0
661,111,0,3248,4199.231,4212.308,4219.487,4201.538,4199.872,4212.564,4203.333,4187.9490000000005,4204.103,4202.821,4213.333,4197.308,4232.821,4201.795,0,0
662,112,0,3004,4198.462,4214.231,4219.103,4210.255999999999,4199.744000000001,4213.205,4205.128,4187.821,4201.154,4200.897,4212.564,4199.359,4229.231,4201.282,0,0
663,113,0,1047,4208.077,4217.692,4223.974,4222.0509999999995,4209.744000000001,4215.897,4206.41,4202.179,4204.615,4207.564,4215.385,4202.436,4228.974,4211.282,0,0
664,114,0,2600,4213.59,4222.821,4228.333,4217.564,4215.513,4220.641,4217.0509999999995,4217.179,4216.795,4215.641,4222.179,4203.846,4233.077,4217.821,0,0
665,115,0,3248,4206.795,4216.923,4224.103,4203.077,4204.744000000001,4219.615,4223.462,4216.538,4214.615,4210.0,4215.513,4202.179,4232.692,4208.205,0,0
666,116,0,3004,4193.974,4204.231,4215.255999999999,4202.179,4197.9490000000005,4219.487,4217.436,4204.872,4200.0,4201.026,4200.769,4194.744000000001,4227.9490000000005,4189.487,0,0
667,117,0,1047,4186.282,4203.462,4208.077,4203.077,4207.821,4219.744000000001,4208.974,4194.103,4196.026,4199.359,4195.513,4187.179,4224.231,4182.9490000000005,0,0
668,118,0,2600,4191.026,4213.718,4210.255999999999,4199.231,4215.255999999999,4219.103,4215.641,4198.846,4202.692,4202.9490000000005,4202.179,4190.897,4228.718,4194.231,0,0
669,119,0,3248,4191.41,4210.0,4210.385,4200.0,4208.333,4220.769,4221.795,4205.385,4206.795,4203.462,4203.077,4192.564,4234.103,4195.255999999999,0,0
670,120,0,3004,4175.385,4197.179,4198.59,4197.692,4199.359,4216.538,4202.821,4184.231,4200.128,4191.923,4189.359,4183.59,4225.128,4172.9490000000005,0,0
671,121,0,1047,4165.769,4197.179,4190.513,4187.692,4195.769,4207.692,4185.769,4165.128,4192.308,4184.872,4180.255999999999,4180.385,4215.0,4162.821,0,0
672,122,0,2600,4178.462,4202.564,4200.641,4190.769,4196.795,4203.333,4195.385,4179.359,4198.462,4196.026,4192.692,4190.641,4221.538,4181.282,0,0
673,123,0,3248,4188.462,4203.205,4211.538,4202.9490000000005,4199.359,4203.974,4204.103,4194.487,4205.641,4204.359,4207.436,4195.769,4227.308,4193.974,0,0
674,124,0,3004,4185.128,4201.795,4211.282,4200.897,4197.692,4203.205,4196.795,4190.897,4200.385,4198.077,4202.436,4195.255999999999,4218.462,4187.0509999999995,0,0
675,125,0,1047,4182.564,4200.0,4207.9490000000005,4195.128,4193.59,4199.103,4194.744000000001,4198.205,4201.667,4198.718,4196.923,4194.744000000001,4215.128,4184.487,0,0
676,126,0,2600,4184.487,4200.128,4209.359,4199.615,4197.9490000000005,4201.41,4209.359,4219.103,4216.026,4208.462,4204.615,4198.462,4223.077,4190.255999999999,0,0
677,127,0,51,4185.897,4204.103,4210.385,4203.077,4204.872,4208.974,4223.077,4227.821,4221.795,4211.026,4207.436,4197.692,4225.513,4190.641,0,0
678,0,0,2107,4184.744000000001,4202.821,4209.231,4200.769,4201.282,4206.923,4215.128,4213.846,4212.564,4205.385,4200.255999999999,4193.205,4218.846,4185.769,0,0
679,1,0,2718,4185.0,4199.615,4205.513,4196.795,4195.255999999999,4200.641,4201.538,4192.692,4202.821,4199.359,4195.897,4193.846,4216.923,4183.846,0,0
680,2,0,3123,4192.0509999999995,4207.179,4206.41,4197.436,4197.692,4207.0509999999995,4206.795,4192.308,4202.179,4200.513,4199.744000000001,4199.744000000001,4224.487,4190.385,0,0
681,3,0,2890,4199.103,4217.179,4214.103,4204.359,4203.59,4215.641,4219.487,4201.41,4204.359,4202.179,4201.795,4204.744000000001,4227.9490000000005,4199.103,0,0
682,4,0,3577,4196.667,4216.282,4216.154,4206.795,4205.385,4217.821,4216.795,4192.692,4201.41,4196.282,4198.718,4203.846,4222.692,4199.103,0,0
683,5,0,3006,4186.667,4207.436,4208.974,4201.795,4200.897,4212.9490000000005,4204.872,4180.255999999999,4195.0,4192.692,4196.538,4202.9490000000005,4216.538,4192.821,0,0
684,6,0,3269,4182.564,4200.513,4207.308,4198.333,4195.385,4203.718,4202.0509999999995,4188.846,4199.231,4196.795,4200.513,4201.154,4218.205,4193.59,0,0
685,7,0,3343,4191.282,4205.128,4220.128,4202.564,4201.154,4208.077,4220.641,4206.282,4209.359,4204.744000000001,4207.0509999999995,4205.255999999999,4224.487,4202.0509999999995,0,0
686,8,0,2928,4202.9490000000005,4217.0509999999995,4232.821,4213.974,4212.821,4221.667,4233.077,4207.692,4211.41,4206.538,4206.923,4208.718,4222.821,4208.205,0,0
687,9,0,3548,4206.154,4216.795,4234.487,4219.359,4211.026,4216.154,4212.821,4190.769,4201.41,4196.026,4202.564,4205.897,4217.692,4203.59,0,0
688,10,0,2601,4199.487,4206.667,4228.462,4211.923,4200.769,4200.128,4192.308,4179.872,4191.795,4186.282,4197.308,4200.641,4212.821,4192.564,0,0
689,11,0,3242,4188.59,4202.564,4222.308,4203.462,4197.308,4199.744000000001,4197.9490000000005,4184.872,4190.385,4181.667,4189.872,4198.077,4205.769,4185.255999999999,0,0
690,12,0,3001,4178.077,4199.615,4215.255999999999,4197.308,4191.923,4203.205,4204.103,4186.795,4189.359,4176.795,4182.436,4195.641,4199.359,4179.487,0,0
691,13,0,1040,4178.846,4197.821,4213.718,4193.974,4185.128,4200.0,4201.154,4178.974,4185.641,4176.282,4181.538,4197.179,4198.974,4178.077,0,0
692,14,0,2601,4185.0,4203.205,4216.026,4198.462,4191.154,4199.103,4202.564,4174.615,4182.436,4183.59,4183.974,4199.103,4201.795,4181.282,0,0
693,15,0,3242,4182.821,4204.872,4212.9490000000005,4200.641,4196.154,4201.282,4204.231,4182.0509999999995,4187.9490000000005,4190.385,4187.308,4198.59,4207.179,4185.385,0,0
694,16,0,0,4179.872,4199.103,4208.846,4196.154,4194.231,4201.026,4201.923,4193.205,4197.308,4195.513,4195.255999999999,4201.026,4214.744000000001,4190.641,0,0
695,17,0,0,4184.359,4202.436,4214.872,4197.564,4200.255999999999,4202.0509999999995,4209.359,4203.077,4200.769,4204.744000000001,4200.128,4207.564,4216.282,4198.333,0,0
696,18,0,0,4188.974,4208.462,4222.436,4202.821,4205.385,4205.128,4209.231,4203.205,4199.744000000001,4208.077,4198.59,4208.718,4216.282,4201.795,0,0
697,19,0,0,4183.974,4203.718,4214.231,4200.769,4200.385,4202.436,4204.872,4189.487,4192.308,4204.487,4196.41,4202.308,4217.821,4196.154,0,0
698,20,0,0,4180.897,4200.513,4206.154,4198.462,4199.231,4200.641,4213.205,4189.231,4193.59,4207.9490000000005,4196.538,4200.0,4215.385,4192.308,0,0
699,21,0,0,4185.769,4203.205,4210.0,4198.205,4201.667,4203.846,4211.667,4208.718,4207.564,4216.795,4198.846,4201.282,4218.333,4194.103,0,0
700,22,0,0,4187.0509999999995,4202.436,4211.41,4197.564,4196.154,4197.9490000000005,4187.436,4204.615,4210.769,4218.846,4200.128,4202.308,4226.667,4197.564,0,0
701,23,0,0,4183.333,4203.077,4206.795,4198.077,4194.103,4188.205,4173.077,4180.769,4198.077,4213.077,4199.359,4200.513,4225.897,4198.59,0,0
702,24,0,0,4183.718,4207.821,4210.128,4198.846,4200.0,4193.462,4186.154,4181.795,4195.897,4214.231,4198.077,4200.513,4222.179,4198.974,0,0
703,25,0,0,4192.564,4209.744000000001,4214.487,4200.0,4201.154,4202.308,4199.103,4190.897,4203.974,4218.205,4198.974,4201.026,4223.59,4201.667,0,0
704,26,0,0,4200.128,4212.0509999999995,4217.0509999999995,4201.667,4197.564,4199.103,4198.974,4181.538,4199.359,4214.359,4198.846,4203.333,4222.0509999999995,4207.564,0,0
705,27,0,0,4205.255999999999,4217.0509999999995,4223.462,4203.974,4198.333,4196.538,4196.282,4186.154,4196.026,4213.205,4199.231,4204.615,4215.769,4217.308,0,0
706,28,0,0,4211.026,4219.615,4228.846,4207.436,4201.154,4201.667,4200.255999999999,4200.128,4200.769,4215.769,4202.0509999999995,4205.385,4216.923,4218.205,0,0
707,29,0,0,4209.103,4217.564,4225.0,4207.0509999999995,4201.154,4203.333,4204.872,4191.923,4193.846,4209.744000000001,4196.795,4204.231,4216.026,4208.846,0,0
708,30,0,0,4199.103,4211.923,4221.026,4200.641,4198.077,4199.359,4200.385,4182.564,4181.41,4198.333,4187.0509999999995,4203.205,4206.667,4200.255999999999,0,0
709,31,0,0,4198.462,4209.615,4225.769,4199.744000000001,4197.308,4199.359,4206.026,4204.872,4190.255999999999,4202.0509999999995,4191.282,4204.744000000001,4207.9490000000005,4201.154,0,0
710,32,0,0,4208.077,4214.231,4231.41,4205.128,4202.308,4203.974,4219.872,4226.667,4209.872,4215.128,4203.974,4206.667,4218.333,4212.308,0,0
711,33,0,0,4206.282,4215.385,4228.205,4205.255999999999,4203.718,4205.897,4217.179,4204.359,4201.667,4215.128,4200.0,4203.462,4219.615,4215.513,0,0
712,34,0,0,4201.154,4214.103,4220.385,4200.385,4196.154,4200.641,4204.359,4180.0,4185.128,4207.308,4188.846,4201.154,4215.0,4204.872,0,0
713,35,0,0,4203.077,4214.359,4220.0,4198.974,4193.462,4194.872,4202.821,4194.744000000001,4191.41,4206.795,4191.154,4206.026,4217.9490000000005,4200.769,0,0
714,36,0,0,4197.821,4210.513,4219.359,4202.0509999999995,4196.154,4197.821,4206.026,4205.385,4197.179,4206.154,4193.462,4205.385,4219.103,4203.205,0,0
715,37,0,0,4186.538,4204.872,4212.0509999999995,4197.179,4190.385,4198.462,4199.872,4187.564,4186.282,4199.103,4185.385,4200.513,4214.359,4193.077,0,0
716,38,0,0,4183.59,4203.974,4210.0,4190.513,4184.744000000001,4190.255999999999,4197.564,4181.154,4182.9490000000005,4197.0509999999995,4179.872,4199.487,4212.821,4182.0509999999995,0,0
717,39,0,0,4187.9490000000005,4204.744000000001,4217.564,4194.615,4187.308,4186.026,4198.077,4189.872,4191.667,4200.641,4183.462,4202.436,4216.667,4187.308,0,0
718,40,0,0,4189.231,4201.41,4217.564,4195.385,4186.923,4189.103,4192.821,4190.255999999999,4191.538,4201.538,4186.026,4201.795,4216.154,4191.538,0,0
719,41,0,0,4186.154,4198.846,4208.462,4187.436,4184.487,4189.615,4189.487,4195.641,4191.538,4200.769,4185.769,4200.128,4211.41,4186.154,0,0
720,42,0,0,4179.359,4198.205,4206.026,4185.513,4184.103,4185.897,4189.231,4195.641,4191.41,4201.538,4185.769,4198.077,4211.667,4184.103,0,0
721,43,0,0,4178.974,4197.308,4213.846,4188.718,4184.103,4184.359,4192.179,4188.077,4186.41,4205.385,4186.795,4199.872,4214.359,4188.205,0,0
722,44,0,0,4185.128,4200.641,4215.385,4188.974,4187.436,4186.795,4196.795,4195.641,4192.9490000000005,4213.59,4192.821,4204.231,4215.897,4190.0,0,0
723,45,0,0,4187.564,4206.154,4210.897,4195.513,4192.179,4190.385,4197.308,4206.41,4201.026,4219.744000000001,4195.897,4204.487,4217.821,4189.231,0,0
724,46,0,0,4185.513,4206.795,4209.359,4197.692,4192.308,4189.103,4194.615,4200.769,4191.41,4213.462,4191.026,4199.103,4216.667,4188.205,0,0
725,47,0,0,4185.0,4202.0509999999995,4211.154,4189.615,4189.103,4186.154,4190.641,4193.333,4182.179,4201.538,4185.385,4198.333,4213.59,4185.769,0,0
726,48,0,0,4184.231,4198.205,4210.897,4185.0,4186.538,4187.821,4187.821,4204.359,4190.513,4197.564,4183.462,4201.41,4213.974,4183.59,0,0
727,49,0,0,4183.718,4197.564,4207.564,4187.179,4191.923,4191.026,4193.333,4215.255999999999,4198.59,4205.769,4181.795,4202.0509999999995,4215.255999999999,4182.821,0,0
728,50,0,0,4186.538,4200.769,4209.744000000001,4193.846,4199.103,4191.282,4201.667,4213.077,4198.718,4214.872,4185.0,4201.026,4215.897,4184.487,0,0
729,51,0,0,4188.462,4201.154,4212.436,4193.205,4192.436,4187.821,4196.538,4207.179,4197.564,4210.513,4188.59,4200.0,4214.103,4185.513,0,0
730,52,0,0,4188.462,4198.59,4208.205,4183.974,4181.154,4185.897,4188.974,4208.205,4197.436,4206.154,4185.513,4202.564,4210.255999999999,4187.179,0,0
731,53,0,0,4194.359,4200.255999999999,4207.821,4187.308,4183.59,4187.308,4188.59,4211.667,4201.154,4214.615,4189.487,4205.128,4210.897,4195.128,0,0
732,54,0,0,4201.282,4202.179,4214.359,4198.077,4189.487,4188.333,4187.9490000000005,4203.718,4199.615,4222.821,4201.026,4206.538,4216.026,4203.59,0,0
733,55,0,0,4197.564,4200.385,4215.641,4193.333,4188.333,4187.9490000000005,4188.205,4187.0509999999995,4190.385,4217.0509999999995,4201.154,4204.615,4217.564,4204.103,0,0
734,56,0,0,4189.615,4198.333,4213.462,4185.255999999999,4185.897,4186.154,4188.205,4177.692,4181.282,4206.154,4189.103,4203.59,4210.255999999999,4196.795,0,0
735,57,0,0,4179.744000000001,4192.179,4208.974,4187.9490000000005,4184.359,4184.359,4185.897,4183.205,4179.231,4198.718,4181.538,4200.513,4201.154,4187.0509999999995,0,0
736,58,0,0,4171.667,4188.462,4201.41,4185.769,4183.205,4184.103,4183.846,4186.923,4181.538,4198.718,4180.641,4198.077,4197.308,4180.128,0,0
737,59,0,0,4177.9490000000005,4198.205,4202.436,4185.769,4189.615,4185.513,4186.795,4187.9490000000005,4185.641,4210.128,4187.436,4199.231,4203.59,4185.255999999999,0,0
738,60,0,0,4187.9490000000005,4208.077,4214.231,4196.795,4200.385,4186.795,4192.0509999999995,4200.897,4188.846,4220.641,4200.513,4202.821,4213.59,4195.641,0,0
739,61,0,0,4186.154,4203.462,4215.641,4199.231,4202.436,4187.179,4192.9490000000005,4202.821,4188.205,4218.846,4199.615,4202.9490000000005,4211.795,4194.103,0,0
740,62,0,0,4182.564,4199.615,4209.359,4195.255999999999,4198.205,4184.872,4185.513,4185.513,4181.41,4213.59,4186.667,4200.385,4203.974,4185.385,0,0
741,63,0,0,4178.462,4201.41,4204.744000000001,4193.462,4196.795,4183.333,4181.667,4181.026,4173.718,4210.769,4181.154,4195.769,4201.667,4176.538,0,0
742,64,0,2108,4172.821,4196.41,4202.436,4190.0,4193.462,4185.769,4194.103,4192.821,4171.41,4204.744000000001,4180.769,4193.59,4202.821,4173.077,0,0
743,65,0,2722,4180.255999999999,4192.821,4206.282,4192.821,4187.9490000000005,4186.282,4203.077,4191.154,4170.513,4199.744000000001,4179.359,4197.692,4200.641,4179.359,0,0
744,66,0,3121,4189.103,4196.667,4210.385,4198.077,4186.154,4182.821,4191.154,4189.487,4174.359,4201.795,4183.718,4200.769,4201.026,4185.513,0,0
745,67,0,2888,4185.0,4199.872,4211.154,4193.59,4186.538,4180.513,4179.744000000001,4198.846,4182.436,4202.436,4187.308,4201.154,4200.769,4183.846,0,0
746,68,0,3577,4184.359,4200.513,4210.513,4193.077,4193.59,4184.359,4193.333,4195.385,4185.0,4204.615,4188.077,4201.795,4201.667,4185.897,0,0
747,69,0,3006,4193.462,4201.795,4212.0509999999995,4202.0509999999995,4199.872,4188.077,4205.0,4187.179,4184.872,4213.077,4193.718,4203.59,4210.513,4198.205,0,0
748,70,0,3269,4199.744000000001,4204.872,4214.231,4201.795,4190.769,4181.282,4189.615,4187.9490000000005,4187.436,4216.538,4197.0509999999995,4205.255999999999,4210.255999999999,4204.872,0,0
749,71,0,3333,4201.41,4210.513,4218.205,4200.897,4182.9490000000005,4175.513,4178.846,4187.692,4187.436,4214.103,4196.154,4208.205,4205.897,4202.692,0,0
750,72,0,2927,4203.846,4210.897,4216.923,4203.974,4194.231,4181.41,4193.205,4191.41,4185.255999999999,4215.897,4201.538,4207.179,4212.692,4201.667,0,0
751,73,0,3552,4200.897,4202.436,4214.231,4201.282,4200.385,4187.0509999999995,4203.718,4202.436,4186.282,4216.923,4207.692,4206.538,4213.077,4202.308,0,0
752,74,0,2601,4190.769,4200.513,4214.487,4199.359,4194.872,4184.487,4199.359,4207.179,4189.872,4212.9490000000005,4201.154,4204.487,4202.821,4196.538,0,0
753,75,0,3242,4187.9490000000005,4204.487,4213.077,4201.923,4196.026,4185.255999999999,4202.179,4199.103,4187.0509999999995,4208.718,4188.59,4202.0509999999995,4201.026,4186.41,0,0
754,76,0,3001,4195.769,4203.846,4211.667,4201.154,4197.821,4187.9490000000005,4199.615,4184.615,4174.231,4201.538,4182.179,4201.667,4203.718,4183.718,0,0
755,77,0,1036,4201.795,4207.692,4213.846,4200.769,4197.0509999999995,4183.718,4185.0,4178.59,4173.718,4200.641,4186.667,4203.333,4200.385,4193.462,0,0
756,78,0,2601,4201.154,4212.692,4211.923,4202.692,4198.59,4182.0509999999995,4180.641,4189.231,4184.615,4211.795,4192.821,4202.821,4202.692,4199.744000000001,0,0
757,79,0,3242,4193.974,4207.308,4204.615,4199.744000000001,4193.077,4181.41,4185.769,4189.487,4178.59,4212.692,4185.769,4201.795,4205.385,4194.872,0,0
758,80,0,3001,4178.846,4194.231,4199.359,4191.667,4184.487,4174.744000000001,4186.538,4172.564,4164.231,4195.513,4170.769,4197.0509999999995,4197.564,4180.513,0,0
759,81,0,1036,4166.538,4185.128,4196.154,4184.872,4185.0,4169.231,4184.359,4163.59,4162.436,4185.128,4164.744000000001,4190.897,4188.718,4163.205,0,0
760,82,0,2601,4167.564,4185.897,4194.231,4183.077,4181.154,4169.103,4183.974,4169.359,4164.744000000001,4183.846,4165.128,4193.205,4181.154,4159.359,0,0
761,83,0,3242,4171.538,4186.282,4196.282,4185.0,4174.231,4166.795,4182.436,4182.692,4164.744000000001,4180.769,4166.154,4193.974,4177.179,4164.359,0,0
762,84,0,3001,4171.538,4186.026,4202.308,4189.231,4181.795,4166.923,4184.615,4189.487,4171.282,4193.718,4176.923,4194.872,4188.718,4171.41,0,0
763,85,0,1036,4174.231,4194.231,4205.513,4192.821,4190.513,4172.821,4189.744000000001,4180.641,4176.538,4214.231,4189.359,4198.205,4202.692,4182.0509999999995,0,0
764,86,0,2601,4174.231,4197.179,4198.974,4187.9490000000005,4185.0,4171.667,4188.205,4172.9490000000005,4173.205,4209.615,4188.077,4196.795,4200.641,4183.205,0,0
765,87,0,3242,4168.462,4186.41,4194.487,4186.41,4179.744000000001,4167.692,4186.026,4183.205,4169.744000000001,4196.282,4181.538,4194.231,4194.103,4171.923,0,0
766,88,0,3001,4176.026,4190.897,4203.462,4191.41,4187.0509999999995,4171.282,4190.641,4193.846,4172.821,4200.897,4182.0509999999995,4200.255999999999,4198.718,4174.487,0,0
767,89,0,1036,4187.692,4203.59,4207.0509999999995,4193.205,4191.282,4173.077,4192.179,4181.154,4172.0509999999995,4205.0,4184.744000000001,4201.923,4202.179,4190.897,0,0
