,COUNTER, INTERPOLATED, RAW_CQ, AF3, F7, F3, FC5, T7, P7, O1, O2, P8, T8, FC6, F4, F8, AF4, MARKER_HARDWARE, MARKER
0,119,0,3202,4177.0509999999995,4159.487,4186.41,4170.128,4166.41,4170.897,4183.718,4198.462,4186.795,4210.128,4185.513,4166.667,4200.255999999999,4190.513,0,0
1,120,0,2959,4177.0509999999995,4155.0,4189.615,4168.974,4166.026,4167.436,4183.846,4199.872,4187.179,4205.255999999999,4190.385,4168.462,4197.436,4199.487,0,0
2,121,0,1817,4179.615,4153.846,4188.077,4171.923,4174.103,4176.667,4180.769,4196.282,4187.821,4204.615,4189.103,4173.205,4198.205,4196.667,0,0
3,122,0,2372,4180.385,4157.0509999999995,4185.128,4170.385,4174.103,4176.41,4172.821,4193.974,4185.255999999999,4203.205,4185.513,4169.744000000001,4197.0509999999995,4190.0,0,0
4,123,0,3202,4171.667,4155.769,4179.872,4168.846,4170.513,4169.487,4180.0,4198.205,4184.615,4203.718,4181.923,4164.872,4191.026,4189.103,0,0
5,124,0,2959,4168.462,4154.103,4177.436,4168.077,4170.385,4170.641,4186.026,4196.026,4183.205,4199.872,4175.255999999999,4164.487,4187.0509999999995,4188.59,0,0
6,125,0,1817,4170.385,4152.179,4178.462,4163.846,4171.282,4172.179,4175.513,4183.974,4177.0509999999995,4189.744000000001,4168.333,4162.436,4186.538,4183.974,0,0
7,126,0,2372,4164.359,4151.795,4174.615,4160.0,4169.744000000001,4167.564,4168.205,4173.974,4170.897,4187.179,4168.462,4158.077,4185.513,4180.513,0,0
8,127,0,51,4159.103,4153.205,4168.205,4157.821,4167.564,4166.154,4163.846,4167.821,4170.255999999999,4190.255999999999,4167.308,4154.103,4185.255999999999,4175.769,0,0
9,0,0,2042,4160.641,4154.359,4166.795,4157.692,4169.872,4169.487,4155.0,4167.564,4173.205,4187.179,4159.359,4153.462,4186.154,4168.846,0,0
10,1,0,2671,4156.667,4154.231,4166.282,4157.821,4171.41,4164.103,4153.333,4165.255999999999,4169.872,4182.179,4154.487,4152.9490000000005,4184.872,4163.718,0,0
11,2,0,3096,4152.692,4153.718,4167.0509999999995,4156.667,4167.9490000000005,4159.231,4158.974,4165.385,4169.744000000001,4183.846,4154.615,4153.974,4183.205,4165.513,0,0
12,3,0,2952,4155.897,4155.0,4168.205,4157.436,4166.154,4165.255999999999,4162.179,4178.333,4181.154,4187.179,4156.282,4151.154,4184.615,4171.154,0,0
13,4,0,3584,4155.0,4154.615,4167.564,4157.692,4168.846,4172.308,4168.846,4187.308,4187.179,4189.615,4154.359,4150.0,4186.026,4170.641,0,0
14,5,0,3062,4151.41,4148.59,4169.872,4157.692,4171.026,4173.974,4176.154,4185.385,4187.692,4194.487,4152.436,4153.974,4187.821,4166.923,0,0
15,6,0,3249,4152.9490000000005,4142.0509999999995,4174.872,4160.897,4170.769,4174.359,4174.744000000001,4187.692,4193.333,4199.231,4159.487,4158.205,4192.692,4166.923,0,0
16,7,0,3326,4150.255999999999,4136.667,4170.897,4158.974,4170.128,4172.308,4170.641,4198.59,4196.795,4206.154,4173.205,4157.0509999999995,4198.077,4172.0509999999995,0,0
17,8,0,2985,4143.205,4129.872,4167.179,4152.436,4166.154,4170.641,4171.795,4201.923,4195.897,4214.103,4184.872,4157.821,4200.385,4180.255999999999,0,0
18,9,0,3565,4140.385,4118.974,4168.718,4148.846,4161.538,4174.359,4175.769,4192.179,4200.255999999999,4218.974,4191.282,4163.077,4199.744000000001,4185.513,0,0
19,10,0,2372,4137.308,4109.231,4166.923,4141.923,4156.538,4171.41,4170.0,4181.154,4197.564,4220.769,4196.538,4165.385,4204.359,4188.333,0,0
20,11,0,3202,4132.9490000000005,4100.897,4166.923,4136.154,4153.077,4166.667,4167.564,4187.179,4196.41,4232.564,4206.923,4165.641,4216.667,4196.538,0,0
21,12,0,2957,4131.795,4092.308,4173.718,4137.692,4156.154,4175.769,4181.41,4203.462,4214.615,4247.308,4217.308,4170.0,4223.077,4206.923,0,0
22,13,0,1814,4127.179,4086.667,4172.9490000000005,4137.436,4156.667,4183.846,4190.385,4205.769,4219.744000000001,4241.41,4216.667,4171.538,4216.026,4201.923,0,0
23,14,0,2372,4124.359,4089.8720000000003,4166.026,4136.667,4155.641,4181.026,4189.744000000001,4206.282,4203.333,4230.0,4213.462,4167.436,4211.923,4186.538,0,0
24,15,0,3202,4134.103,4100.641,4171.026,4143.59,4162.308,4181.538,4196.795,4214.487,4201.282,4234.487,4218.205,4170.769,4216.667,4181.154,0,0
25,16,0,0,4143.846,4108.205,4178.718,4150.255999999999,4171.667,4186.795,4206.41,4217.821,4210.897,4242.564,4222.692,4176.026,4219.103,4187.436,0,0
26,17,0,0,4139.615,4104.744000000001,4177.9490000000005,4148.974,4171.41,4185.769,4200.128,4212.308,4208.077,4237.564,4220.0,4174.359,4217.179,4185.255999999999,0,0
27,18,0,0,4128.718,4096.923,4169.103,4143.974,4167.179,4181.41,4186.026,4205.769,4207.436,4230.0,4215.641,4170.385,4217.436,4171.026,0,0
28,19,0,0,4128.205,4097.821,4168.462,4140.513,4167.821,4181.667,4181.923,4203.59,4221.795,4233.59,4215.128,4171.41,4225.0,4172.179,0,0
29,20,0,0,4138.59,4106.282,4177.308,4143.59,4169.359,4184.103,4188.462,4203.462,4220.385,4239.744000000001,4219.231,4171.667,4223.462,4184.359,0,0
30,21,0,0,4142.692,4108.718,4181.41,4147.564,4170.385,4184.487,4195.769,4198.718,4193.205,4230.0,4218.974,4173.205,4204.872,4179.359,0,0
31,22,0,0,4133.846,4102.692,4175.385,4143.462,4170.385,4184.103,4202.179,4204.744000000001,4183.846,4215.385,4213.077,4175.513,4194.359,4170.128,0,0
32,23,0,0,4127.692,4099.487,4167.821,4137.821,4166.923,4183.205,4201.923,4226.026,4210.513,4222.564,4212.9490000000005,4175.769,4200.255999999999,4172.692,0,0
33,24,0,0,4125.513,4103.077,4160.897,4137.821,4163.205,4181.282,4187.692,4221.667,4221.795,4234.103,4215.897,4170.255999999999,4205.641,4167.9490000000005,0,0
34,25,0,0,4121.154,4104.103,4156.538,4137.564,4165.128,4183.59,4179.615,4197.692,4203.462,4230.897,4212.564,4162.0509999999995,4207.564,4157.692,0,0
35,26,0,0,4126.538,4105.385,4159.359,4137.179,4169.744000000001,4186.41,4188.59,4197.692,4205.385,4228.59,4210.769,4162.308,4209.103,4163.846,0,0
36,27,0,0,4142.0509999999995,4111.667,4166.282,4143.462,4169.359,4177.179,4188.205,4204.615,4217.308,4233.718,4213.333,4169.103,4211.282,4175.641,0,0
37,28,0,0,4149.615,4113.077,4170.128,4146.026,4166.538,4166.923,4172.9490000000005,4197.308,4208.718,4231.154,4211.923,4170.897,4213.974,4178.846,0,0
38,29,0,0,4150.897,4112.9490000000005,4170.897,4144.103,4169.103,4178.205,4171.154,4198.077,4203.462,4225.385,4210.897,4169.744000000001,4209.872,4184.231,0,0
39,30,0,0,4148.077,4115.897,4173.333,4143.59,4169.615,4185.0,4172.9490000000005,4198.077,4207.0509999999995,4221.282,4208.333,4173.718,4200.128,4182.821,0,0
40,31,0,0,4141.41,4116.026,4176.154,4144.615,4164.872,4171.795,4170.255999999999,4193.462,4202.436,4213.205,4200.385,4176.41,4197.436,4174.744000000001,0,0
41,32,0,0,4143.59,4116.026,4178.846,4150.513,4167.179,4172.821,4176.538,4198.59,4200.385,4209.615,4200.641,4179.231,4200.0,4178.718,0,0
42,33,0,0,4146.538,4115.513,4176.923,4148.718,4167.179,4186.538,4175.255999999999,4196.667,4203.718,4202.0509999999995,4202.308,4178.974,4193.974,4181.154,0,0
43,34,0,0,4136.282,4106.41,4172.0509999999995,4135.128,4155.513,4171.667,4155.769,4187.0509999999995,4198.333,4188.205,4189.744000000001,4171.667,4182.436,4168.846,0,0
44,35,0,0,4134.231,4107.0509999999995,4170.385,4134.231,4154.231,4148.974,4145.897,4183.462,4194.872,4189.487,4185.385,4167.436,4186.923,4164.359,0,0
45,36,0,0,4150.513,4131.154,4178.333,4152.564,4168.205,4160.0,4160.128,4183.077,4200.255999999999,4203.846,4200.513,4176.026,4206.538,4180.0,0,0
46,37,0,0,4158.59,4141.154,4183.974,4159.231,4171.026,4178.077,4171.538,4181.154,4202.564,4204.359,4205.769,4180.769,4209.872,4189.872,0,0
47,38,0,0,4152.308,4125.385,4178.59,4150.897,4163.077,4173.718,4168.333,4174.359,4194.487,4195.897,4197.436,4174.744000000001,4197.179,4181.026,0,0
48,39,0,0,4146.923,4120.0,4171.795,4149.744000000001,4165.255999999999,4171.282,4166.667,4169.359,4188.205,4199.103,4196.667,4172.821,4195.255999999999,4172.9490000000005,0,0
49,40,0,0,4144.615,4126.538,4172.692,4152.179,4169.744000000001,4179.615,4170.513,4176.026,4195.897,4202.692,4199.359,4176.538,4198.974,4170.769,0,0
50,41,0,0,4145.641,4125.897,4176.282,4150.641,4167.692,4180.255999999999,4168.974,4183.205,4199.487,4199.359,4197.308,4175.0,4196.154,4171.41,0,0
51,42,0,0,4150.769,4128.59,4177.821,4150.385,4167.436,4177.821,4167.0509999999995,4189.744000000001,4198.462,4202.692,4197.9490000000005,4172.564,4194.103,4178.205,0,0
52,43,0,0,4153.59,4134.744000000001,4177.436,4152.564,4169.359,4177.9490000000005,4171.026,4202.179,4206.154,4208.59,4201.026,4175.0,4193.462,4184.231,0,0
53,44,0,0,4155.769,4132.179,4180.513,4154.231,4169.103,4178.974,4172.564,4206.923,4213.462,4211.154,4201.923,4179.487,4193.462,4187.0509999999995,0,0
54,45,0,0,4166.026,4135.385,4188.974,4161.923,4171.923,4182.821,4177.564,4201.923,4212.564,4214.359,4203.974,4184.359,4199.231,4194.231,0,0
55,46,0,0,4172.436,4143.462,4191.282,4170.513,4176.282,4182.564,4181.795,4192.179,4206.923,4210.0,4205.128,4183.333,4203.846,4195.255999999999,0,0
56,47,0,0,4166.538,4139.872,4186.282,4166.923,4176.154,4179.872,4184.487,4186.923,4199.615,4193.333,4201.667,4180.513,4197.564,4190.0,0,0
57,48,0,0,4165.385,4138.974,4183.974,4160.385,4175.255999999999,4181.282,4185.897,4184.872,4196.923,4183.462,4198.205,4179.615,4188.333,4194.615,0,0
58,49,0,0,4177.0509999999995,4151.154,4187.308,4163.846,4174.872,4182.9490000000005,4172.692,4175.255999999999,4196.026,4183.077,4199.872,4181.026,4186.923,4202.179,0,0
59,50,0,0,4185.897,4154.615,4189.231,4168.333,4173.205,4181.282,4167.0509999999995,4175.0,4198.205,4182.436,4200.641,4181.41,4188.846,4204.103,0,0
60,51,0,0,4186.154,4143.462,4190.128,4166.923,4172.564,4184.231,4180.897,4204.615,4208.974,4184.359,4200.128,4187.179,4190.385,4207.0509999999995,0,0
61,52,0,0,4179.103,4136.154,4187.436,4163.974,4171.41,4186.795,4180.769,4220.897,4212.179,4184.359,4200.513,4188.333,4189.231,4204.872,0,0
62,53,0,0,4174.744000000001,4142.436,4183.333,4164.615,4170.513,4185.513,4164.744000000001,4200.769,4200.128,4172.821,4194.744000000001,4177.9490000000005,4186.154,4199.103,0,0
63,54,0,0,4181.923,4151.923,4182.692,4169.103,4176.026,4183.846,4167.821,4191.282,4194.744000000001,4165.769,4188.846,4173.462,4186.154,4199.487,0,0
64,55,0,0,4194.615,4159.103,4188.59,4176.667,4183.205,4182.179,4180.0,4200.897,4200.513,4173.846,4193.462,4184.359,4192.9490000000005,4205.385,0,0
65,56,0,0,4203.077,4166.923,4197.308,4185.769,4186.667,4185.0,4186.154,4206.538,4209.487,4187.179,4203.718,4190.897,4201.41,4214.103,0,0
66,57,0,0,4204.872,4170.128,4200.0,4187.0509999999995,4187.0509999999995,4185.897,4191.026,4203.333,4210.897,4194.615,4205.513,4188.846,4204.615,4214.103,0,0
67,58,0,0,4199.487,4162.9490000000005,4192.821,4178.59,4184.487,4183.718,4189.103,4201.282,4202.179,4195.641,4200.255999999999,4186.41,4202.0509999999995,4204.487,0,0
68,59,0,0,4194.231,4159.744000000001,4185.385,4175.897,4181.923,4185.769,4186.538,4207.436,4199.359,4196.667,4197.9490000000005,4183.846,4198.718,4200.769,0,0
69,60,0,0,4193.846,4167.821,4188.205,4179.103,4184.872,4189.744000000001,4190.641,4212.821,4207.179,4201.41,4199.744000000001,4183.59,4202.564,4202.564,0,0
70,61,0,0,4194.231,4169.103,4193.718,4175.897,4187.692,4189.487,4191.154,4209.615,4206.026,4202.821,4200.641,4186.026,4205.255999999999,4202.692,0,0
71,62,0,0,4193.333,4164.231,4190.769,4171.154,4183.846,4185.769,4180.128,4200.513,4200.128,4199.103,4197.179,4185.513,4200.641,4205.385,0,0
72,63,0,0,4191.538,4163.462,4185.641,4172.0509999999995,4183.846,4183.974,4174.103,4199.359,4207.692,4206.41,4200.255999999999,4188.205,4199.615,4213.333,0,0
73,64,0,2042,4186.282,4150.769,4190.385,4170.769,4181.795,4185.897,4186.667,4211.667,4219.872,4222.179,4207.436,4197.564,4206.538,4215.769,0,0
74,65,0,2671,4178.205,4137.564,4188.462,4165.128,4170.897,4187.436,4194.872,4219.615,4218.077,4224.744000000001,4202.308,4193.59,4208.846,4208.846,0,0
75,66,0,3095,4175.385,4154.359,4178.333,4165.641,4167.821,4181.538,4186.282,4207.436,4209.744000000001,4216.154,4191.026,4182.564,4198.59,4197.9490000000005,0,0
76,67,0,2952,4168.846,4176.41,4175.385,4167.821,4172.692,4173.59,4176.667,4188.718,4201.154,4207.692,4177.692,4175.897,4187.179,4179.487,0,0
77,68,0,3583,4155.641,4177.308,4172.564,4167.692,4170.641,4169.744000000001,4164.872,4179.231,4188.077,4196.026,4158.59,4169.744000000001,4186.282,4155.255999999999,0,0
78,69,0,3058,4149.359,4182.9490000000005,4164.615,4170.641,4167.0509999999995,4163.59,4155.513,4184.872,4187.564,4192.179,4143.333,4162.179,4183.974,4137.821,0,0
79,70,0,3249,4153.59,4198.974,4166.667,4172.564,4169.359,4158.718,4163.718,4200.385,4201.026,4198.462,4138.718,4158.846,4172.179,4129.872,0,0
80,71,0,3323,4154.615,4198.974,4170.128,4170.0,4168.59,4159.872,4168.333,4191.154,4195.255999999999,4192.9490000000005,4131.026,4156.026,4166.795,4122.9490000000005,0,0
81,72,0,2985,4151.41,4191.154,4164.359,4169.487,4165.0,4159.487,4154.615,4152.436,4172.179,4181.795,4121.154,4152.564,4170.255999999999,4119.872,0,0
82,73,0,3563,4151.154,4188.59,4159.744000000001,4168.333,4160.641,4157.0509999999995,4148.333,4139.231,4165.385,4181.282,4119.615,4150.513,4162.692,4121.154,0,0
83,74,0,2372,4150.128,4186.41,4161.538,4163.205,4156.154,4157.9490000000005,4160.769,4153.846,4171.667,4183.462,4118.974,4147.436,4152.564,4118.59,0,0
84,75,0,3201,4157.0509999999995,4191.154,4169.744000000001,4165.641,4160.128,4158.718,4169.744000000001,4156.41,4170.897,4183.846,4122.9490000000005,4152.436,4153.333,4117.9490000000005,0,0
85,76,0,2957,4168.718,4200.769,4176.667,4178.205,4167.692,4160.897,4166.667,4157.436,4170.769,4186.667,4133.974,4160.128,4155.769,4125.769,0,0
86,77,0,1817,4171.41,4202.821,4178.077,4182.9490000000005,4169.231,4168.59,4170.0,4169.744000000001,4175.128,4187.821,4141.667,4161.795,4159.615,4134.872,0,0
87,78,0,2372,4169.487,4199.615,4180.128,4177.9490000000005,4167.9490000000005,4169.615,4177.564,4173.462,4176.026,4185.0,4141.923,4162.0509999999995,4160.128,4139.744000000001,0,0
88,79,0,3201,4168.462,4196.538,4182.564,4174.872,4168.462,4165.0,4166.538,4167.821,4171.41,4176.667,4141.154,4167.436,4153.462,4144.744000000001,0,0
89,80,0,2957,4167.9490000000005,4192.564,4177.821,4173.974,4168.205,4167.179,4152.692,4167.564,4171.538,4167.308,4140.255999999999,4165.769,4156.667,4147.564,0,0
90,81,0,1817,4166.538,4193.59,4174.231,4173.205,4169.231,4168.333,4165.769,4171.026,4177.564,4170.513,4138.846,4160.897,4170.641,4146.795,0,0
91,82,0,2372,4161.282,4193.59,4168.846,4171.282,4169.615,4158.718,4175.897,4164.487,4175.769,4169.231,4138.59,4162.179,4168.846,4142.564,0,0
92,83,0,3201,4157.821,4188.59,4165.897,4168.333,4165.513,4150.769,4163.718,4162.308,4171.154,4153.974,4137.179,4162.9490000000005,4159.872,4142.0509999999995,0,0
93,84,0,2957,4165.513,4196.282,4173.333,4167.821,4170.641,4158.462,4166.026,4182.179,4180.0,4158.077,4139.359,4161.282,4166.795,4152.821,0,0
94,85,0,1817,4170.641,4204.615,4175.769,4175.641,4185.255999999999,4167.692,4178.462,4188.59,4188.974,4169.103,4142.821,4158.846,4175.0,4155.385,0,0
95,86,0,2372,4161.41,4192.308,4165.641,4179.615,4187.0509999999995,4167.436,4172.308,4173.59,4183.077,4155.128,4135.128,4152.692,4170.385,4139.872,0,0
96,87,0,3201,4150.769,4182.179,4167.821,4175.641,4183.205,4173.974,4180.513,4182.436,4182.179,4145.128,4122.179,4152.436,4166.282,4130.513,0,0
97,88,0,2957,4150.641,4193.718,4173.846,4177.821,4194.872,4188.077,4202.9490000000005,4194.744000000001,4187.692,4150.255999999999,4117.9490000000005,4153.718,4168.846,4133.59,0,0
98,89,0,1817,4164.231,4212.692,4169.615,4187.821,4201.795,4190.897,4202.821,4177.0509999999995,4182.564,4144.487,4125.513,4149.231,4169.231,4139.103,0,0
99,90,0,2372,4184.744000000001,4222.179,4168.846,4190.641,4192.0509999999995,4178.846,4181.41,4164.487,4176.154,4133.077,4128.718,4146.026,4161.154,4152.308,0,0
100,91,0,3201,4208.59,4231.154,4176.41,4193.462,4190.0,4172.692,4160.897,4169.231,4179.231,4136.282,4133.974,4154.744000000001,4155.128,4179.487,0,0
101,92,0,2957,4240.513,4249.744000000001,4187.564,4206.41,4201.026,4180.255999999999,4153.718,4171.923,4184.359,4148.462,4155.513,4165.897,4160.128,4211.154,0,0
102,93,0,1817,4269.487,4261.026,4197.179,4220.128,4211.41,4188.205,4164.615,4178.077,4185.255999999999,4161.154,4171.923,4170.255999999999,4168.077,4234.359,0,0
103,94,0,2372,4285.0,4261.41,4204.359,4226.538,4215.128,4190.0,4182.9490000000005,4185.641,4184.359,4168.718,4171.538,4172.692,4170.641,4247.821,0,0
104,95,0,3201,4293.205,4263.205,4205.769,4224.615,4215.0,4193.077,4191.026,4190.769,4189.615,4175.0,4175.128,4177.0509999999995,4165.769,4258.718,0,0
105,96,0,2957,4302.692,4268.333,4209.103,4227.179,4216.41,4201.41,4197.564,4200.641,4200.897,4184.615,4185.0,4185.513,4156.41,4269.872,0,0
106,97,0,1817,4304.615,4268.333,4212.9490000000005,4231.795,4217.0509999999995,4200.513,4203.205,4213.205,4201.026,4189.744000000001,4187.692,4187.179,4155.0,4271.41,0,0
107,98,0,2372,4290.255999999999,4261.282,4211.154,4225.255999999999,4208.59,4193.205,4199.231,4213.077,4190.128,4189.872,4183.333,4183.462,4159.487,4261.026,0,0
108,99,0,3201,4270.641,4248.59,4207.0509999999995,4210.641,4199.359,4191.026,4196.41,4204.103,4184.615,4186.154,4177.0509999999995,4181.026,4156.026,4248.59,0,0
109,100,0,2957,4263.974,4244.231,4213.974,4210.255999999999,4204.744000000001,4195.897,4199.359,4209.872,4185.769,4183.077,4174.872,4183.077,4157.564,4245.0,0,0
110,101,0,1817,4268.846,4248.205,4223.205,4219.231,4211.667,4199.744000000001,4204.615,4215.641,4186.282,4187.692,4178.077,4187.564,4165.769,4245.769,0,0
111,102,0,2372,4264.487,4238.974,4216.538,4210.769,4205.513,4193.846,4204.487,4203.718,4182.0509999999995,4185.255999999999,4174.231,4186.41,4159.872,4237.179,0,0
112,103,0,3201,4251.923,4227.564,4208.077,4199.231,4196.026,4186.026,4195.128,4196.41,4172.821,4170.897,4166.154,4178.462,4149.231,4227.9490000000005,0,0
113,104,0,2957,4249.359,4231.795,4212.179,4204.231,4196.154,4184.359,4186.795,4193.59,4166.795,4163.718,4165.641,4172.821,4151.923,4227.821,0,0
114,105,0,1817,4248.205,4232.436,4208.974,4211.026,4201.538,4188.333,4193.974,4188.974,4176.282,4169.231,4167.308,4172.564,4157.308,4228.205,0,0
115,106,0,2372,4237.436,4221.41,4193.462,4205.769,4201.795,4189.359,4200.641,4201.154,4185.385,4170.769,4162.179,4166.282,4154.872,4221.538,0,0
116,107,0,3201,4228.333,4214.744000000001,4181.154,4197.308,4198.59,4182.0509999999995,4190.769,4197.564,4175.641,4162.436,4152.0509999999995,4153.205,4149.359,4208.846,0,0
117,108,0,2957,4224.231,4212.179,4173.59,4195.769,4197.821,4175.255999999999,4180.385,4164.487,4161.282,4152.0509999999995,4147.821,4144.231,4145.513,4199.615,0,0
118,109,0,1817,4215.385,4207.0509999999995,4170.128,4192.564,4197.692,4177.821,4184.487,4164.872,4163.205,4148.333,4153.59,4143.846,4147.564,4198.077,0,0
119,110,0,2372,4214.359,4208.846,4172.564,4189.744000000001,4198.59,4185.255999999999,4198.333,4198.974,4180.0,4159.615,4157.9490000000005,4146.154,4153.333,4201.538,0,0
120,111,0,3201,4221.795,4213.462,4176.41,4194.744000000001,4198.077,4185.641,4199.744000000001,4208.718,4188.462,4170.0,4155.255999999999,4151.41,4154.487,4202.436,0,0
121,112,0,2957,4219.744000000001,4212.9490000000005,4177.564,4200.128,4197.308,4181.923,4188.974,4198.846,4184.103,4166.795,4156.154,4156.923,4151.538,4200.128,0,0
122,113,0,1817,4223.59,4214.231,4186.026,4201.282,4199.615,4187.436,4190.897,4216.795,4194.487,4175.255999999999,4171.282,4165.513,4156.923,4209.615,0,0
123,114,0,2372,4235.385,4216.795,4195.769,4201.923,4204.231,4197.179,4208.333,4246.667,4218.462,4196.667,4187.821,4171.667,4168.205,4225.0,0,0
124,115,0,3201,4234.103,4214.615,4195.769,4202.9490000000005,4203.974,4193.974,4207.692,4225.0,4214.359,4196.41,4186.923,4170.0,4170.897,4224.615,0,0
125,116,0,2957,4228.077,4212.821,4190.897,4202.308,4198.974,4184.231,4190.128,4180.769,4188.59,4181.667,4174.615,4165.897,4164.103,4215.385,0,0
126,117,0,1817,4230.0,4214.615,4191.538,4202.564,4198.333,4184.359,4183.462,4184.103,4184.103,4179.487,4170.897,4167.179,4161.923,4213.59,0,0
127,118,0,2372,4233.333,4216.026,4196.41,4202.564,4201.667,4187.308,4183.974,4206.538,4195.255999999999,4181.282,4179.231,4169.487,4166.667,4217.564,0,0
128,119,0,3201,4232.179,4214.872,4196.795,4200.0,4201.282,4183.846,4182.564,4209.744000000001,4198.333,4181.923,4186.282,4171.795,4169.359,4222.692,0,0
129,120,0,2957,4226.154,4209.615,4195.0,4200.513,4192.308,4179.103,4184.744000000001,4212.821,4197.692,4184.744000000001,4182.692,4173.718,4169.487,4223.205,0,0
130,121,0,1817,4222.821,4203.205,4195.0,4201.154,4187.564,4180.641,4190.385,4210.255999999999,4195.769,4184.231,4178.205,4173.333,4167.821,4219.744000000001,0,0
131,122,0,2372,4226.667,4201.538,4195.641,4200.769,4194.872,4184.487,4188.846,4197.436,4190.255999999999,4185.641,4181.795,4174.359,4165.255999999999,4221.154,0,0
132,123,0,3201,4223.718,4204.359,4194.231,4202.0509999999995,4197.0509999999995,4184.359,4190.513,4205.769,4191.667,4188.974,4186.538,4173.846,4163.718,4222.9490000000005,0,0
133,124,0,2957,4215.897,4206.923,4190.0,4198.333,4189.359,4183.333,4200.385,4221.154,4200.897,4191.154,4186.795,4169.487,4167.179,4217.308,0,0
134,125,0,1817,4217.436,4204.487,4183.077,4192.179,4185.385,4181.795,4193.718,4212.308,4202.0509999999995,4196.667,4182.564,4163.59,4169.872,4214.872,0,0
135,126,0,2372,4217.9490000000005,4200.128,4180.0,4188.846,4185.128,4178.333,4179.487,4195.128,4191.923,4194.103,4175.0,4162.564,4165.897,4212.692,0,0
136,127,0,51,4215.385,4200.769,4185.641,4190.128,4182.9490000000005,4179.359,4180.385,4195.385,4186.795,4185.128,4171.026,4167.564,4165.128,4205.385,0,0
137,0,0,2042,4218.462,4204.231,4191.667,4193.205,4182.564,4183.718,4188.077,4203.077,4188.846,4186.026,4172.179,4171.795,4167.564,4200.769,0,0
138,1,0,2667,4213.59,4202.179,4187.436,4190.641,4183.205,4183.205,4187.9490000000005,4196.026,4186.667,4185.255999999999,4170.769,4168.462,4160.385,4199.103,0,0
139,2,0,3087,4207.179,4197.564,4186.282,4188.333,4181.795,4181.667,4182.821,4189.744000000001,4182.9490000000005,4176.026,4166.154,4166.282,4149.872,4197.692,0,0
140,3,0,2946,4214.615,4201.154,4192.9490000000005,4195.0,4183.205,4179.872,4180.385,4198.462,4190.128,4178.718,4168.077,4169.231,4157.0509999999995,4199.872,0,0
141,4,0,3581,4222.564,4210.769,4196.282,4201.795,4186.282,4180.385,4187.692,4203.205,4201.795,4193.077,4179.487,4173.846,4171.282,4208.205,0,0
142,5,0,3058,4219.359,4209.744000000001,4192.308,4197.9490000000005,4186.282,4181.538,4190.255999999999,4197.179,4200.513,4197.436,4185.897,4172.9490000000005,4171.923,4210.513,0,0
143,6,0,3245,4214.615,4200.255999999999,4192.436,4196.026,4183.718,4176.154,4180.897,4195.128,4192.436,4192.0509999999995,4179.615,4170.641,4168.59,4203.077,0,0
144,7,0,3320,4216.538,4201.282,4196.667,4199.359,4185.769,4176.154,4180.0,4203.462,4195.769,4191.026,4173.718,4171.41,4171.538,4200.0,0,0
145,8,0,2985,4216.41,4208.718,4195.0,4196.795,4189.744000000001,4184.487,4185.513,4209.487,4198.846,4190.513,4172.308,4171.667,4170.128,4201.282,0,0
146,9,0,3563,4213.205,4205.255999999999,4191.923,4196.667,4188.462,4187.436,4193.077,4205.0,4189.744000000001,4186.923,4168.59,4171.41,4166.026,4201.41,0,0
147,10,0,2372,4215.128,4202.564,4196.026,4201.538,4188.205,4187.564,4198.077,4204.872,4191.026,4191.667,4170.769,4172.179,4171.667,4207.308,0,0
148,11,0,3195,4218.59,4209.103,4206.154,4202.179,4190.128,4189.231,4191.026,4214.359,4203.205,4200.641,4182.179,4177.692,4176.154,4217.436,0,0
149,12,0,2957,4216.154,4209.744000000001,4207.308,4198.462,4186.795,4187.0509999999995,4181.538,4207.0509999999995,4200.641,4201.154,4185.513,4180.513,4171.795,4216.923,0,0
150,13,0,1816,4219.744000000001,4208.462,4204.744000000001,4199.231,4183.205,4184.359,4181.795,4192.179,4190.769,4198.205,4183.59,4180.128,4169.359,4214.744000000001,0,0
151,14,0,2372,4231.154,4215.255999999999,4209.231,4202.179,4186.667,4186.923,4189.744000000001,4192.308,4194.744000000001,4201.154,4186.282,4179.872,4171.41,4220.513,0,0
152,15,0,3195,4234.231,4220.897,4212.821,4202.0509999999995,4190.128,4190.641,4193.846,4191.923,4200.769,4202.0509999999995,4186.026,4183.333,4172.0509999999995,4221.41,0,0
153,16,0,0,4230.0,4219.359,4208.974,4202.308,4187.821,4191.282,4189.487,4187.179,4196.795,4198.718,4187.179,4183.077,4171.667,4217.9490000000005,0,0
154,17,0,0,4230.769,4218.077,4206.923,4203.974,4185.255999999999,4186.154,4184.744000000001,4194.359,4194.231,4200.0,4198.462,4182.436,4171.667,4222.179,0,0
155,18,0,0,4236.026,4220.513,4206.667,4204.872,4184.744000000001,4183.718,4188.59,4206.282,4200.0,4203.462,4206.538,4184.231,4170.385,4227.436,0,0
156,19,0,0,4231.026,4220.128,4200.255999999999,4202.821,4185.385,4185.769,4190.513,4198.462,4198.974,4202.821,4203.846,4179.487,4169.487,4216.538,0,0
157,20,0,0,4216.923,4212.179,4192.692,4198.333,4185.0,4186.41,4187.692,4191.282,4190.769,4197.436,4200.385,4173.59,4168.205,4203.077,0,0
158,21,0,0,4214.487,4206.026,4193.333,4194.615,4184.231,4183.462,4188.846,4214.615,4199.103,4198.59,4201.923,4176.282,4167.692,4206.026,0,0
159,22,0,0,4216.41,4207.308,4192.692,4191.41,4184.359,4182.436,4187.9490000000005,4216.795,4207.821,4202.436,4201.923,4173.205,4170.128,4208.974,0,0
160,23,0,0,4205.0,4203.974,4182.9490000000005,4184.872,4185.128,4185.641,4184.872,4174.359,4191.923,4193.718,4195.0,4164.872,4171.41,4199.872,0,0
161,24,0,0,4196.795,4195.255999999999,4176.154,4181.538,4181.923,4181.923,4178.462,4161.667,4180.769,4183.974,4187.9490000000005,4165.513,4173.59,4193.333,0,0
162,25,0,0,4201.026,4198.718,4179.359,4185.128,4174.231,4172.564,4168.974,4186.026,4190.641,4187.308,4190.641,4167.436,4176.026,4198.462,0,0
163,26,0,0,4198.333,4200.897,4179.487,4179.744000000001,4168.59,4169.103,4166.026,4175.128,4187.9490000000005,4184.231,4187.308,4164.615,4172.9490000000005,4197.0509999999995,0,0
164,27,0,0,4192.179,4188.974,4177.436,4171.026,4167.564,4169.872,4164.744000000001,4157.0509999999995,4177.9490000000005,4170.513,4174.359,4161.795,4168.846,4186.667,0,0
165,28,0,0,4195.897,4189.359,4181.154,4174.231,4173.333,4174.231,4167.179,4176.41,4187.821,4172.821,4175.255999999999,4163.718,4170.385,4191.026,0,0
166,29,0,0,4201.282,4202.564,4181.795,4176.667,4181.41,4181.026,4178.205,4186.667,4199.359,4185.0,4185.513,4166.538,4173.462,4203.718,0,0
167,30,0,0,4203.077,4204.615,4182.564,4177.308,4183.974,4184.744000000001,4184.487,4185.641,4198.974,4186.154,4183.718,4170.0,4176.795,4205.385,0,0
168,31,0,0,4202.692,4202.179,4187.0509999999995,4184.103,4184.872,4186.154,4183.59,4195.769,4198.718,4184.359,4180.255999999999,4171.154,4183.333,4200.255999999999,0,0
169,32,0,0,4198.974,4203.333,4187.0509999999995,4187.0509999999995,4185.897,4187.692,4185.897,4197.564,4199.872,4184.744000000001,4183.974,4168.974,4185.897,4198.974,0,0
170,33,0,0,4198.59,4202.821,4182.308,4182.692,4183.718,4184.487,4186.923,4200.0,4201.154,4184.103,4185.897,4165.385,4178.846,4200.385,0,0
171,34,0,0,4201.538,4207.9490000000005,4185.0,4183.462,4183.974,4182.692,4187.9490000000005,4206.667,4204.103,4184.103,4188.974,4167.436,4174.744000000001,4201.41,0,0
172,35,0,0,4203.974,4213.974,4191.026,4186.538,4187.436,4186.667,4192.0509999999995,4192.9490000000005,4203.59,4185.769,4194.359,4172.179,4181.282,4200.769,0,0
173,36,0,0,4210.513,4211.282,4195.0,4186.795,4186.795,4187.0509999999995,4189.359,4186.282,4203.333,4190.128,4199.231,4175.897,4188.205,4207.436,0,0
174,37,0,0,4213.462,4207.9490000000005,4193.205,4186.154,4183.462,4185.897,4177.821,4197.692,4203.974,4192.308,4196.538,4177.436,4183.846,4215.513,0,0
175,38,0,0,4207.179,4204.487,4186.538,4182.564,4181.795,4185.769,4175.513,4192.692,4197.692,4181.538,4191.667,4175.0,4172.308,4208.205,0,0
176,39,0,0,4206.282,4201.154,4186.538,4182.0509999999995,4181.795,4183.462,4177.308,4186.923,4195.641,4174.615,4195.128,4175.385,4167.564,4203.077,0,0
177,40,0,0,4213.59,4203.974,4191.154,4186.667,4182.0509999999995,4181.795,4172.9490000000005,4190.641,4197.692,4178.974,4194.744000000001,4178.846,4175.769,4213.718,0,0
178,41,0,0,4214.872,4206.154,4192.436,4189.359,4182.9490000000005,4185.0,4176.667,4187.179,4195.641,4180.385,4187.9490000000005,4178.974,4181.795,4216.667,0,0
179,42,0,0,4217.308,4204.615,4192.308,4192.179,4184.359,4184.487,4185.769,4194.231,4196.795,4180.385,4191.667,4180.897,4173.333,4215.513,0,0
180,43,0,0,4224.615,4204.744000000001,4195.128,4193.077,4184.487,4180.128,4183.333,4201.667,4199.231,4184.103,4200.897,4188.462,4166.282,4223.974,0,0
181,44,0,0,4223.846,4206.538,4196.923,4192.821,4184.359,4189.615,4185.641,4193.846,4198.718,4186.282,4199.744000000001,4188.462,4172.0509999999995,4226.795,0,0
182,45,0,0,4216.923,4207.9490000000005,4196.795,4194.744000000001,4186.538,4200.513,4193.846,4196.026,4198.462,4187.0509999999995,4199.615,4184.231,4177.564,4221.026,0,0
183,46,0,0,4215.0,4204.615,4194.231,4193.462,4188.333,4193.205,4190.641,4193.077,4193.846,4185.0,4198.846,4180.897,4175.255999999999,4215.513,0,0
184,47,0,0,4217.0509999999995,4202.692,4193.333,4188.462,4187.564,4183.974,4181.538,4169.231,4184.615,4175.897,4188.718,4178.846,4172.436,4209.744000000001,0,0
185,48,0,0,4210.513,4205.385,4193.974,4186.154,4186.154,4184.359,4174.615,4162.564,4181.795,4167.692,4183.462,4177.9490000000005,4169.487,4202.436,0,0
186,49,0,0,4199.359,4203.205,4188.59,4186.667,4185.897,4186.154,4173.462,4179.359,4184.359,4167.9490000000005,4184.744000000001,4177.179,4168.077,4199.487,0,0
187,50,0,0,4196.667,4199.487,4181.154,4185.513,4186.538,4187.179,4184.487,4191.41,4187.564,4171.795,4186.282,4172.9490000000005,4165.513,4196.795,0,0
188,51,0,0,4201.923,4201.41,4187.0509999999995,4185.897,4185.128,4187.308,4184.872,4183.974,4184.231,4167.821,4183.462,4171.154,4157.179,4187.821,0,0
189,52,0,0,4198.974,4198.59,4176.154,4183.59,4183.077,4186.154,4172.0509999999995,4182.564,4185.769,4168.333,4185.641,4171.41,4157.692,4188.462,0,0
190,53,0,0,4187.179,4188.333,4137.564,4173.846,4186.154,4187.308,4175.513,4196.026,4198.718,4182.821,4193.846,4173.462,4170.513,4200.255999999999,0,0
191,54,0,0,4188.59,4183.333,4127.821,4170.0,4187.436,4185.513,4181.026,4195.641,4201.795,4185.513,4193.462,4176.026,4170.0,4205.128,0,0
192,55,0,0,4200.513,4187.564,4165.641,4177.692,4179.872,4181.538,4169.103,4184.744000000001,4193.59,4172.308,4186.154,4173.59,4155.641,4200.255999999999,0,0
193,56,0,0,4206.154,4196.154,4191.026,4187.692,4178.974,4185.385,4172.179,4183.205,4191.41,4169.359,4186.154,4172.436,4154.487,4200.641,0,0
194,57,0,0,4203.205,4198.333,4186.41,4187.821,4181.154,4187.564,4182.9490000000005,4173.462,4188.077,4172.308,4187.308,4173.718,4157.9490000000005,4201.538,0,0
195,58,0,0,4201.282,4193.205,4185.641,4183.846,4175.255999999999,4183.718,4173.974,4164.872,4183.59,4168.462,4182.9490000000005,4172.692,4153.59,4197.564,0,0
196,59,0,0,4203.333,4193.718,4191.026,4185.513,4172.9490000000005,4183.205,4171.795,4178.974,4187.436,4169.872,4184.103,4171.923,4153.077,4197.564,0,0
197,60,0,0,4206.026,4197.308,4191.795,4187.564,4180.385,4184.615,4183.974,4185.641,4185.385,4168.333,4186.026,4172.9490000000005,4152.692,4197.308,0,0
198,61,0,0,4208.077,4195.0,4190.897,4188.974,4182.0509999999995,4184.615,4178.718,4182.9490000000005,4182.9490000000005,4159.103,4182.308,4171.923,4148.462,4198.59,0,0
199,62,0,0,4205.0,4186.795,4190.641,4185.255999999999,4173.205,4183.846,4166.026,4184.744000000001,4185.641,4158.846,4181.154,4174.615,4151.154,4199.103,0,0
200,63,0,0,4198.974,4182.0509999999995,4183.846,4175.897,4167.436,4179.359,4166.154,4172.821,4177.308,4156.538,4175.0,4171.026,4152.0509999999995,4190.769,0,0
201,64,0,2038,4196.026,4189.872,4175.128,4173.205,4167.0509999999995,4172.0509999999995,4162.436,4154.231,4165.255999999999,4141.41,4160.385,4160.128,4141.41,4181.41,0,0
202,65,0,2667,4199.103,4203.59,4173.333,4177.821,4168.718,4171.923,4154.615,4151.026,4162.9490000000005,4132.308,4150.385,4157.692,4136.026,4178.974,0,0
203,66,0,3090,4201.538,4206.026,4175.0,4179.615,4168.846,4177.436,4160.513,4164.231,4172.692,4135.128,4151.923,4162.308,4142.436,4177.821,0,0
204,67,0,2946,4197.179,4202.692,4174.744000000001,4179.487,4169.872,4181.795,4170.385,4173.59,4184.103,4141.923,4158.462,4162.9490000000005,4152.436,4175.641,0,0
205,68,0,3581,4192.436,4204.872,4176.41,4182.308,4174.744000000001,4184.615,4173.718,4173.077,4180.897,4144.615,4158.974,4163.718,4157.308,4174.103,0,0
206,69,0,3058,4186.795,4202.564,4172.0509999999995,4177.821,4172.179,4180.0,4168.333,4164.744000000001,4166.538,4130.769,4148.462,4160.255999999999,4147.564,4166.41,0,0
207,70,0,3247,4182.692,4198.077,4165.385,4172.564,4167.308,4176.795,4165.513,4162.308,4164.103,4117.821,4143.205,4152.9490000000005,4141.667,4162.308,0,0
208,71,0,3313,4188.59,4202.692,4170.897,4179.872,4174.359,4183.462,4179.744000000001,4179.615,4172.9490000000005,4129.615,4156.282,4155.0,4150.255999999999,4169.103,0,0
209,72,0,2981,4193.205,4203.974,4163.718,4184.231,4183.846,4187.436,4192.9490000000005,4192.179,4175.385,4143.846,4169.103,4152.692,4151.026,4176.538,0,0
210,73,0,3563,4193.59,4201.41,4159.103,4177.0509999999995,4180.255999999999,4184.359,4184.872,4186.667,4174.359,4140.255999999999,4167.821,4153.333,4143.077,4180.128,0,0
211,74,0,2375,4200.385,4208.333,4203.718,4181.667,4168.718,4185.128,4173.59,4181.026,4170.513,4131.923,4166.538,4189.359,4147.692,4181.41,0,0
212,75,0,3199,4186.538,4199.359,4171.282,4176.282,4171.795,4186.41,4178.59,4180.0,4170.513,4136.026,4166.282,4157.821,4148.718,4172.308,0,0
213,76,0,2957,4180.0,4193.59,4157.821,4174.872,4176.026,4190.128,4187.179,4174.615,4176.282,4139.359,4162.308,4146.667,4149.103,4170.128,0,0
214,77,0,1829,4249.615,4248.077,4465.641,4247.0509999999995,4140.897,4206.026,4189.744000000001,4167.436,4159.103,4105.0,4156.154,4417.436,4173.718,4191.923,0,0
215,78,0,2375,4298.974,4287.308,4704.615,4296.538,4107.564,4212.9490000000005,4189.359,4159.615,4131.538,4066.1540000000005,4148.59,4629.359,4179.103,4196.667,0,0
216,79,0,3199,4233.718,4238.462,4444.103,4227.692,4136.282,4196.282,4186.41,4155.128,4139.231,4088.077,4148.846,4402.436,4150.0,4173.718,0,0
217,80,0,2957,4171.41,4190.0,4158.205,4164.615,4173.462,4177.436,4181.667,4171.154,4168.205,4133.974,4158.59,4144.744000000001,4136.923,4163.974,0,0
218,81,0,1829,4187.436,4199.744000000001,4190.255999999999,4184.487,4173.077,4178.974,4185.128,4197.821,4184.103,4149.744000000001,4167.179,4166.41,4146.538,4173.333,0,0
219,82,0,2375,4191.41,4206.538,4211.538,4190.128,4174.103,4187.564,4189.487,4193.846,4182.821,4149.872,4167.308,4189.103,4149.359,4173.077,0,0
220,83,0,3199,4166.154,4191.154,4138.718,4164.359,4180.769,4184.487,4173.462,4169.872,4173.974,4146.795,4160.128,4126.538,4147.9490000000005,4161.154,0,0
221,84,0,2957,4166.538,4187.564,4150.255999999999,4166.667,4172.308,4177.564,4154.615,4163.846,4170.128,4139.744000000001,4154.103,4129.744000000001,4149.359,4154.487,0,0
222,85,0,1829,4171.795,4185.513,4164.872,4171.795,4169.231,4173.846,4151.41,4168.077,4171.538,4138.462,4153.333,4140.385,4145.897,4155.513,0,0
223,86,0,2375,4174.103,4188.077,4161.41,4170.897,4172.308,4174.359,4153.59,4167.692,4169.872,4141.154,4154.359,4143.205,4149.487,4163.974,0,0
224,87,0,3199,4183.077,4197.9490000000005,4167.9490000000005,4177.0509999999995,4170.513,4178.718,4160.641,4178.974,4177.564,4147.308,4159.872,4151.538,4153.974,4168.974,0,0
225,88,0,2957,4188.333,4198.846,4164.359,4182.821,4171.923,4180.897,4166.923,4193.846,4185.641,4153.846,4163.974,4146.667,4148.846,4169.359,0,0
226,89,0,1829,4184.615,4192.436,4161.154,4180.641,4178.974,4180.0,4158.333,4180.255999999999,4175.513,4152.564,4157.692,4144.744000000001,4147.821,4167.692,0,0
227,90,0,2375,4184.359,4193.077,4166.154,4181.026,4186.41,4185.385,4157.179,4173.333,4176.026,4154.231,4159.103,4147.308,4154.744000000001,4166.923,0,0
228,91,0,3199,4191.026,4200.128,4173.205,4187.308,4184.744000000001,4190.513,4172.821,4186.667,4188.077,4158.462,4171.923,4151.154,4157.179,4172.436,0,0
229,92,0,2957,4188.718,4194.615,4168.59,4185.128,4174.231,4180.128,4172.308,4176.41,4177.9490000000005,4155.513,4165.385,4147.436,4152.821,4172.436,0,0
230,93,0,1829,4181.538,4188.974,4163.846,4180.897,4174.872,4173.205,4164.103,4162.0509999999995,4168.077,4153.718,4155.513,4144.872,4151.795,4167.179,0,0
231,94,0,2375,4182.821,4192.821,4165.513,4183.205,4185.513,4183.462,4171.923,4176.41,4178.077,4156.41,4165.255999999999,4149.744000000001,4153.077,4169.872,0,0
232,95,0,3199,4186.154,4190.641,4162.179,4184.103,4184.103,4185.385,4171.795,4183.974,4180.897,4155.128,4167.9490000000005,4147.564,4150.897,4170.897,0,0
233,96,0,2957,4181.538,4189.872,4157.9490000000005,4183.077,4170.641,4171.667,4158.846,4172.179,4171.795,4147.308,4154.231,4140.897,4150.255999999999,4162.692,0,0
234,97,0,1829,4180.0,4196.154,4159.615,4182.179,4166.026,4170.769,4152.179,4164.615,4166.026,4140.897,4151.154,4139.231,4149.231,4160.255999999999,0,0
235,98,0,2375,4191.538,4201.667,4167.308,4185.0,4178.718,4186.154,4158.205,4166.026,4172.436,4150.0,4164.359,4145.769,4153.59,4169.359,0,0
236,99,0,3199,4196.282,4201.923,4172.9490000000005,4189.103,4186.795,4184.744000000001,4168.846,4181.41,4185.513,4163.462,4173.462,4155.0,4165.769,4176.154,0,0
237,100,0,2957,4182.0509999999995,4196.154,4169.872,4185.641,4173.718,4169.872,4171.026,4190.769,4189.103,4160.0,4171.667,4154.487,4166.667,4171.282,0,0
238,101,0,1829,4172.821,4188.462,4165.769,4180.769,4165.0,4169.487,4164.103,4171.154,4181.538,4151.667,4168.59,4145.641,4159.872,4164.744000000001,0,0
239,102,0,2375,4181.41,4194.103,4170.128,4185.385,4179.103,4176.538,4169.103,4168.462,4182.436,4157.692,4172.179,4147.692,4165.641,4167.821,0,0
240,103,0,3199,4189.487,4202.692,4173.462,4189.487,4186.667,4175.513,4174.615,4187.0509999999995,4189.359,4162.0509999999995,4175.513,4154.487,4174.231,4174.359,0,0
241,104,0,2957,4179.744000000001,4191.538,4168.205,4184.231,4175.769,4170.897,4158.205,4182.308,4186.923,4153.333,4170.128,4149.744000000001,4165.385,4169.615,0,0
242,105,0,1829,4168.59,4181.667,4163.077,4178.718,4171.667,4170.769,4154.359,4174.744000000001,4184.231,4148.846,4166.923,4144.487,4155.255999999999,4164.103,0,0
243,106,0,2375,4171.026,4185.769,4162.564,4177.308,4175.769,4171.282,4166.154,4175.769,4182.0509999999995,4151.667,4168.846,4145.385,4161.538,4165.897,0,0
244,107,0,3199,4172.179,4186.282,4162.179,4173.718,4173.205,4170.255999999999,4157.179,4167.821,4181.795,4151.282,4166.154,4144.872,4168.718,4165.385,0,0
245,108,0,2957,4168.333,4180.385,4160.128,4168.974,4169.744000000001,4168.462,4145.769,4168.718,4183.205,4150.641,4161.923,4144.615,4167.436,4163.333,0,0
246,109,0,1829,4175.255999999999,4182.179,4163.205,4172.9490000000005,4172.821,4170.769,4159.744000000001,4173.077,4177.436,4152.0509999999995,4166.154,4145.385,4167.692,4165.513,0,0
247,110,0,2375,4189.359,4192.821,4171.795,4184.615,4177.564,4175.897,4173.59,4168.205,4175.385,4154.487,4170.897,4144.615,4172.436,4174.615,0,0
248,111,0,3199,4190.897,4196.282,4170.769,4183.974,4175.897,4173.462,4170.769,4177.9490000000005,4183.462,4155.513,4168.718,4145.128,4171.282,4179.744000000001,0,0
249,112,0,2957,4182.821,4188.59,4161.795,4172.0509999999995,4169.103,4169.872,4166.923,4186.026,4185.513,4151.41,4162.821,4143.718,4167.179,4174.744000000001,0,0
250,113,0,1829,4183.718,4185.128,4158.077,4173.205,4172.0509999999995,4172.821,4167.0509999999995,4174.359,4181.667,4151.41,4163.974,4142.0509999999995,4171.795,4170.0,0,0
251,114,0,2375,4187.821,4188.462,4158.205,4182.692,4179.872,4173.718,4170.897,4173.59,4182.692,4157.564,4168.333,4141.538,4176.282,4170.0,0,0
252,115,0,3199,4179.872,4187.564,4158.718,4179.359,4174.359,4170.513,4170.513,4178.59,4178.077,4154.744000000001,4164.359,4137.821,4172.692,4166.923,0,0
253,116,0,2957,4173.462,4184.744000000001,4157.0509999999995,4172.179,4166.923,4168.077,4162.821,4167.9490000000005,4167.564,4146.923,4155.128,4135.641,4167.179,4163.974,0,0
254,117,0,1829,4180.0,4187.0509999999995,4158.59,4176.538,4177.0509999999995,4172.0509999999995,4163.462,4163.077,4167.692,4149.103,4155.897,4141.667,4167.308,4168.205,0,0
255,118,0,2375,4181.538,4188.974,4162.692,4181.41,4184.744000000001,4177.821,4170.641,4172.0509999999995,4172.308,4155.897,4165.513,4145.385,4170.385,4170.513,0,0
256,119,0,3199,4169.872,4185.128,4160.385,4173.59,4174.359,4176.026,4170.513,4175.0,4172.436,4151.41,4165.385,4142.821,4169.103,4169.103,0,0
257,120,0,2957,4165.769,4181.154,4153.59,4166.795,4170.255999999999,4172.9490000000005,4167.821,4169.615,4169.359,4140.128,4155.0,4143.205,4165.641,4168.077,0,0
258,121,0,1829,4177.0509999999995,4182.821,4156.667,4174.231,4183.462,4182.179,4172.564,4171.41,4170.769,4141.282,4154.359,4146.41,4167.821,4168.846,0,0
259,122,0,2375,4182.179,4185.255999999999,4164.103,4180.128,4186.795,4190.0,4170.128,4179.872,4174.615,4154.615,4168.974,4147.179,4173.718,4172.436,0,0
260,123,0,3199,4173.974,4182.9490000000005,4158.462,4173.59,4173.59,4180.897,4158.59,4175.255999999999,4172.9490000000005,4153.59,4170.513,4147.821,4171.923,4172.0509999999995,0,0
261,124,0,2957,4168.205,4179.359,4150.641,4168.846,4168.974,4171.026,4152.436,4155.641,4166.026,4140.128,4156.667,4145.255999999999,4168.462,4165.641,0,0
262,125,0,1829,4171.795,4175.255999999999,4153.974,4169.359,4171.41,4169.872,4149.872,4157.692,4166.282,4141.667,4153.462,4142.179,4170.897,4160.897,0,0
263,126,0,2375,4170.385,4170.769,4160.0,4170.128,4170.641,4169.487,4154.231,4179.359,4178.59,4152.179,4154.872,4141.795,4170.128,4156.538,0,0
264,127,0,51,4164.872,4176.538,4157.0509999999995,4171.026,4172.9490000000005,4171.795,4167.821,4179.359,4184.103,4155.769,4157.436,4142.564,4172.9490000000005,4154.744000000001,0,0
265,0,0,2051,4169.615,4182.308,4153.846,4171.795,4176.667,4175.897,4168.333,4164.744000000001,4173.846,4153.974,4165.385,4145.641,4181.026,4163.077,0,0
266,1,0,2673,4175.0,4176.026,4157.179,4171.41,4171.667,4175.0,4157.564,4165.255999999999,4168.718,4154.872,4168.333,4143.846,4180.255999999999,4170.513,0,0
267,2,0,3100,4171.667,4172.308,4157.9490000000005,4168.846,4167.0509999999995,4174.231,4158.462,4175.255999999999,4177.308,4160.0,4164.872,4141.667,4176.667,4166.41,0,0
268,3,0,2952,4172.821,4180.897,4158.59,4170.385,4176.41,4182.9490000000005,4170.0,4190.0,4188.59,4168.462,4167.692,4150.128,4182.179,4165.641,0,0
269,4,0,3581,4184.103,4188.077,4163.333,4177.821,4184.359,4189.231,4180.128,4199.103,4193.462,4175.897,4172.179,4158.846,4187.9490000000005,4173.462,0,0
270,5,0,3058,4183.077,4181.667,4162.9490000000005,4176.923,4176.923,4185.385,4179.744000000001,4187.179,4183.205,4167.692,4167.436,4151.923,4179.744000000001,4170.897,0,0
271,6,0,3252,4170.769,4176.795,4161.026,4167.436,4168.462,4184.615,4170.255999999999,4178.333,4175.769,4157.308,4165.255999999999,4144.231,4173.077,4163.205,0,0
272,7,0,3321,4173.462,4181.026,4163.846,4169.231,4171.538,4188.077,4167.0509999999995,4189.231,4190.255999999999,4168.974,4170.255999999999,4147.179,4178.205,4166.026,0,0
273,8,0,2981,4186.026,4186.667,4166.282,4177.821,4174.359,4185.897,4167.564,4188.205,4199.103,4186.282,4172.308,4148.59,4188.59,4172.179,0,0
274,9,0,3563,4188.846,4186.154,4167.9490000000005,4177.179,4171.795,4183.846,4167.821,4185.0,4196.667,4188.077,4172.564,4152.0509999999995,4194.359,4172.308,0,0
275,10,0,2379,4183.462,4181.538,4169.359,4172.179,4170.897,4184.359,4169.231,4183.718,4196.282,4184.872,4172.9490000000005,4154.744000000001,4191.41,4169.872,0,0
276,11,0,3203,4180.385,4180.513,4169.103,4170.0,4169.615,4180.769,4169.103,4168.077,4190.0,4184.487,4172.564,4152.0509999999995,4188.462,4168.718,0,0
277,12,0,2957,4183.077,4182.0509999999995,4169.615,4173.846,4172.692,4178.462,4180.385,4179.744000000001,4186.795,4183.205,4176.41,4155.255999999999,4185.128,4172.436,0,0
278,13,0,1827,4189.359,4184.872,4172.0509999999995,4182.564,4181.795,4184.744000000001,4197.0509999999995,4201.154,4188.333,4182.179,4180.897,4161.795,4183.462,4181.026,0,0
279,14,0,2379,4188.974,4184.231,4169.872,4185.0,4185.0,4187.9490000000005,4191.538,4177.9490000000005,4177.821,4180.0,4177.436,4161.026,4185.385,4183.077,0,0
280,15,0,3203,4183.974,4183.205,4167.436,4183.846,4183.59,4185.897,4183.205,4160.769,4171.923,4179.231,4171.154,4156.923,4186.795,4178.974,0,0
281,16,0,0,4184.359,4185.513,4170.128,4186.538,4186.923,4187.436,4188.077,4183.59,4181.538,4182.692,4173.077,4156.923,4185.641,4181.282,0,0
282,17,0,0,4188.462,4188.077,4178.077,4190.513,4190.128,4188.718,4190.385,4200.128,4185.769,4184.359,4179.872,4162.436,4185.769,4182.9490000000005,0,0
283,18,0,0,4189.231,4188.718,4181.026,4191.538,4189.872,4187.179,4190.0,4194.744000000001,4187.0509999999995,4186.282,4185.0,4166.282,4188.718,4176.795,0,0
284,19,0,0,4185.0,4190.128,4173.59,4189.487,4188.718,4186.795,4189.231,4190.0,4187.436,4188.205,4187.436,4166.154,4187.9490000000005,4176.282,0,0
285,20,0,0,4187.436,4197.179,4170.897,4189.487,4186.026,4186.026,4182.564,4192.9490000000005,4182.9490000000005,4185.897,4187.692,4168.462,4187.436,4184.744000000001,0,0
286,21,0,0,4197.692,4199.872,4181.923,4195.513,4187.0509999999995,4186.41,4184.615,4202.821,4187.0509999999995,4186.41,4189.103,4173.974,4186.154,4188.718,0,0
287,22,0,0,4198.462,4192.9490000000005,4185.128,4196.538,4189.359,4186.282,4189.872,4189.231,4187.179,4187.9490000000005,4188.462,4171.282,4181.795,4188.333,0,0
288,23,0,0,4188.974,4184.487,4173.59,4186.41,4185.0,4183.205,4185.128,4164.615,4172.821,4180.897,4184.744000000001,4165.641,4181.923,4188.718,0,0
289,24,0,0,4180.513,4178.462,4167.308,4180.128,4180.385,4182.692,4184.231,4173.077,4166.41,4173.462,4177.436,4164.615,4180.897,4183.077,0,0
290,25,0,0,4171.923,4170.255999999999,4169.103,4181.538,4182.179,4186.026,4187.9490000000005,4189.615,4172.821,4169.487,4168.974,4162.0509999999995,4172.436,4170.641,0,0
291,26,0,0,4167.564,4167.179,4170.128,4183.205,4185.513,4188.462,4189.744000000001,4192.0509999999995,4176.795,4169.231,4166.154,4159.231,4165.897,4166.795,0,0
292,27,0,0,4175.769,4175.769,4168.718,4185.513,4185.385,4188.59,4186.667,4188.974,4171.282,4177.692,4171.026,4160.641,4172.0509999999995,4175.385,0,0
293,28,0,0,4183.462,4182.821,4167.308,4184.231,4182.821,4186.282,4182.821,4182.692,4166.795,4184.615,4178.846,4165.255999999999,4182.692,4182.179,0,0
294,29,0,0,4184.103,4183.077,4168.462,4184.744000000001,4183.462,4187.308,4189.872,4182.692,4175.385,4188.077,4184.487,4166.667,4187.821,4182.179,0,0
295,30,0,0,4184.744000000001,4183.462,4173.205,4192.179,4187.9490000000005,4190.255999999999,4195.769,4187.564,4183.462,4193.205,4185.255999999999,4165.897,4187.692,4182.821,0,0
296,31,0,0,4186.41,4190.0,4173.59,4193.718,4187.436,4185.385,4187.179,4187.308,4178.846,4193.846,4185.769,4169.487,4185.897,4184.744000000001,0,0
297,32,0,0,4189.615,4195.641,4170.641,4189.103,4184.231,4178.462,4180.0,4183.205,4172.436,4189.231,4186.923,4170.641,4187.9490000000005,4184.487,0,0
298,33,0,0,4188.205,4189.103,4170.641,4185.897,4183.59,4178.333,4182.0509999999995,4180.128,4170.255999999999,4183.59,4179.744000000001,4161.41,4186.795,4180.897,0,0
299,34,0,0,4183.333,4183.205,4172.821,4187.308,4184.487,4185.255999999999,4182.692,4191.026,4175.897,4185.513,4175.255999999999,4160.641,4182.436,4180.897,0,0
300,35,0,0,4184.487,4186.795,4175.641,4190.641,4185.897,4183.462,4185.255999999999,4202.692,4186.538,4196.538,4183.077,4170.513,4184.744000000001,4186.41,0,0
301,36,0,0,4188.077,4190.0,4176.282,4191.154,4185.128,4171.026,4187.179,4186.923,4185.128,4203.462,4187.0509999999995,4171.154,4190.0,4188.974,0,0
302,37,0,0,4185.641,4186.282,4171.795,4187.0509999999995,4182.436,4172.179,4184.487,4175.641,4180.0,4200.513,4182.179,4167.308,4188.077,4184.231,0,0
303,38,0,0,4181.795,4184.615,4168.462,4183.846,4181.667,4180.255999999999,4186.795,4183.333,4181.026,4195.513,4182.692,4168.846,4185.255999999999,4181.41,0,0
304,39,0,0,4184.872,4186.667,4171.154,4185.897,4183.718,4178.846,4192.308,4184.103,4178.205,4189.744000000001,4185.513,4169.231,4187.308,4186.41,0,0
305,40,0,0,4182.821,4185.769,4171.154,4184.872,4184.231,4177.692,4189.872,4175.385,4170.0,4182.564,4177.179,4166.923,4186.41,4182.692,0,0
306,41,0,0,4174.615,4183.718,4163.59,4182.0509999999995,4181.795,4183.333,4183.59,4174.744000000001,4170.513,4182.9490000000005,4168.077,4163.974,4184.487,4170.641,0,0
307,42,0,0,4175.128,4182.308,4160.128,4182.308,4183.333,4183.846,4182.436,4172.564,4177.0509999999995,4185.0,4168.205,4162.179,4184.359,4172.0509999999995,0,0
308,43,0,0,4180.897,4182.0509999999995,4162.9490000000005,4181.282,4185.128,4183.59,4184.359,4171.154,4176.154,4184.872,4173.718,4164.615,4184.487,4179.744000000001,0,0
309,44,0,0,4173.333,4176.795,4162.308,4174.615,4178.077,4183.846,4183.974,4176.923,4172.179,4184.103,4172.821,4165.513,4184.487,4173.205,0,0
310,45,0,0,4165.513,4169.359,4162.436,4170.128,4169.872,4180.769,4187.0509999999995,4182.308,4176.026,4183.333,4168.333,4164.615,4183.974,4165.769,0,0
311,46,0,0,4178.462,4175.128,4170.0,4178.846,4171.282,4184.615,4196.154,4201.026,4186.41,4191.795,4177.9490000000005,4167.9490000000005,4184.487,4175.513,0,0
312,47,0,0,4186.282,4184.231,4171.923,4184.744000000001,4175.385,4182.564,4196.282,4202.692,4186.154,4195.769,4184.103,4171.026,4184.615,4180.513,0,0
313,48,0,0,4178.205,4183.462,4165.641,4181.41,4177.179,4172.9490000000005,4182.821,4181.026,4178.59,4185.513,4171.41,4167.564,4182.692,4170.128,0,0
314,49,0,0,4178.333,4184.359,4170.641,4183.718,4182.436,4175.769,4182.436,4191.41,4186.41,4186.41,4170.255999999999,4168.205,4182.564,4172.0509999999995,0,0
315,50,0,0,4189.103,4189.103,4178.846,4189.487,4187.9490000000005,4186.41,4202.436,4214.615,4197.9490000000005,4204.487,4187.9490000000005,4172.692,4188.077,4185.897,0,0
316,51,0,0,4183.462,4182.0509999999995,4174.231,4186.154,4186.282,4186.282,4202.9490000000005,4192.821,4191.282,4202.9490000000005,4185.255999999999,4171.026,4190.385,4181.538,0,0
317,52,0,0,4168.462,4173.846,4166.154,4178.974,4181.795,4179.487,4184.487,4163.718,4177.9490000000005,4184.744000000001,4170.897,4167.564,4187.0509999999995,4164.744000000001,0,0
318,53,0,0,4176.795,4182.821,4168.974,4182.308,4184.103,4181.667,4189.744000000001,4181.41,4181.667,4188.205,4178.718,4169.231,4187.821,4173.077,0,0
319,54,0,0,4189.872,4189.872,4175.641,4187.9490000000005,4188.077,4187.821,4200.513,4196.282,4187.9490000000005,4196.923,4185.255999999999,4171.923,4189.231,4185.128,0,0
320,55,0,0,4181.923,4184.359,4172.692,4181.41,4182.821,4181.667,4186.41,4185.897,4181.282,4188.333,4175.769,4169.872,4186.667,4175.128,0,0
321,56,0,0,4173.718,4182.179,4168.333,4173.333,4174.359,4171.026,4170.0,4176.667,4174.103,4181.154,4170.128,4165.513,4185.128,4168.974,0,0
322,57,0,0,4174.487,4182.564,4167.692,4174.103,4174.231,4174.231,4168.333,4170.385,4171.538,4181.41,4169.103,4160.513,4184.231,4172.179,0,0
323,58,0,0,4172.821,4181.282,4169.103,4178.59,4182.436,4184.359,4173.974,4173.718,4176.154,4180.0,4165.513,4161.282,4181.795,4168.974,0,0
324,59,0,0,4178.462,4186.154,4169.872,4184.487,4188.718,4185.255999999999,4184.872,4188.333,4187.0509999999995,4186.282,4169.615,4169.359,4182.9490000000005,4171.154,0,0
325,60,0,0,4183.077,4184.103,4169.872,4184.231,4182.436,4179.744000000001,4187.564,4186.795,4185.769,4193.077,4173.846,4168.462,4185.897,4174.872,0,0
326,61,0,0,4172.308,4176.923,4172.0509999999995,4174.872,4176.026,4178.077,4177.436,4164.615,4174.487,4184.359,4168.718,4161.282,4185.769,4163.846,0,0
327,62,0,0,4169.487,4183.205,4172.308,4174.615,4180.641,4181.282,4178.974,4172.692,4179.231,4182.821,4172.179,4164.231,4182.436,4159.615,0,0
328,63,0,0,4177.821,4183.846,4179.872,4185.385,4186.667,4188.077,4200.0,4204.487,4199.487,4200.897,4186.923,4174.744000000001,4187.9490000000005,4173.974,0,0
329,64,0,2037,4173.718,4169.487,4184.615,4182.821,4182.564,4185.255999999999,4205.128,4195.0,4199.615,4206.282,4190.0,4174.872,4198.333,4176.41,0,0
330,65,0,2668,4158.077,4167.436,4172.564,4170.0,4173.846,4172.821,4178.077,4162.564,4175.769,4183.333,4171.538,4159.487,4189.744000000001,4155.769,0,0
331,66,0,3093,4145.641,4180.513,4159.359,4168.974,4177.308,4178.462,4172.564,4163.59,4164.872,4167.564,4150.769,4150.641,4175.0,4137.692,0,0
332,67,0,2946,4140.769,4186.026,4161.026,4174.487,4189.231,4187.0509999999995,4189.872,4173.846,4173.462,4174.103,4142.179,4152.308,4178.974,4131.923,0,0
333,68,0,3580,4139.359,4185.513,4158.205,4172.0509999999995,4185.255999999999,4171.41,4168.718,4152.821,4169.359,4170.769,4138.59,4144.615,4186.667,4121.538,0,0
334,69,0,3060,4133.59,4185.897,4150.897,4167.179,4171.667,4159.231,4137.692,4127.0509999999995,4151.795,4154.359,4133.077,4136.538,4179.744000000001,4109.615,0,0
335,70,0,3251,4126.538,4182.0509999999995,4155.513,4167.9490000000005,4169.744000000001,4168.846,4147.692,4123.718,4148.974,4151.154,4126.538,4142.692,4174.103,4106.923,0,0
336,71,0,3326,4122.0509999999995,4176.026,4143.205,4165.641,4172.564,4169.359,4160.769,4130.385,4154.872,4155.128,4121.923,4131.538,4171.154,4106.154,0,0
337,72,0,2981,4128.974,4182.821,4150.513,4170.0,4176.41,4169.103,4160.769,4142.821,4155.0,4151.154,4125.641,4137.9490000000005,4169.487,4108.846,0,0
338,73,0,3561,4138.59,4192.9490000000005,4178.462,4180.385,4185.128,4181.667,4170.641,4156.667,4158.846,4155.128,4135.769,4166.282,4174.744000000001,4120.641,0,0
339,74,0,2374,4136.923,4185.769,4167.0509999999995,4175.897,4183.205,4179.744000000001,4173.718,4156.282,4164.872,4165.385,4140.255999999999,4156.667,4175.0,4125.897,0,0
340,75,0,3201,4131.154,4177.0509999999995,4140.128,4165.0,4174.231,4167.0509999999995,4165.385,4154.231,4166.026,4161.538,4135.255999999999,4132.564,4169.615,4115.641,0,0
341,76,0,2956,4131.667,4179.872,4143.333,4167.692,4172.564,4166.538,4167.436,4165.385,4167.0509999999995,4152.564,4127.821,4136.667,4168.974,4106.667,0,0
342,77,0,1813,4129.744000000001,4182.179,4152.564,4171.282,4173.462,4169.231,4172.0509999999995,4166.026,4166.795,4150.641,4126.538,4145.385,4169.359,4111.538,0,0
343,78,0,2374,4123.59,4176.795,4142.564,4165.513,4176.667,4168.462,4171.923,4148.462,4163.846,4156.154,4132.821,4137.436,4170.641,4120.128,0,0
344,79,0,3201,4128.333,4174.103,4146.282,4166.41,4181.154,4169.872,4176.667,4151.923,4168.077,4165.385,4140.513,4144.359,4179.487,4123.974,0,0
345,80,0,2956,4129.872,4174.487,4145.255999999999,4168.077,4181.41,4170.255999999999,4184.615,4174.487,4179.615,4172.564,4140.641,4143.718,4182.179,4122.692,0,0
346,81,0,1813,4129.359,4174.872,4145.255999999999,4168.59,4181.026,4170.128,4188.333,4180.769,4187.179,4173.205,4139.744000000001,4142.9490000000005,4180.0,4123.077,0,0
347,82,0,2374,4130.128,4174.359,4146.154,4168.59,4181.282,4172.179,4183.846,4167.0509999999995,4183.846,4173.077,4141.538,4145.769,4181.282,4124.615,0,0
348,83,0,3201,4125.385,4169.615,4139.231,4163.718,4172.9490000000005,4170.897,4167.436,4148.462,4169.231,4168.333,4135.769,4139.359,4174.872,4119.615,0,0
349,84,0,2956,4126.538,4168.974,4139.872,4161.795,4170.255999999999,4168.333,4159.872,4154.615,4165.897,4166.282,4132.308,4137.9490000000005,4166.923,4116.795,0,0
350,85,0,1813,4139.615,4177.821,4150.513,4169.487,4183.462,4172.179,4173.718,4168.974,4177.179,4177.436,4145.897,4147.692,4171.795,4129.615,0,0
351,86,0,2374,4144.231,4183.333,4154.744000000001,4173.205,4184.231,4173.718,4177.821,4153.846,4175.641,4180.255999999999,4154.744000000001,4152.179,4176.282,4141.923,0,0
352,87,0,3201,4133.974,4174.487,4148.462,4166.282,4171.41,4161.667,4166.923,4154.487,4168.077,4169.487,4143.462,4143.718,4170.385,4137.821,0,0
353,88,0,2956,4132.9490000000005,4167.9490000000005,4146.538,4165.385,4167.9490000000005,4154.231,4167.821,4173.974,4171.795,4166.41,4141.154,4143.462,4168.462,4134.487,0,0
354,89,0,1813,4138.718,4173.077,4149.103,4169.744000000001,4173.846,4163.333,4173.077,4153.974,4172.436,4171.282,4153.462,4148.59,4170.641,4139.487,0,0
355,90,0,2374,4138.333,4171.538,4153.077,4169.103,4178.846,4170.255999999999,4166.026,4127.436,4166.026,4168.974,4153.846,4146.923,4171.026,4137.308,0,0
356,91,0,3201,4137.692,4171.795,4156.667,4170.641,4183.718,4168.462,4165.641,4150.769,4171.026,4167.436,4150.641,4146.538,4169.231,4133.846,0,0
357,92,0,2956,4140.0,4184.103,4158.077,4175.255999999999,4185.513,4168.205,4174.359,4166.795,4176.667,4167.9490000000005,4152.9490000000005,4151.026,4167.692,4137.9490000000005,0,0
358,93,0,1813,4140.0,4186.795,4154.744000000001,4173.974,4184.231,4163.333,4166.923,4140.769,4169.231,4160.0,4145.255999999999,4148.974,4171.667,4135.641,0,0
359,94,0,2374,4135.641,4175.897,4149.872,4169.872,4180.641,4156.923,4156.538,4129.615,4160.897,4153.846,4135.897,4143.462,4168.846,4124.487,0,0
360,95,0,3201,4135.513,4169.872,4148.974,4170.385,4176.282,4161.41,4163.205,4140.385,4161.795,4157.0509999999995,4140.0,4144.359,4157.692,4120.0,0,0
361,96,0,2956,4140.641,4177.564,4156.026,4169.744000000001,4177.436,4167.821,4170.128,4143.205,4166.282,4162.9490000000005,4148.205,4152.308,4156.795,4128.974,0,0
362,97,0,1813,4144.744000000001,4182.308,4163.462,4170.897,4182.308,4166.41,4166.41,4146.026,4170.255999999999,4167.0509999999995,4153.59,4157.9490000000005,4165.769,4138.59,0,0
363,98,0,2374,4149.231,4176.026,4164.872,4176.154,4183.974,4166.154,4168.59,4157.564,4173.333,4170.385,4157.0509999999995,4158.333,4170.385,4140.641,0,0
364,99,0,3201,4148.59,4171.026,4163.59,4175.0,4179.615,4168.846,4163.59,4151.154,4169.231,4165.385,4154.359,4155.641,4167.0509999999995,4138.59,0,0
365,100,0,2956,4143.077,4173.974,4162.692,4170.897,4174.872,4166.026,4155.0,4139.359,4165.769,4159.487,4150.897,4156.667,4162.0509999999995,4139.615,0,0
366,101,0,1813,4139.359,4172.308,4163.59,4170.897,4172.692,4158.077,4163.59,4153.718,4170.513,4158.846,4152.179,4158.462,4156.026,4142.821,0,0
367,102,0,2374,4140.128,4166.795,4164.744000000001,4172.821,4173.333,4157.9490000000005,4164.359,4153.846,4169.744000000001,4153.846,4151.282,4153.462,4151.538,4139.359,0,0
368,103,0,3201,4147.308,4176.667,4170.641,4179.359,4179.872,4167.308,4159.615,4139.872,4165.513,4155.897,4151.41,4154.744000000001,4152.436,4138.718,0,0
369,104,0,2956,4155.255999999999,4186.154,4175.0,4185.641,4186.795,4168.462,4169.744000000001,4150.769,4169.359,4167.179,4156.282,4158.59,4153.077,4147.436,0,0
370,105,0,1813,4158.333,4183.077,4174.103,4187.308,4185.641,4163.462,4174.744000000001,4156.41,4172.436,4170.769,4159.103,4158.333,4153.077,4153.846,0,0
371,106,0,2374,4155.769,4185.769,4172.564,4184.487,4182.308,4167.436,4165.255999999999,4138.205,4169.487,4168.462,4156.538,4158.205,4153.333,4151.026,0,0
372,107,0,3201,4151.026,4184.744000000001,4170.255999999999,4177.179,4186.538,4174.615,4171.667,4142.9490000000005,4172.9490000000005,4171.41,4154.487,4161.538,4154.487,4143.205,0,0
373,108,0,2956,4148.205,4170.385,4163.718,4171.282,4184.359,4175.255999999999,4184.231,4159.231,4177.308,4172.821,4155.128,4158.718,4154.872,4137.0509999999995,0,0
374,109,0,1813,4152.564,4173.077,4169.744000000001,4173.846,4172.436,4168.333,4173.333,4145.897,4171.41,4169.231,4155.128,4160.255999999999,4154.872,4142.308,0,0
375,110,0,2374,4155.769,4183.974,4177.9490000000005,4173.974,4170.897,4165.641,4164.872,4141.026,4170.769,4168.462,4153.59,4163.462,4153.333,4151.923,0,0
376,111,0,3201,4153.718,4176.667,4167.821,4171.923,4183.077,4174.103,4177.308,4166.282,4182.0509999999995,4173.205,4156.923,4152.692,4151.282,4151.667,0,0
377,112,0,2956,4173.333,4184.231,4190.128,4187.821,4187.821,4182.9490000000005,4194.359,4178.59,4190.128,4182.564,4166.667,4170.513,4155.769,4163.333,0,0
378,113,0,1813,4195.897,4197.436,4187.821,4191.538,4182.9490000000005,4185.385,4192.0509999999995,4159.744000000001,4186.538,4190.385,4174.487,4168.333,4156.026,4191.41,0,0
379,114,0,2374,4197.179,4184.744000000001,4113.205,4174.744000000001,4191.282,4181.154,4172.692,4149.615,4184.872,4197.436,4186.41,4106.923,4148.846,4213.205,0,0
380,115,0,3201,4211.026,4183.462,4100.0,4180.769,4200.769,4169.744000000001,4162.9490000000005,4164.872,4194.744000000001,4209.487,4208.333,4096.795,4151.026,4233.846,0,0
381,116,0,2956,4245.897,4204.744000000001,4191.538,4208.59,4194.744000000001,4170.385,4176.282,4173.846,4199.487,4217.436,4221.41,4175.641,4165.255999999999,4256.026,0,0
382,117,0,1813,4255.385,4208.077,4225.385,4215.128,4191.538,4184.359,4189.103,4172.179,4195.385,4213.077,4218.462,4208.333,4170.897,4260.513,0,0
383,118,0,2374,4235.897,4198.974,4192.692,4204.615,4197.179,4187.821,4187.564,4176.282,4196.667,4205.769,4212.179,4183.205,4162.821,4247.0509999999995,0,0
384,119,0,3201,4222.436,4192.9490000000005,4195.385,4201.026,4195.641,4183.462,4189.615,4183.59,4198.974,4203.077,4206.282,4185.255999999999,4156.538,4235.897,0,0
385,120,0,2956,4217.9490000000005,4184.487,4204.487,4201.667,4187.436,4185.769,4192.692,4180.641,4191.282,4201.41,4201.923,4195.128,4158.077,4229.359,0,0
386,121,0,1813,4211.154,4182.308,4195.255999999999,4199.231,4186.538,4185.128,4190.641,4179.487,4188.974,4198.333,4199.872,4185.385,4161.41,4222.692,0,0
387,122,0,2374,4203.333,4182.436,4194.487,4195.255999999999,4192.821,4184.103,4198.718,4190.769,4200.0,4200.385,4198.718,4181.923,4158.846,4217.564,0,0
388,123,0,3201,4198.333,4175.385,4194.231,4193.974,4193.974,4187.9490000000005,4205.385,4189.872,4203.077,4200.897,4198.077,4184.231,4154.359,4214.615,0,0
389,124,0,2956,4198.846,4172.179,4191.923,4194.359,4187.179,4186.795,4191.667,4177.436,4198.333,4201.282,4200.385,4183.846,4158.59,4215.513,0,0
390,125,0,1813,4200.513,4174.231,4195.897,4193.846,4184.744000000001,4185.385,4186.282,4177.179,4198.333,4208.077,4202.564,4184.872,4167.436,4216.154,0,0
391,126,0,2374,4198.077,4174.103,4197.692,4192.308,4187.308,4182.436,4198.462,4190.128,4200.255999999999,4209.615,4198.59,4184.615,4168.462,4212.308,0,0
392,127,0,51,4191.795,4172.564,4190.0,4188.077,4181.795,4173.205,4196.282,4190.385,4200.385,4201.795,4189.103,4177.436,4165.128,4205.513,0,0
393,0,0,2055,4185.255999999999,4171.026,4181.282,4180.897,4173.846,4167.9490000000005,4182.179,4172.308,4197.821,4196.41,4182.179,4169.615,4166.026,4199.231,0,0
394,1,0,2669,4185.769,4170.769,4185.513,4176.154,4171.667,4171.795,4183.974,4169.231,4197.308,4200.0,4182.821,4171.41,4167.564,4197.821,0,0
395,2,0,3093,4188.59,4172.436,4186.923,4175.513,4173.462,4175.385,4191.795,4182.564,4202.179,4207.692,4187.692,4173.846,4168.59,4201.41,0,0
396,3,0,2948,4183.462,4168.974,4175.513,4172.436,4173.205,4171.795,4184.103,4186.282,4204.359,4208.333,4189.231,4167.436,4167.179,4197.9490000000005,0,0
397,4,0,3577,4176.923,4158.077,4173.205,4170.0,4170.255999999999,4169.487,4179.103,4183.205,4200.255999999999,4201.795,4185.385,4163.974,4160.128,4188.205,0,0
398,5,0,3058,4179.103,4154.744000000001,4181.154,4171.795,4172.308,4177.564,4189.359,4183.077,4197.564,4200.385,4183.205,4166.41,4156.282,4190.0,0,0
399,6,0,3251,4184.872,4163.718,4183.077,4174.359,4180.641,4187.436,4201.923,4189.872,4201.026,4205.385,4187.0509999999995,4172.692,4160.641,4200.385,0,0
400,7,0,3324,4183.333,4170.255999999999,4182.0509999999995,4172.9490000000005,4185.769,4187.9490000000005,4203.462,4201.667,4203.974,4205.128,4188.718,4179.103,4166.154,4198.718,0,0
401,8,0,2985,4175.641,4168.077,4182.9490000000005,4171.667,4179.615,4187.308,4192.692,4199.487,4200.513,4203.205,4186.154,4176.282,4168.333,4188.077,0,0
402,9,0,3562,4171.667,4166.154,4178.846,4174.231,4171.282,4182.0509999999995,4182.9490000000005,4185.513,4197.179,4198.59,4183.59,4168.205,4164.872,4183.718,0,0
403,10,0,2375,4173.077,4165.641,4175.385,4170.641,4167.692,4169.359,4181.154,4180.513,4196.282,4191.667,4181.795,4168.077,4156.538,4184.231,0,0
404,11,0,3201,4177.9490000000005,4167.564,4178.974,4170.385,4168.462,4174.231,4185.513,4178.718,4193.718,4193.974,4182.179,4173.205,4155.385,4185.513,0,0
405,12,0,2957,4181.41,4171.154,4181.41,4179.615,4175.128,4184.615,4187.564,4175.128,4190.641,4199.231,4185.128,4173.205,4158.846,4185.769,0,0
406,13,0,1820,4178.462,4167.179,4182.9490000000005,4180.769,4181.154,4176.41,4185.769,4187.436,4195.385,4201.667,4187.0509999999995,4173.462,4159.487,4184.744000000001,0,0
407,14,0,2375,4172.308,4161.282,4184.487,4177.692,4182.564,4173.974,4185.385,4192.692,4199.103,4200.513,4185.128,4173.974,4164.487,4184.359,0,0
408,15,0,3201,4170.513,4165.128,4183.462,4177.564,4183.846,4183.462,4188.718,4173.333,4190.255999999999,4191.538,4181.026,4169.744000000001,4165.513,4181.923,0,0
409,16,0,0,4176.154,4168.205,4182.0509999999995,4174.487,4184.231,4183.205,4188.205,4162.821,4183.077,4185.128,4179.359,4167.9490000000005,4158.333,4182.179,0,0
410,17,0,0,4183.974,4165.769,4185.513,4177.179,4184.103,4181.154,4184.744000000001,4178.974,4191.667,4193.846,4182.9490000000005,4177.436,4159.872,4190.641,0,0
411,18,0,0,4187.9490000000005,4172.436,4192.0509999999995,4189.231,4192.436,4186.41,4194.487,4198.59,4202.308,4204.487,4186.923,4187.436,4168.974,4201.026,0,0
412,19,0,0,4185.641,4178.59,4193.462,4191.154,4200.513,4187.692,4201.923,4192.9490000000005,4199.359,4201.154,4187.692,4185.385,4170.385,4202.0509999999995,0,0
413,20,0,0,4188.462,4175.385,4189.744000000001,4185.385,4198.718,4186.154,4190.385,4181.41,4196.282,4197.821,4188.077,4182.308,4169.487,4195.128,0,0
414,21,0,0,4194.615,4176.154,4190.641,4188.462,4199.231,4186.538,4183.59,4187.179,4202.0509999999995,4201.923,4188.59,4185.128,4169.872,4194.359,0,0
415,22,0,0,4190.255999999999,4177.9490000000005,4193.462,4190.641,4198.846,4185.513,4190.385,4186.795,4197.436,4200.255999999999,4187.0509999999995,4183.59,4167.179,4197.436,0,0
416,23,0,0,4189.615,4175.128,4188.077,4188.718,4192.9490000000005,4185.641,4189.487,4180.641,4189.744000000001,4196.41,4186.026,4181.026,4165.255999999999,4198.59,0,0
417,24,0,0,4196.154,4174.103,4184.231,4188.205,4190.0,4186.667,4185.641,4193.205,4196.282,4199.872,4188.077,4180.513,4165.255999999999,4203.077,0,0
418,25,0,0,4190.641,4171.282,4186.538,4184.231,4184.615,4181.282,4186.282,4195.385,4197.308,4194.103,4186.667,4177.436,4164.359,4198.974,0,0
419,26,0,0,4181.026,4167.9490000000005,4182.564,4183.462,4178.974,4172.308,4180.513,4171.923,4185.897,4181.795,4183.205,4173.974,4165.128,4190.769,0,0
420,27,0,0,4185.255999999999,4173.462,4178.205,4187.308,4181.282,4168.59,4175.0,4172.0509999999995,4184.615,4189.872,4184.872,4176.538,4166.923,4193.59,0,0
421,28,0,0,4186.667,4172.692,4179.103,4180.385,4177.179,4167.308,4172.821,4192.436,4191.154,4203.462,4186.026,4177.0509999999995,4168.462,4192.692,0,0
422,29,0,0,4181.795,4164.231,4177.9490000000005,4174.615,4171.923,4169.103,4176.538,4190.641,4193.205,4199.744000000001,4184.615,4175.897,4169.487,4188.59,0,0
423,30,0,0,4185.128,4169.744000000001,4182.179,4180.128,4177.308,4176.923,4189.231,4182.308,4198.718,4197.0509999999995,4187.179,4178.333,4170.769,4198.077,0,0
424,31,0,0,4182.308,4170.513,4186.282,4177.308,4180.0,4183.462,4193.974,4186.538,4206.026,4203.59,4191.41,4179.615,4171.154,4201.154,0,0
425,32,0,0,4177.821,4162.821,4185.0,4172.564,4178.205,4182.692,4186.667,4187.564,4201.026,4204.615,4191.154,4181.41,4169.872,4193.462,0,0
426,33,0,0,4185.255999999999,4176.923,4185.255999999999,4183.205,4183.846,4181.795,4185.769,4181.282,4189.744000000001,4197.308,4187.821,4180.385,4168.333,4196.795,0,0
427,34,0,0,4188.59,4196.923,4185.385,4191.154,4187.436,4182.308,4189.359,4178.205,4188.333,4192.436,4182.9490000000005,4177.308,4166.282,4196.154,0,0
428,35,0,0,4182.308,4192.179,4183.718,4186.667,4186.282,4184.615,4186.667,4192.9490000000005,4200.385,4196.667,4179.744000000001,4177.821,4166.923,4182.821,0,0
429,36,0,0,4182.436,4183.59,4186.154,4186.923,4186.667,4183.205,4185.513,4207.821,4205.128,4200.769,4184.487,4181.282,4172.821,4184.615,0,0
430,37,0,0,4182.436,4181.795,4182.179,4187.692,4185.385,4172.692,4185.513,4188.205,4190.769,4193.718,4183.077,4178.846,4169.872,4188.077,0,0
431,38,0,0,4169.872,4176.41,4175.385,4182.308,4181.282,4169.231,4180.513,4162.564,4179.744000000001,4181.282,4170.897,4171.795,4158.333,4175.128,0,0
432,39,0,0,4165.255999999999,4181.154,4180.513,4186.026,4184.872,4180.0,4182.179,4173.462,4183.077,4182.179,4170.897,4173.077,4158.462,4170.385,0,0
433,40,0,0,4177.692,4191.923,4184.872,4195.255999999999,4193.59,4186.154,4195.641,4192.308,4187.179,4194.359,4183.205,4179.872,4168.077,4180.255999999999,0,0
434,41,0,0,4185.513,4187.821,4182.308,4194.103,4193.205,4182.0509999999995,4204.231,4201.154,4194.103,4200.513,4187.821,4182.308,4168.974,4185.385,0,0
435,42,0,0,4183.974,4187.692,4185.0,4191.795,4187.821,4180.641,4198.846,4207.308,4199.231,4195.769,4185.897,4179.872,4166.795,4186.026,0,0
436,43,0,0,4186.41,4198.462,4183.718,4195.513,4187.821,4181.41,4190.128,4189.872,4189.744000000001,4189.359,4181.795,4180.128,4168.205,4184.359,0,0
437,44,0,0,4184.872,4195.897,4177.436,4192.564,4188.205,4177.0509999999995,4183.718,4162.564,4180.128,4185.769,4168.974,4174.231,4165.897,4175.385,0,0
438,45,0,0,4172.821,4184.231,4177.9490000000005,4184.744000000001,4185.0,4172.436,4184.487,4164.487,4180.897,4181.026,4156.538,4166.154,4160.769,4169.359,0,0
439,46,0,0,4166.282,4181.923,4178.59,4184.872,4183.718,4173.718,4193.333,4179.744000000001,4177.564,4170.769,4154.615,4166.923,4152.564,4167.308,0,0
440,47,0,0,4165.385,4182.9490000000005,4172.564,4185.641,4182.692,4173.59,4191.154,4167.9490000000005,4165.128,4156.026,4150.641,4169.487,4145.385,4161.795,0,0
441,48,0,0,4165.897,4182.692,4170.641,4182.692,4181.667,4170.897,4177.564,4160.513,4164.231,4156.538,4146.795,4167.564,4146.41,4163.333,0,0
442,49,0,0,4174.359,4186.667,4173.718,4185.513,4186.026,4175.0,4183.333,4189.487,4179.744000000001,4176.795,4156.795,4168.59,4155.255999999999,4171.282,0,0
443,50,0,0,4181.026,4189.359,4173.59,4189.231,4189.872,4183.846,4195.255999999999,4201.026,4190.641,4187.9490000000005,4169.487,4171.667,4166.667,4171.795,0,0
444,51,0,0,4177.308,4188.846,4172.9490000000005,4190.255999999999,4188.59,4186.41,4190.513,4173.077,4186.154,4184.615,4165.769,4169.359,4171.282,4170.897,0,0
445,52,0,0,4173.205,4189.359,4173.846,4188.077,4189.872,4184.103,4184.103,4161.026,4179.359,4183.846,4156.538,4168.205,4168.333,4172.9490000000005,0,0
446,53,0,0,4174.359,4188.846,4174.744000000001,4185.897,4193.077,4184.359,4187.564,4180.641,4183.462,4186.667,4160.255999999999,4169.359,4165.897,4171.282,0,0
447,54,0,0,4173.462,4186.026,4174.103,4186.667,4189.744000000001,4184.744000000001,4192.821,4187.9490000000005,4186.538,4183.974,4167.564,4168.974,4166.538,4169.872,0,0
448,55,0,0,4169.359,4182.564,4174.487,4186.026,4185.769,4185.897,4197.564,4182.436,4182.692,4183.846,4167.821,4171.282,4165.641,4170.641,0,0
449,56,0,0,4166.41,4181.795,4177.564,4182.308,4181.795,4183.718,4197.9490000000005,4186.41,4181.667,4186.538,4167.0509999999995,4174.615,4166.026,4169.103,0,0
450,57,0,0,4171.41,4183.846,4179.231,4182.436,4173.462,4171.795,4188.077,4188.846,4183.462,4184.872,4169.487,4175.641,4167.0509999999995,4167.436,0,0
451,58,0,0,4181.923,4184.872,4180.897,4190.897,4174.872,4165.897,4180.641,4187.308,4186.026,4189.231,4172.9490000000005,4179.487,4167.564,4175.0,0,0
452,59,0,0,4186.667,4188.59,4190.385,4197.821,4186.282,4176.41,4187.179,4190.255999999999,4188.333,4198.462,4180.0,4188.59,4172.821,4187.308,0,0
453,60,0,0,4186.282,4192.564,4199.103,4195.897,4188.462,4185.255999999999,4192.308,4186.282,4183.59,4194.872,4186.154,4189.744000000001,4173.59,4191.41,0,0
454,61,0,0,4186.026,4192.179,4190.897,4195.641,4183.718,4178.077,4183.333,4175.128,4178.718,4186.282,4180.513,4180.513,4166.923,4188.205,0,0
455,62,0,0,4186.538,4189.359,4182.179,4197.692,4183.974,4168.846,4174.359,4168.59,4180.255999999999,4184.231,4174.744000000001,4178.59,4166.154,4183.59,0,0
456,63,0,0,4185.641,4191.154,4186.538,4198.333,4184.103,4174.615,4181.538,4166.923,4182.0509999999995,4188.59,4180.641,4184.615,4171.923,4182.179,0,0
457,64,0,2045,4185.897,4196.282,4190.385,4196.795,4186.41,4185.513,4190.769,4178.205,4183.59,4197.821,4186.154,4186.538,4173.974,4185.641,0,0
458,65,0,2669,4186.538,4191.41,4184.744000000001,4191.667,4190.0,4181.667,4186.923,4188.333,4186.282,4198.974,4183.846,4182.692,4171.795,4186.154,0,0
459,66,0,3093,4186.026,4184.744000000001,4182.179,4186.795,4189.103,4176.41,4182.308,4178.462,4185.513,4192.9490000000005,4185.513,4183.077,4171.667,4183.974,0,0
460,67,0,2949,4185.255999999999,4193.718,4181.41,4188.59,4192.821,4182.692,4186.667,4173.462,4184.487,4197.308,4188.205,4182.564,4172.564,4184.744000000001,0,0
461,68,0,3577,4185.641,4202.0509999999995,4180.255999999999,4192.436,4196.41,4186.795,4190.769,4187.436,4188.205,4202.9490000000005,4187.564,4179.103,4176.795,4188.077,0,0
462,69,0,3062,4188.077,4196.154,4180.641,4189.359,4190.897,4185.385,4185.513,4186.923,4186.667,4200.641,4190.897,4179.744000000001,4180.0,4189.744000000001,0,0
463,70,0,3248,4189.359,4192.0509999999995,4182.564,4186.795,4185.0,4181.282,4183.205,4181.282,4185.255999999999,4198.846,4193.333,4184.103,4174.872,4190.513,0,0
464,71,0,3325,4186.41,4192.436,4181.154,4187.436,4184.744000000001,4172.9490000000005,4191.026,4192.9490000000005,4189.615,4192.0509999999995,4188.974,4181.795,4168.59,4189.103,0,0
465,72,0,2985,4182.692,4184.744000000001,4173.59,4186.282,4183.462,4169.615,4183.077,4179.359,4181.923,4179.231,4183.077,4170.385,4168.59,4183.333,0,0
466,73,0,3561,4179.615,4181.282,4167.436,4184.615,4181.282,4171.282,4165.385,4151.026,4168.974,4179.615,4183.205,4165.897,4171.538,4181.026,0,0
467,74,0,2375,4176.41,4185.128,4171.923,4183.462,4183.333,4173.205,4172.0509999999995,4153.846,4171.026,4186.282,4185.641,4170.128,4173.077,4183.59,0,0
468,75,0,3200,4171.923,4183.974,4177.9490000000005,4182.821,4184.744000000001,4179.231,4186.282,4173.077,4183.718,4184.872,4185.641,4170.0,4173.718,4182.308,0,0
469,76,0,2956,4170.385,4182.308,4173.462,4181.154,4183.59,4178.59,4178.846,4178.59,4185.255999999999,4184.487,4185.385,4166.667,4174.615,4179.872,0,0
470,77,0,1820,4178.333,4185.769,4167.692,4182.564,4183.205,4166.154,4166.154,4173.846,4175.255999999999,4186.282,4185.641,4167.9490000000005,4173.333,4182.308,0,0
471,78,0,2375,4186.154,4187.821,4170.641,4184.231,4182.0509999999995,4163.974,4172.179,4171.538,4174.103,4186.41,4185.513,4171.026,4171.154,4183.974,0,0
472,79,0,3200,4184.615,4185.769,4177.821,4180.255999999999,4176.795,4172.308,4177.179,4172.564,4183.333,4193.59,4188.333,4174.103,4175.897,4183.462,0,0
473,80,0,2956,4184.615,4186.538,4178.846,4178.59,4172.564,4172.179,4172.0509999999995,4180.385,4189.231,4201.795,4192.179,4177.0509999999995,4181.538,4184.872,0,0
474,81,0,1820,4184.359,4182.564,4174.615,4180.255999999999,4173.846,4169.231,4174.359,4178.974,4181.538,4194.359,4184.615,4172.564,4177.308,4181.795,0,0
475,82,0,2375,4172.821,4172.436,4170.128,4175.128,4173.974,4172.0509999999995,4178.718,4170.385,4173.846,4182.0509999999995,4172.308,4162.821,4171.538,4170.513,0,0
476,83,0,3200,4162.9490000000005,4172.564,4167.564,4166.538,4169.615,4170.128,4175.513,4171.154,4171.538,4180.641,4167.179,4154.872,4172.0509999999995,4158.462,0,0
477,84,0,2956,4166.41,4178.974,4168.205,4166.538,4170.255999999999,4166.026,4167.436,4170.769,4168.59,4182.9490000000005,4165.513,4154.103,4172.0509999999995,4157.692,0,0
478,85,0,1820,4170.897,4180.897,4168.462,4171.154,4179.615,4174.359,4166.923,4171.282,4177.179,4186.282,4165.128,4161.667,4176.026,4167.692,0,0
479,86,0,2375,4168.974,4182.436,4167.436,4172.436,4185.769,4179.231,4177.821,4177.9490000000005,4187.9490000000005,4190.641,4170.769,4166.026,4181.41,4172.436,0,0
480,87,0,3200,4170.897,4183.077,4171.026,4173.59,4183.59,4173.974,4188.59,4172.179,4178.974,4187.436,4173.205,4164.744000000001,4175.641,4168.718,0,0
481,88,0,2956,4180.255999999999,4182.308,4177.0509999999995,4177.9490000000005,4181.923,4176.795,4181.667,4162.436,4171.154,4182.308,4171.282,4166.538,4166.538,4172.436,0,0
482,89,0,1820,4187.308,4189.872,4179.872,4183.718,4186.154,4181.795,4165.641,4174.744000000001,4185.385,4187.692,4178.205,4169.359,4167.308,4181.667,0,0
483,90,0,2375,4188.59,4198.205,4181.41,4186.154,4187.692,4179.359,4171.923,4181.154,4192.436,4195.128,4184.103,4172.308,4177.308,4185.897,0,0
484,91,0,3200,4189.359,4192.0509999999995,4183.846,4186.667,4185.255999999999,4179.359,4187.0509999999995,4168.462,4182.9490000000005,4193.077,4175.641,4171.795,4184.103,4184.744000000001,0,0
485,92,0,2956,4185.641,4180.128,4178.718,4181.154,4182.821,4180.255999999999,4187.308,4170.128,4181.667,4185.897,4166.282,4167.436,4182.821,4175.0,0,0
486,93,0,1820,4183.333,4178.59,4174.872,4175.255999999999,4182.564,4181.667,4184.103,4182.308,4183.205,4182.179,4166.923,4164.872,4179.231,4167.0509999999995,0,0
487,94,0,2375,4190.769,4186.538,4183.077,4181.41,4186.923,4193.59,4197.308,4193.205,4186.282,4184.359,4168.333,4168.974,4181.282,4174.487,0,0
488,95,0,3200,4192.308,4187.9490000000005,4184.615,4186.538,4188.974,4196.282,4212.821,4200.385,4193.462,4190.769,4169.103,4172.564,4185.769,4184.872,0,0
489,96,0,2956,4184.615,4181.667,4178.205,4181.026,4186.026,4183.077,4199.487,4191.282,4189.872,4196.923,4176.667,4169.872,4186.41,4184.231,0,0
490,97,0,1820,4183.205,4180.513,4181.923,4180.641,4185.897,4180.255999999999,4184.615,4179.359,4186.538,4199.487,4183.462,4168.462,4187.308,4184.487,0,0
491,98,0,2375,4185.897,4186.026,4187.9490000000005,4187.692,4188.205,4186.923,4191.667,4189.487,4193.718,4198.205,4179.872,4174.359,4188.205,4188.333,0,0
492,99,0,3200,4185.897,4187.821,4184.359,4188.077,4187.821,4187.564,4194.231,4203.333,4195.0,4190.0,4171.154,4176.154,4187.9490000000005,4183.974,0,0
493,100,0,2956,4190.385,4185.769,4186.154,4185.0,4186.026,4183.205,4188.462,4195.641,4188.205,4185.385,4170.897,4173.205,4186.026,4184.872,0,0
494,101,0,1820,4200.769,4187.692,4192.9490000000005,4188.077,4187.0509999999995,4187.436,4196.923,4191.026,4187.179,4194.231,4181.538,4179.359,4187.564,4199.103,0,0
495,102,0,2375,4204.231,4189.615,4190.513,4191.667,4188.462,4187.0509999999995,4202.821,4196.795,4190.385,4200.897,4188.974,4188.462,4190.513,4207.308,0,0
496,103,0,3200,4192.436,4187.179,4184.231,4187.564,4186.282,4174.231,4187.692,4189.744000000001,4188.718,4197.0509999999995,4180.385,4181.41,4187.692,4199.359,0,0
497,104,0,2956,4186.667,4193.333,4186.154,4186.923,4186.41,4172.436,4183.462,4185.769,4186.154,4196.923,4170.641,4172.692,4185.385,4190.769,0,0
498,105,0,1820,4192.308,4199.872,4193.077,4193.205,4192.564,4183.333,4195.513,4197.436,4187.308,4200.385,4171.282,4175.0,4186.026,4188.59,0,0
499,106,0,2375,4192.436,4194.359,4191.282,4191.538,4193.718,4183.846,4193.333,4190.385,4186.795,4198.974,4173.462,4172.692,4184.487,4188.077,0,0
500,107,0,3200,4192.179,4193.205,4184.615,4186.41,4187.436,4179.231,4185.0,4167.9490000000005,4182.308,4200.769,4173.718,4168.333,4185.255999999999,4191.154,0,0
501,108,0,2956,4191.923,4191.538,4186.41,4187.436,4186.795,4186.026,4187.821,4166.795,4181.282,4200.513,4173.333,4170.513,4187.9490000000005,4189.872,0,0
502,109,0,1820,4185.897,4181.282,4191.282,4187.692,4189.615,4186.538,4188.462,4173.846,4181.667,4190.385,4170.897,4172.9490000000005,4183.462,4185.255999999999,0,0
503,110,0,2375,4185.897,4188.974,4188.205,4186.41,4185.641,4171.41,4182.564,4172.9490000000005,4176.026,4185.769,4167.9490000000005,4170.255999999999,4178.59,4186.282,0,0
504,111,0,3200,4190.641,4205.128,4185.0,4187.9490000000005,4184.231,4169.615,4187.821,4172.0509999999995,4171.154,4189.359,4168.974,4168.333,4181.41,4186.795,0,0
505,112,0,2956,4187.308,4201.026,4187.0509999999995,4188.718,4190.513,4181.154,4186.538,4169.615,4170.513,4186.538,4168.462,4168.846,4185.0,4182.9490000000005,0,0
506,113,0,1820,4186.538,4198.59,4186.538,4188.846,4191.667,4178.462,4170.255999999999,4169.103,4171.154,4183.462,4163.205,4171.154,4186.026,4180.769,0,0
507,114,0,2375,4183.462,4200.385,4178.333,4186.795,4186.667,4165.769,4162.9490000000005,4172.564,4175.128,4187.692,4156.795,4168.462,4187.308,4175.0,0,0
508,115,0,3200,4168.718,4190.255999999999,4168.077,4181.282,4184.615,4165.255999999999,4166.795,4168.59,4174.359,4183.333,4151.667,4157.821,4187.9490000000005,4159.872,0,0
509,116,0,2956,4163.205,4183.462,4166.41,4179.744000000001,4186.538,4170.385,4176.538,4168.333,4170.255999999999,4175.0,4151.667,4154.231,4185.641,4153.974,0,0
510,117,0,1820,4169.744000000001,4185.641,4168.846,4181.667,4188.333,4176.41,4182.179,4174.487,4170.769,4174.872,4149.615,4161.154,4184.359,4159.103,0,0
511,118,0,2375,4168.974,4185.769,4170.385,4177.821,4190.897,4183.974,4177.0509999999995,4164.872,4167.821,4174.103,4145.385,4162.179,4184.359,4158.846,0,0
512,119,0,3200,4159.103,4182.9490000000005,4171.154,4171.667,4186.538,4176.795,4172.308,4151.026,4160.385,4170.255999999999,4142.0509999999995,4154.231,4178.846,4155.0,0,0
513,120,0,2956,4152.179,4174.487,4166.667,4168.718,4174.744000000001,4165.255999999999,4174.744000000001,4157.179,4156.667,4167.692,4138.718,4149.615,4170.769,4149.872,0,0
514,121,0,1820,4152.564,4164.359,4162.308,4167.692,4168.718,4168.077,4176.41,4169.359,4156.282,4164.231,4136.154,4151.41,4167.436,4142.692,0,0
515,122,0,2375,4153.718,4167.9490000000005,4164.744000000001,4170.255999999999,4174.359,4173.077,4182.308,4171.282,4157.821,4163.077,4136.538,4151.795,4172.564,4143.462,0,0
516,123,0,3200,4152.0509999999995,4178.846,4171.282,4171.795,4180.897,4171.41,4187.308,4166.667,4163.205,4168.205,4140.128,4150.641,4179.487,4151.667,0,0
517,124,0,2956,4158.846,4183.333,4176.41,4171.923,4181.667,4169.103,4181.667,4166.667,4167.9490000000005,4176.667,4145.0,4157.436,4183.846,4158.718,0,0
518,125,0,1820,4171.154,4184.615,4179.615,4177.436,4177.821,4166.795,4173.974,4179.615,4169.615,4183.718,4152.179,4166.282,4185.897,4165.897,0,0
519,126,0,2375,4174.103,4186.538,4182.9490000000005,4185.385,4173.333,4167.692,4172.821,4185.769,4169.487,4185.255999999999,4157.9490000000005,4168.205,4186.667,4172.821,0,0
520,127,0,51,4175.255999999999,4187.564,4184.615,4186.026,4178.333,4172.436,4179.615,4173.462,4169.359,4184.231,4157.821,4165.385,4188.59,4172.436,0,0
521,0,0,2041,4181.795,4187.564,4185.128,4184.359,4186.667,4173.974,4183.462,4168.077,4166.923,4183.846,4153.718,4164.872,4187.564,4171.154,0,0
522,1,0,2673,4186.795,4188.462,4185.769,4185.769,4185.897,4176.923,4183.974,4185.128,4167.308,4184.615,4157.9490000000005,4169.744000000001,4183.333,4177.821,0,0
523,2,0,3094,4186.538,4188.333,4187.436,4186.923,4184.744000000001,4184.231,4196.026,4199.231,4178.846,4192.179,4167.436,4173.59,4188.974,4185.513,0,0
524,3,0,2950,4180.897,4183.846,4183.974,4185.128,4185.897,4184.487,4201.026,4188.846,4184.231,4195.897,4163.718,4166.923,4199.359,4180.255999999999,0,0
525,4,0,3581,4171.795,4181.154,4181.282,4181.41,4183.846,4182.179,4188.718,4181.026,4180.255999999999,4191.667,4154.103,4162.179,4195.641,4170.897,0,0
526,5,0,3063,4169.615,4182.821,4183.846,4181.795,4183.718,4185.769,4185.255999999999,4188.462,4181.282,4193.59,4156.667,4165.897,4187.0509999999995,4173.462,0,0
527,6,0,3253,4174.487,4182.564,4181.667,4183.077,4185.128,4184.615,4188.846,4186.154,4179.487,4191.026,4158.846,4164.615,4187.0509999999995,4177.179,0,0
528,7,0,3327,4179.487,4183.718,4179.359,4182.821,4185.0,4178.718,4180.769,4170.641,4167.436,4182.308,4152.821,4161.282,4183.846,4177.436,0,0
529,8,0,2986,4190.897,4194.359,4189.487,4191.154,4188.205,4181.41,4185.0,4170.128,4166.923,4190.0,4159.744000000001,4170.128,4184.872,4189.231,0,0
530,9,0,3561,4203.974,4205.128,4198.846,4201.538,4191.538,4187.0509999999995,4204.231,4198.205,4183.077,4204.359,4178.846,4182.0509999999995,4192.821,4203.462,0,0
531,10,0,2375,4205.897,4205.255999999999,4200.0,4202.179,4195.255999999999,4186.538,4207.564,4212.436,4187.564,4205.0,4184.615,4181.538,4190.897,4201.923,0,0
532,11,0,3200,4199.359,4202.0509999999995,4196.923,4199.231,4196.154,4187.179,4190.513,4181.41,4174.744000000001,4196.795,4174.744000000001,4174.872,4184.744000000001,4191.923,0,0
533,12,0,2956,4195.385,4202.308,4192.692,4197.821,4190.255999999999,4185.385,4172.564,4154.231,4163.59,4187.821,4166.795,4172.821,4187.308,4186.154,0,0
534,13,0,1808,4198.59,4203.59,4190.897,4198.205,4190.769,4182.436,4172.692,4171.795,4167.308,4189.103,4168.974,4174.231,4193.718,4185.513,0,0
535,14,0,2375,4204.231,4203.718,4195.897,4203.974,4200.897,4192.692,4186.282,4190.255999999999,4173.846,4202.436,4173.974,4171.667,4198.205,4188.077,0,0
536,15,0,3200,4200.513,4203.333,4196.923,4201.538,4197.436,4196.795,4192.0509999999995,4183.333,4172.0509999999995,4203.333,4168.462,4168.333,4199.231,4189.359,0,0
537,16,0,0,4186.538,4198.974,4188.59,4187.692,4182.436,4178.462,4183.077,4182.692,4169.487,4189.487,4156.538,4168.59,4192.692,4183.718,0,0
538,17,0,0,4180.255999999999,4195.513,4188.077,4188.718,4179.359,4170.641,4181.667,4186.41,4169.615,4187.0509999999995,4157.564,4169.744000000001,4190.897,4181.154,0,0
539,18,0,0,4187.436,4198.718,4194.487,4197.436,4187.564,4186.282,4193.718,4185.128,4170.255999999999,4198.333,4168.59,4173.59,4198.974,4188.846,0,0
540,19,0,0,4190.255999999999,4198.333,4192.0509999999995,4191.795,4190.897,4191.154,4192.821,4189.487,4171.282,4200.128,4172.308,4176.282,4201.026,4193.846,0,0
541,20,0,0,4177.179,4187.179,4183.205,4182.436,4185.897,4182.308,4185.0,4183.718,4171.026,4187.308,4164.615,4174.231,4196.795,4186.923,0,0
542,21,0,0,4172.9490000000005,4180.385,4185.897,4183.59,4187.436,4185.897,4191.923,4175.255999999999,4169.487,4184.615,4160.769,4173.59,4196.538,4182.436,0,0
543,22,0,0,4190.255999999999,4190.0,4200.0,4192.179,4196.667,4194.231,4195.385,4183.077,4170.513,4197.179,4166.667,4180.513,4200.769,4191.154,0,0
544,23,0,0,4205.641,4201.154,4206.282,4199.359,4200.513,4193.59,4189.872,4195.641,4177.0509999999995,4203.205,4171.795,4187.564,4201.923,4201.667,0,0
545,24,0,0,4203.846,4200.769,4199.487,4196.282,4200.255999999999,4188.846,4194.615,4202.0509999999995,4185.128,4202.821,4171.795,4184.615,4200.769,4202.308,0,0
546,25,0,0,4199.744000000001,4197.821,4199.744000000001,4192.564,4197.564,4186.923,4203.974,4204.359,4183.718,4202.9490000000005,4172.564,4186.026,4200.128,4200.769,0,0
547,26,0,0,4199.231,4197.179,4208.077,4196.154,4188.59,4185.769,4205.0,4201.667,4174.744000000001,4202.436,4174.103,4192.179,4201.923,4203.462,0,0
548,27,0,0,4191.154,4191.538,4185.897,4189.231,4181.667,4181.41,4197.692,4188.718,4170.513,4198.846,4170.641,4171.41,4198.974,4197.821,0,0
549,28,0,0,4183.205,4188.077,4175.128,4181.282,4185.128,4181.41,4191.667,4179.359,4168.333,4190.128,4168.077,4160.0,4188.718,4190.128,0,0
550,29,0,0,4183.846,4191.026,4190.0,4185.0,4188.333,4189.103,4198.077,4193.077,4169.487,4182.692,4167.821,4173.205,4184.615,4193.718,0,0
551,30,0,0,4194.615,4194.872,4201.795,4192.564,4184.744000000001,4186.923,4205.0,4212.564,4180.897,4185.255999999999,4169.615,4187.564,4192.692,4199.872,0,0
552,31,0,0,4203.974,4199.487,4199.231,4195.385,4183.333,4172.436,4200.255999999999,4211.026,4192.0509999999995,4191.923,4173.333,4183.974,4200.641,4202.9490000000005,0,0
553,32,0,0,4204.103,4203.846,4203.205,4196.026,4185.128,4168.974,4201.282,4197.9490000000005,4184.103,4188.462,4171.282,4183.205,4199.487,4204.231,0,0
554,33,0,0,4201.282,4201.282,4202.0509999999995,4191.667,4183.59,4180.0,4200.641,4191.154,4173.974,4182.821,4166.795,4183.333,4196.538,4201.795,0,0
555,34,0,0,4200.128,4197.564,4189.487,4186.795,4183.333,4184.744000000001,4187.564,4188.333,4182.692,4191.154,4171.026,4175.897,4200.0,4200.128,0,0
556,35,0,0,4203.718,4199.359,4194.872,4188.333,4186.538,4183.846,4184.359,4191.026,4190.769,4203.974,4177.821,4183.077,4205.513,4204.872,0,0
557,36,0,0,4201.282,4196.538,4204.103,4188.333,4182.564,4184.103,4186.538,4196.41,4184.103,4199.359,4174.231,4191.538,4203.974,4204.231,0,0
558,37,0,0,4190.128,4189.103,4201.667,4185.128,4172.692,4181.282,4181.923,4201.282,4181.154,4184.615,4166.667,4188.077,4197.821,4193.846,0,0
559,38,0,0,4183.462,4186.154,4189.615,4183.974,4171.282,4179.359,4183.59,4207.9490000000005,4186.282,4183.974,4168.077,4176.923,4195.513,4187.436,0,0
560,39,0,0,4179.615,4185.128,4180.513,4180.255999999999,4173.077,4176.41,4181.282,4190.385,4178.59,4183.718,4165.897,4168.59,4194.744000000001,4182.308,0,0
561,40,0,0,4175.128,4182.821,4182.308,4176.41,4170.513,4173.846,4170.769,4164.872,4166.795,4176.154,4157.821,4169.359,4193.974,4176.154,0,0
562,41,0,0,4177.436,4182.821,4181.026,4181.282,4171.282,4179.615,4176.538,4172.179,4169.359,4179.231,4161.154,4171.41,4198.333,4178.59,0,0
563,42,0,0,4186.923,4187.9490000000005,4186.538,4186.795,4174.872,4186.538,4187.0509999999995,4189.103,4175.0,4185.769,4170.255999999999,4178.333,4201.154,4187.436,0,0
564,43,0,0,4184.231,4189.359,4188.846,4182.436,4172.821,4180.897,4185.897,4194.487,4176.154,4181.667,4167.821,4175.0,4192.179,4186.538,0,0
565,44,0,0,4174.615,4186.41,4188.718,4182.692,4170.128,4172.692,4185.769,4195.513,4174.615,4174.103,4160.385,4173.077,4182.821,4183.077,0,0
566,45,0,0,4173.333,4183.077,4182.9490000000005,4182.692,4170.769,4171.923,4178.077,4178.462,4170.385,4171.538,4155.385,4171.538,4184.231,4185.513,0,0
567,46,0,0,4181.282,4182.692,4183.333,4177.692,4171.154,4171.282,4166.667,4163.59,4167.436,4170.513,4152.179,4168.205,4185.641,4183.846,0,0
568,47,0,0,4191.282,4188.333,4189.744000000001,4181.282,4173.077,4170.513,4176.282,4175.385,4169.359,4172.0509999999995,4158.333,4173.077,4186.154,4188.462,0,0
569,48,0,0,4191.282,4192.436,4190.385,4187.564,4173.718,4170.769,4186.667,4180.769,4169.744000000001,4175.385,4168.205,4178.59,4189.103,4200.255999999999,0,0
570,49,0,0,4188.205,4190.385,4192.821,4183.718,4170.769,4168.718,4179.615,4173.205,4167.564,4180.255999999999,4169.359,4179.487,4189.872,4200.255999999999,0,0
571,50,0,0,4189.872,4188.718,4198.333,4183.718,4174.231,4173.333,4179.231,4178.462,4168.846,4185.769,4168.205,4178.718,4189.615,4196.923,0,0
572,51,0,0,4189.615,4188.077,4195.641,4185.897,4177.692,4180.897,4186.41,4194.872,4173.077,4187.308,4168.718,4178.846,4188.59,4199.359,0,0
573,52,0,0,4186.154,4185.385,4187.179,4178.974,4172.564,4174.872,4185.255999999999,4199.359,4176.026,4185.128,4168.59,4176.538,4186.282,4194.487,0,0
574,53,0,0,4185.255999999999,4185.513,4190.128,4177.436,4173.974,4169.103,4184.231,4190.128,4176.41,4185.255999999999,4169.103,4176.538,4190.769,4189.744000000001,0,0
575,54,0,0,4187.564,4189.359,4196.026,4184.359,4184.231,4177.436,4188.718,4186.41,4177.692,4190.513,4171.154,4180.128,4198.59,4196.154,0,0
576,55,0,0,4186.667,4188.718,4191.154,4185.255999999999,4184.359,4179.359,4186.026,4184.231,4176.923,4192.692,4170.513,4179.615,4200.128,4193.077,0,0
577,56,0,0,4185.513,4184.872,4184.615,4181.154,4174.487,4167.9490000000005,4171.538,4171.795,4170.128,4184.231,4166.667,4175.769,4193.974,4182.179,0,0
578,57,0,0,4186.667,4184.744000000001,4189.487,4180.769,4170.769,4165.769,4171.667,4180.385,4173.333,4181.795,4168.59,4178.205,4191.154,4191.282,0,0
579,58,0,0,4187.821,4188.462,4195.897,4182.9490000000005,4178.59,4178.846,4194.744000000001,4209.744000000001,4189.872,4193.077,4177.308,4185.385,4190.385,4202.692,0,0
580,59,0,0,4185.128,4188.846,4193.333,4182.436,4185.385,4183.205,4193.462,4198.59,4186.41,4194.359,4176.923,4184.359,4188.462,4192.0509999999995,0,0
581,60,0,0,4182.692,4183.462,4191.282,4180.769,4183.077,4176.41,4170.385,4171.154,4171.154,4185.513,4168.462,4175.897,4191.538,4181.026,0,0
582,61,0,0,4185.513,4184.744000000001,4192.308,4181.282,4180.897,4173.59,4174.744000000001,4179.359,4177.564,4189.487,4166.282,4171.282,4196.41,4184.103,0,0
583,62,0,0,4187.9490000000005,4196.41,4193.59,4185.513,4186.026,4177.0509999999995,4192.308,4193.205,4185.513,4195.641,4168.846,4176.41,4197.9490000000005,4188.077,0,0
584,63,0,0,4188.077,4204.359,4193.205,4187.9490000000005,4187.564,4178.846,4185.897,4184.359,4173.974,4190.641,4170.255999999999,4180.385,4193.718,4187.692,0,0
585,64,0,2037,4185.641,4197.692,4192.436,4185.641,4184.744000000001,4180.641,4181.923,4182.0509999999995,4168.077,4185.641,4164.744000000001,4172.692,4188.846,4185.641,0,0
586,65,0,2665,4176.026,4183.718,4187.9490000000005,4178.974,4185.769,4185.897,4196.538,4196.667,4173.205,4182.436,4153.205,4166.795,4186.667,4179.744000000001,0,0
587,66,0,3092,4175.513,4181.538,4187.179,4177.179,4185.0,4187.308,4200.897,4204.231,4175.385,4180.385,4156.41,4172.564,4184.487,4183.974,0,0
588,67,0,2950,4197.436,4194.103,4197.821,4184.744000000001,4183.205,4188.462,4198.333,4203.846,4180.255999999999,4188.846,4178.462,4182.9490000000005,4185.385,4207.821,0,0
589,68,0,3581,4222.179,4204.231,4205.128,4190.255999999999,4184.615,4191.154,4195.0,4193.205,4185.641,4200.641,4193.718,4190.769,4192.9490000000005,4234.487,0,0
590,69,0,3063,4233.718,4198.846,4203.462,4188.974,4186.538,4189.103,4187.0509999999995,4180.128,4186.282,4209.872,4201.795,4194.615,4202.179,4248.462,0,0
591,70,0,3252,4232.821,4187.692,4202.821,4187.179,4186.667,4184.615,4188.462,4186.538,4187.692,4217.179,4210.0,4196.41,4207.0509999999995,4251.41,0,0
592,71,0,3334,4223.59,4183.462,4205.641,4185.769,4184.744000000001,4183.846,4199.487,4200.385,4188.462,4216.667,4207.179,4196.538,4209.487,4249.103,0,0
593,72,0,2986,4215.897,4184.487,4201.923,4184.359,4184.872,4188.974,4203.718,4202.308,4191.923,4213.333,4200.513,4193.718,4207.308,4243.333,0,0
594,73,0,3561,4212.436,4180.385,4199.487,4182.179,4186.667,4191.923,4200.513,4206.41,4197.692,4217.692,4201.538,4192.692,4202.564,4236.795,0,0
595,74,0,2375,4203.462,4175.0,4200.769,4178.59,4186.795,4188.205,4202.179,4213.333,4198.59,4220.385,4202.179,4191.282,4202.821,4229.359,0,0
596,75,0,3198,4197.564,4174.744000000001,4199.359,4180.385,4183.846,4185.641,4207.9490000000005,4218.974,4198.718,4214.872,4199.487,4188.846,4203.974,4225.897,0,0
597,76,0,2956,4199.872,4173.718,4201.795,4184.744000000001,4183.077,4191.282,4215.0,4225.513,4200.385,4213.846,4201.282,4194.103,4202.821,4229.487,0,0
598,77,0,1808,4201.282,4175.255999999999,4208.462,4186.667,4190.897,4197.308,4218.462,4223.333,4199.487,4222.692,4209.487,4203.077,4202.564,4232.308,0,0
599,78,0,2375,4201.154,4183.333,4208.462,4189.359,4197.308,4194.487,4212.0509999999995,4219.103,4201.923,4233.59,4213.974,4199.744000000001,4205.128,4231.667,0,0
600,79,0,3198,4202.821,4186.795,4205.769,4188.59,4190.513,4184.744000000001,4200.513,4211.282,4201.41,4231.538,4209.231,4192.821,4208.846,4231.41,0,0
601,80,0,2956,4202.821,4183.333,4204.487,4184.615,4182.564,4183.718,4195.513,4193.205,4188.333,4219.872,4202.179,4190.128,4207.692,4228.462,0,0
602,81,0,1808,4202.308,4181.41,4202.179,4185.0,4187.821,4194.487,4202.821,4190.769,4182.436,4215.897,4202.179,4188.718,4202.179,4225.769,0,0
603,82,0,2375,4204.615,4183.846,4202.308,4189.487,4190.385,4193.846,4205.0,4213.077,4193.974,4218.59,4205.0,4191.026,4202.179,4227.436,0,0
604,83,0,3198,4202.9490000000005,4187.179,4203.462,4191.41,4184.359,4182.179,4193.333,4220.255999999999,4200.769,4218.205,4202.692,4187.308,4204.744000000001,4224.359,0,0
605,84,0,2956,4200.255999999999,4185.255999999999,4197.692,4186.026,4184.615,4181.154,4189.359,4209.872,4195.128,4212.821,4198.846,4181.41,4202.692,4216.282,0,0
606,85,0,1808,4200.769,4172.9490000000005,4193.462,4175.0,4180.255999999999,4185.513,4197.179,4211.923,4194.359,4204.103,4198.205,4181.923,4198.846,4216.667,0,0
607,86,0,2375,4196.41,4165.641,4193.462,4168.59,4173.462,4183.59,4202.821,4220.0,4198.846,4202.308,4199.231,4184.487,4199.231,4219.103,0,0
608,87,0,3198,4193.59,4175.897,4193.718,4175.385,4181.026,4185.769,4202.308,4224.615,4200.385,4209.487,4196.282,4182.692,4202.692,4216.795,0,0
609,88,0,2956,4196.538,4183.718,4194.231,4182.308,4189.103,4191.923,4198.974,4221.026,4200.385,4210.513,4191.154,4182.308,4203.59,4217.0509999999995,0,0
610,89,0,1808,4193.077,4176.154,4192.9490000000005,4177.821,4185.769,4190.128,4201.41,4217.436,4201.154,4202.179,4186.282,4184.231,4202.308,4213.462,0,0
611,90,0,2375,4184.359,4167.9490000000005,4191.026,4172.0509999999995,4185.128,4187.692,4207.179,4225.0,4204.615,4202.308,4183.59,4183.59,4201.282,4202.692,0,0
612,91,0,3198,4184.359,4169.744000000001,4188.718,4171.923,4185.769,4187.692,4199.359,4220.0,4202.436,4203.718,4186.667,4179.615,4200.513,4200.641,0,0
613,92,0,2956,4185.255999999999,4169.615,4184.231,4171.41,4177.564,4184.231,4181.795,4193.077,4190.769,4192.564,4183.462,4172.692,4199.872,4201.282,0,0
614,93,0,1808,4178.974,4161.795,4181.667,4166.667,4170.769,4180.0,4182.179,4178.205,4180.769,4181.667,4173.59,4169.615,4196.667,4188.974,0,0
615,94,0,2375,4173.462,4161.026,4186.667,4166.026,4170.641,4180.897,4196.923,4192.564,4183.974,4182.821,4176.41,4176.282,4193.974,4182.564,0,0
616,95,0,3198,4170.641,4163.974,4187.564,4168.718,4169.103,4180.385,4201.795,4207.821,4195.513,4187.9490000000005,4187.179,4180.641,4197.308,4195.255999999999,0,0
617,96,0,2956,4175.769,4165.0,4184.231,4170.128,4169.744000000001,4178.205,4195.255999999999,4197.0509999999995,4199.359,4187.9490000000005,4187.308,4178.718,4202.179,4204.231,0,0
618,97,0,1808,4182.692,4167.0509999999995,4185.255999999999,4169.359,4174.103,4179.103,4188.333,4185.0,4196.026,4186.282,4182.308,4176.795,4200.385,4200.385,0,0
619,98,0,2375,4184.615,4170.513,4187.692,4168.974,4175.0,4182.0509999999995,4190.513,4197.692,4197.436,4189.744000000001,4186.795,4180.0,4197.9490000000005,4205.255999999999,0,0
620,99,0,3198,4181.538,4168.205,4185.897,4168.974,4170.513,4183.333,4192.436,4204.487,4199.487,4188.462,4188.846,4179.872,4199.231,4212.179,0,0
621,100,0,2956,4182.9490000000005,4166.538,4186.538,4168.205,4171.154,4183.333,4186.667,4195.641,4196.41,4185.0,4185.255999999999,4176.923,4198.333,4208.59,0,0
622,101,0,1808,4193.974,4173.59,4193.333,4171.923,4182.179,4183.59,4190.897,4206.282,4197.308,4193.718,4190.255999999999,4181.667,4197.692,4210.641,0,0
623,102,0,2375,4194.231,4174.359,4193.59,4178.205,4184.615,4183.205,4199.872,4219.103,4201.667,4202.308,4200.128,4187.308,4200.255999999999,4216.282,0,0
624,103,0,3198,4186.026,4171.026,4188.974,4177.564,4176.282,4184.103,4194.231,4208.846,4197.9490000000005,4201.026,4198.974,4185.128,4202.0509999999995,4212.564,0,0
625,104,0,2956,4186.41,4171.026,4187.436,4170.641,4172.436,4179.872,4182.308,4193.462,4189.872,4197.564,4189.359,4178.846,4201.41,4204.615,0,0
626,105,0,1808,4183.718,4170.128,4185.255999999999,4167.0509999999995,4172.564,4177.308,4181.154,4186.41,4186.154,4191.282,4184.615,4176.41,4198.846,4200.513,0,0
627,106,0,2375,4176.41,4168.333,4184.487,4168.974,4170.769,4181.538,4184.103,4192.9490000000005,4187.0509999999995,4186.41,4182.9490000000005,4177.308,4196.41,4196.026,0,0
628,107,0,3198,4180.513,4169.872,4188.462,4169.359,4170.0,4179.487,4185.385,4203.59,4187.692,4194.615,4185.513,4179.231,4199.103,4199.103,0,0
629,108,0,2956,4189.615,4171.923,4189.615,4168.59,4173.333,4177.436,4189.744000000001,4203.974,4194.487,4207.308,4198.333,4183.718,4205.513,4211.026,0,0
630,109,0,1808,4184.487,4165.769,4187.179,4169.103,4172.179,4181.026,4189.615,4201.795,4201.41,4202.9490000000005,4202.0509999999995,4181.667,4203.846,4209.615,0,0
631,110,0,2375,4173.846,4156.667,4185.513,4163.718,4168.59,4183.462,4184.487,4198.718,4193.333,4189.231,4190.255999999999,4173.974,4198.333,4198.718,0,0
632,111,0,3198,4169.615,4153.462,4184.615,4158.718,4171.923,4182.436,4181.538,4191.923,4187.179,4188.59,4185.513,4173.59,4201.41,4196.538,0,0
633,112,0,2956,4170.769,4154.359,4186.41,4163.59,4175.385,4183.462,4185.897,4198.718,4196.282,4197.436,4192.0509999999995,4176.795,4204.872,4201.538,0,0
634,113,0,1808,4170.897,4158.974,4186.282,4169.744000000001,4175.255999999999,4185.513,4190.769,4209.615,4197.9490000000005,4194.744000000001,4192.436,4177.9490000000005,4200.513,4201.41,0,0
635,114,0,2375,4168.077,4162.308,4184.359,4170.255999999999,4180.641,4185.385,4188.846,4201.538,4186.154,4184.359,4186.154,4177.9490000000005,4196.667,4197.692,0,0
636,115,0,3198,4169.103,4160.0,4187.436,4169.487,4182.436,4185.769,4192.0509999999995,4197.564,4185.128,4186.026,4183.718,4177.0509999999995,4197.0509999999995,4193.974,0,0
637,116,0,2956,4169.744000000001,4154.744000000001,4184.615,4164.872,4174.359,4183.462,4195.769,4204.487,4190.897,4187.0509999999995,4184.103,4174.615,4197.564,4192.564,0,0
638,117,0,1808,4167.564,4153.462,4178.205,4162.821,4173.205,4183.974,4188.718,4199.615,4190.255999999999,4183.077,4184.615,4173.59,4198.462,4197.436,0,0
639,118,0,2375,4169.231,4155.128,4178.077,4163.718,4176.538,4185.641,4181.538,4184.744000000001,4186.667,4190.769,4184.872,4175.0,4202.179,4198.846,0,0
640,119,0,3198,4172.821,4157.692,4182.692,4158.718,4174.615,4186.282,4186.538,4187.692,4188.718,4197.436,4185.385,4175.0,4204.487,4200.0,0,0
641,120,0,2956,4174.231,4158.974,4183.718,4154.615,4173.718,4183.462,4191.538,4208.205,4195.897,4191.41,4187.0509999999995,4176.41,4201.41,4201.667,0,0
642,121,0,1808,4170.769,4153.718,4181.282,4154.359,4167.436,4175.0,4183.974,4202.9490000000005,4191.282,4184.231,4180.641,4173.462,4197.0509999999995,4193.333,0,0
643,122,0,2375,4167.436,4151.795,4177.308,4152.179,4159.615,4175.128,4180.128,4188.205,4184.744000000001,4186.154,4175.128,4169.744000000001,4198.205,4185.128,0,0
644,123,0,3198,4167.9490000000005,4155.385,4178.974,4153.077,4167.821,4179.615,4189.231,4199.615,4191.538,4190.0,4178.333,4170.0,4199.103,4187.692,0,0
645,124,0,2956,4168.974,4154.231,4183.846,4155.128,4169.487,4175.255999999999,4190.513,4201.538,4188.846,4187.308,4174.744000000001,4170.128,4193.718,4184.744000000001,0,0
646,125,0,1808,4167.821,4150.255999999999,4183.333,4152.821,4155.897,4167.564,4175.769,4183.205,4173.462,4181.154,4168.718,4167.821,4191.282,4180.128,0,0
647,126,0,2375,4166.923,4148.974,4181.667,4151.923,4157.308,4168.59,4164.103,4174.487,4172.308,4177.0509999999995,4170.255999999999,4164.359,4198.205,4184.615,0,0
648,127,0,51,4168.846,4151.026,4179.359,4153.333,4170.769,4180.128,4173.333,4183.718,4184.487,4181.282,4172.692,4165.897,4198.846,4186.667,0,0
649,0,0,2040,4173.718,4156.026,4179.872,4160.385,4175.255999999999,4184.103,4190.641,4193.205,4187.9490000000005,4187.308,4177.0509999999995,4167.821,4190.255999999999,4186.538,0,0
650,1,0,2669,4173.462,4156.282,4181.923,4164.231,4171.41,4173.205,4185.641,4192.308,4183.077,4182.179,4183.846,4168.846,4185.513,4189.103,0,0
651,2,0,3096,4167.179,4151.667,4180.769,4155.769,4171.538,4170.897,4171.923,4185.0,4179.615,4174.872,4181.667,4168.718,4187.564,4188.974,0,0
652,3,0,2950,4172.821,4162.821,4182.564,4158.846,4179.103,4186.41,4189.231,4196.026,4189.487,4181.923,4182.308,4169.359,4193.205,4194.744000000001,0,0
653,4,0,3581,4186.282,4182.436,4186.026,4175.641,4187.308,4190.513,4209.103,4219.487,4200.255999999999,4191.026,4190.385,4173.846,4197.308,4204.615,0,0
654,5,0,3063,4187.179,4182.308,4187.821,4176.538,4190.255999999999,4185.0,4193.077,4205.128,4192.692,4186.795,4188.077,4177.436,4199.103,4203.205,0,0
655,6,0,3252,4184.231,4173.718,4186.282,4169.231,4182.308,4185.385,4176.538,4170.641,4182.692,4182.308,4184.487,4174.103,4199.872,4200.128,0,0
656,7,0,3326,4183.205,4168.077,4186.154,4172.9490000000005,4173.846,4182.9490000000005,4185.128,4173.333,4182.308,4182.692,4185.641,4171.538,4194.872,4200.255999999999,0,0
657,8,0,2986,4174.103,4155.128,4183.59,4168.205,4175.0,4183.974,4190.385,4190.769,4176.795,4171.41,4176.538,4172.692,4184.872,4190.385,0,0
658,9,0,3564,4165.385,4149.103,4181.282,4153.59,4175.385,4184.359,4180.385,4177.179,4167.0509999999995,4158.205,4164.231,4166.923,4179.872,4180.0,0,0
659,10,0,2374,4170.255999999999,4161.795,4185.128,4153.974,4168.462,4173.462,4172.308,4162.564,4168.333,4159.744000000001,4167.436,4164.487,4180.897,4185.128,0,0
660,11,0,3200,4178.077,4166.667,4189.231,4165.255999999999,4168.718,4171.282,4184.615,4181.667,4177.564,4167.308,4177.9490000000005,4173.846,4178.59,4193.718,0,0
661,12,0,2956,4181.41,4160.641,4190.385,4169.872,4180.128,4183.333,4203.205,4193.077,4184.103,4175.897,4184.615,4177.436,4181.154,4198.077,0,0
662,13,0,1811,4188.462,4165.769,4193.59,4174.487,4186.026,4187.436,4195.255999999999,4185.255999999999,4186.026,4184.615,4192.564,4176.538,4186.795,4206.538,0,0
663,14,0,2374,4198.077,4174.487,4199.872,4185.128,4187.692,4185.128,4181.923,4197.0509999999995,4188.846,4191.154,4200.897,4181.538,4188.077,4216.026,0,0
664,15,0,3200,4198.333,4172.564,4200.769,4188.462,4189.359,4189.744000000001,4196.41,4210.385,4191.667,4193.333,4199.103,4184.487,4190.385,4212.0509999999995,0,0
665,16,0,0,4188.077,4168.333,4194.487,4183.59,4186.923,4190.128,4203.59,4190.769,4186.282,4190.641,4188.333,4178.333,4192.821,4203.077,0,0
666,17,0,0,4184.359,4170.385,4192.179,4183.333,4186.667,4188.718,4188.462,4183.077,4183.974,4188.205,4186.026,4177.436,4188.846,4208.846,0,0
667,18,0,0,4189.231,4167.308,4191.923,4185.897,4190.513,4192.436,4188.846,4199.615,4188.462,4189.615,4192.564,4180.769,4185.641,4214.487,0,0
668,19,0,0,4188.462,4162.9490000000005,4194.359,4184.744000000001,4190.0,4189.359,4201.026,4193.974,4187.179,4190.255999999999,4192.821,4177.179,4186.667,4203.718,0,0
669,20,0,0,4185.641,4168.718,4195.769,4185.0,4188.59,4183.974,4199.231,4177.821,4183.077,4189.487,4188.205,4174.744000000001,4186.41,4196.154,0,0
670,21,0,0,4187.179,4175.0,4196.154,4188.333,4196.923,4186.154,4197.436,4184.231,4186.154,4192.564,4188.077,4173.846,4188.333,4201.154,0,0
671,22,0,0,4187.821,4171.026,4195.0,4187.308,4198.205,4189.231,4202.179,4191.154,4190.255999999999,4195.513,4189.615,4170.897,4190.128,4201.667,0,0
672,23,0,0,4185.513,4166.795,4192.692,4182.692,4188.205,4190.255999999999,4200.769,4186.154,4188.59,4195.255999999999,4187.308,4168.718,4185.769,4197.692,0,0
673,24,0,0,4186.923,4171.026,4193.846,4185.255999999999,4188.077,4189.231,4195.641,4186.41,4189.487,4199.359,4188.333,4174.103,4189.744000000001,4200.385,0,0
674,25,0,0,4188.333,4173.077,4193.205,4187.0509999999995,4191.282,4184.487,4188.846,4188.205,4190.0,4201.154,4189.615,4175.641,4196.154,4201.026,0,0
675,26,0,0,4187.564,4171.154,4192.436,4183.333,4186.026,4183.718,4184.487,4187.9490000000005,4185.513,4193.718,4187.308,4168.205,4191.795,4200.385,0,0
676,27,0,0,4189.872,4172.179,4192.9490000000005,4185.769,4179.231,4183.974,4184.487,4191.923,4185.641,4187.436,4186.41,4167.9490000000005,4187.179,4200.769,0,0
677,28,0,0,4183.59,4166.795,4189.103,4183.205,4172.9490000000005,4175.128,4173.59,4186.026,4182.179,4181.41,4185.769,4171.282,4186.41,4192.0509999999995,0,0
678,29,0,0,4171.538,4154.359,4184.615,4170.513,4170.128,4168.846,4163.077,4173.462,4171.026,4174.103,4182.179,4165.641,4182.308,4182.436,0,0
679,30,0,0,4174.359,4155.255999999999,4187.436,4172.692,4170.513,4169.744000000001,4172.0509999999995,4171.923,4172.179,4176.154,4179.487,4160.897,4182.692,4185.0,0,0
680,31,0,0,4186.667,4167.0509999999995,4192.0509999999995,4183.846,4171.154,4169.359,4183.974,4183.59,4187.179,4187.179,4186.154,4167.821,4189.103,4189.231,0,0
681,32,0,0,4188.59,4164.872,4193.333,4178.077,4175.641,4170.385,4185.769,4201.026,4192.436,4193.462,4193.077,4171.154,4187.9490000000005,4187.0509999999995,0,0
682,33,0,0,4179.103,4154.744000000001,4190.255999999999,4167.436,4178.077,4170.513,4181.538,4198.846,4185.255999999999,4190.128,4189.872,4167.179,4185.769,4186.026,0,0
683,34,0,0,4175.897,4156.026,4186.026,4170.255999999999,4175.0,4169.615,4178.846,4181.154,4182.9490000000005,4185.769,4184.231,4167.179,4188.077,4185.769,0,0
684,35,0,0,4182.564,4158.333,4190.0,4174.103,4177.436,4175.641,4182.692,4183.077,4186.282,4184.872,4185.385,4170.128,4186.923,4189.615,0,0
685,36,0,0,4185.641,4158.077,4191.923,4171.538,4184.487,4182.9490000000005,4181.923,4192.692,4186.923,4186.41,4188.974,4170.128,4184.744000000001,4198.846,0,0
686,37,0,0,4183.718,4163.077,4185.0,4171.41,4188.205,4186.667,4185.897,4188.333,4186.41,4186.667,4189.872,4168.846,4186.667,4198.462,0,0
687,38,0,0,4184.744000000001,4163.333,4185.641,4174.872,4188.077,4187.821,4200.0,4185.513,4187.308,4186.795,4190.641,4168.718,4188.333,4191.667,0,0
688,39,0,0,4180.128,4155.0,4193.462,4173.333,4184.103,4184.231,4193.718,4182.308,4180.641,4183.077,4188.205,4168.846,4185.513,4185.128,0,0
689,40,0,0,4166.923,4153.59,4187.692,4167.9490000000005,4182.692,4182.308,4169.487,4170.128,4170.0,4176.41,4183.59,4164.744000000001,4184.487,4173.59,0,0
690,41,0,0,4165.641,4164.487,4181.41,4167.9490000000005,4186.41,4183.974,4165.513,4177.821,4176.41,4179.744000000001,4183.846,4160.255999999999,4185.641,4169.744000000001,0,0
691,42,0,0,4172.564,4170.128,4185.513,4172.564,4185.513,4183.462,4172.436,4190.255999999999,4184.487,4185.385,4185.897,4162.692,4188.205,4181.026,0,0
692,43,0,0,4177.0509999999995,4167.564,4188.205,4174.615,4182.692,4183.077,4170.0,4182.564,4176.795,4184.744000000001,4185.641,4168.718,4192.821,4185.897,0,0
693,44,0,0,4183.077,4169.359,4186.923,4174.103,4185.0,4183.974,4177.0509999999995,4184.231,4176.41,4188.333,4184.231,4167.436,4193.462,4183.462,0,0
694,45,0,0,4180.641,4171.923,4186.923,4172.692,4182.179,4177.179,4183.077,4188.205,4181.154,4186.667,4183.718,4163.205,4189.103,4185.641,0,0
695,46,0,0,4166.923,4170.0,4182.821,4171.923,4176.667,4171.41,4174.231,4176.923,4174.359,4172.308,4182.564,4162.821,4185.255999999999,4181.923,0,0
696,47,0,0,4168.205,4165.385,4179.359,4172.0509999999995,4177.564,4177.179,4170.0,4169.103,4168.077,4171.41,4184.103,4165.385,4185.0,4176.41,0,0
697,48,0,0,4182.179,4162.821,4184.359,4171.923,4176.154,4182.821,4176.667,4164.744000000001,4167.564,4184.872,4187.179,4167.692,4189.231,4184.744000000001,0,0
698,49,0,0,4185.0,4171.026,4186.795,4175.769,4173.333,4182.308,4184.615,4165.0,4171.538,4187.436,4188.462,4168.462,4193.846,4195.385,0,0
699,50,0,0,4182.692,4180.641,4183.846,4182.436,4178.333,4181.923,4187.308,4181.154,4181.795,4184.872,4195.0,4170.385,4193.205,4198.077,0,0
700,51,0,0,4186.667,4178.077,4185.513,4185.128,4180.641,4182.436,4185.128,4185.255999999999,4181.282,4186.795,4200.385,4170.641,4192.9490000000005,4199.615,0,0
701,52,0,0,4188.205,4172.179,4187.821,4186.282,4178.718,4181.795,4181.667,4171.538,4172.179,4185.769,4193.462,4170.0,4197.821,4201.41,0,0
702,53,0,0,4185.897,4171.538,4187.9490000000005,4184.231,4184.744000000001,4182.179,4181.282,4172.692,4178.077,4183.974,4185.641,4169.615,4196.667,4199.487,0,0
703,54,0,0,4187.692,4175.769,4189.744000000001,4182.308,4189.487,4183.333,4186.538,4188.59,4187.436,4186.923,4189.615,4170.255999999999,4193.718,4198.59,0,0
704,55,0,0,4190.385,4184.872,4194.359,4186.795,4186.667,4184.103,4196.026,4196.667,4186.795,4188.846,4199.487,4171.282,4196.667,4200.641,0,0
705,56,0,0,4187.692,4184.487,4194.744000000001,4187.692,4187.564,4185.255999999999,4196.667,4190.255999999999,4184.744000000001,4187.821,4201.41,4171.538,4197.9490000000005,4199.487,0,0
706,57,0,0,4175.897,4168.205,4186.923,4176.667,4181.667,4183.077,4179.744000000001,4180.513,4180.897,4185.641,4190.769,4166.026,4192.0509999999995,4185.255999999999,0,0
707,58,0,0,4166.41,4162.9490000000005,4178.59,4169.231,4173.974,4181.538,4172.821,4185.513,4176.538,4182.564,4182.692,4155.641,4186.795,4169.744000000001,0,0
708,59,0,0,4166.282,4169.359,4177.0509999999995,4171.026,4177.0509999999995,4184.487,4183.974,4184.103,4172.564,4174.615,4183.846,4152.0509999999995,4187.308,4168.077,0,0
709,60,0,0,4166.154,4167.308,4174.744000000001,4171.026,4178.718,4184.487,4188.974,4163.205,4166.538,4165.769,4181.667,4157.564,4188.718,4171.154,0,0
710,61,0,0,4165.255999999999,4165.897,4171.538,4169.359,4177.692,4181.282,4180.0,4163.59,4167.308,4168.974,4179.487,4161.026,4187.9490000000005,4171.154,0,0
711,62,0,0,4167.9490000000005,4167.821,4177.308,4169.744000000001,4180.897,4181.923,4173.205,4184.615,4172.179,4175.0,4182.0509999999995,4161.538,4186.795,4173.462,0,0
712,63,0,0,4167.692,4167.821,4179.872,4170.255999999999,4181.923,4183.846,4178.333,4184.231,4170.897,4172.436,4182.308,4160.513,4186.667,4178.333,0,0
713,64,0,2036,4165.0,4169.487,4176.41,4171.026,4182.9490000000005,4185.385,4187.436,4182.179,4172.308,4175.385,4180.769,4160.897,4185.641,4180.255999999999,0,0
714,65,0,2669,4172.9490000000005,4173.462,4177.692,4170.897,4187.564,4188.846,4188.846,4190.385,4175.385,4185.769,4183.846,4165.385,4184.103,4182.692,0,0
715,66,0,3096,4184.231,4178.205,4184.359,4175.0,4182.0509999999995,4183.718,4182.564,4185.0,4171.795,4185.897,4190.769,4172.9490000000005,4185.255999999999,4192.9490000000005,0,0
716,67,0,2950,4184.615,4180.641,4188.718,4182.436,4172.436,4170.897,4180.897,4182.564,4174.103,4181.41,4198.974,4181.026,4184.872,4201.667,0,0
717,68,0,3581,4186.538,4179.359,4189.744000000001,4184.615,4177.436,4173.333,4188.462,4190.255999999999,4179.615,4189.103,4201.026,4184.231,4183.333,4201.923,0,0
718,69,0,3063,4198.718,4180.769,4196.026,4186.795,4188.974,4190.128,4203.846,4200.0,4184.359,4201.538,4201.282,4184.103,4187.9490000000005,4208.205,0,0
719,70,0,3253,4205.128,4190.897,4202.9490000000005,4189.487,4191.282,4192.9490000000005,4211.923,4218.462,4194.615,4205.769,4211.154,4186.923,4190.897,4218.846,0,0
720,71,0,3315,4192.436,4185.641,4198.462,4185.513,4182.436,4182.308,4192.9490000000005,4210.897,4194.487,4201.538,4215.385,4186.795,4188.333,4209.872,0,0
721,72,0,2979,4187.564,4170.255999999999,4193.333,4182.308,4180.641,4185.385,4178.462,4181.41,4181.795,4198.333,4206.667,4181.795,4189.872,4195.897,0,0
722,73,0,3560,4197.0509999999995,4176.41,4200.255999999999,4187.308,4187.821,4190.513,4190.513,4186.026,4183.974,4201.282,4202.436,4180.897,4194.359,4202.9490000000005,0,0
723,74,0,2374,4195.0,4187.308,4199.487,4187.179,4181.667,4176.282,4187.564,4196.41,4189.744000000001,4201.795,4204.744000000001,4178.974,4192.308,4203.718,0,0
724,75,0,3200,4182.692,4180.641,4187.308,4180.641,4170.128,4164.872,4162.821,4172.692,4176.282,4199.744000000001,4200.897,4169.487,4187.692,4189.744000000001,0,0
725,76,0,2955,4182.179,4176.026,4185.0,4180.128,4175.769,4169.231,4162.9490000000005,4164.231,4170.0,4197.179,4197.179,4167.692,4187.821,4189.359,0,0
726,77,0,1806,4190.641,4191.154,4192.692,4186.282,4187.564,4173.333,4186.154,4186.667,4183.205,4198.846,4206.282,4177.9490000000005,4194.744000000001,4201.538,0,0
727,78,0,2374,4191.282,4199.103,4194.359,4189.487,4188.59,4175.0,4192.179,4196.667,4190.255999999999,4209.359,4218.077,4182.179,4200.641,4206.538,0,0
728,79,0,3200,4187.179,4189.615,4188.846,4185.641,4184.359,4176.026,4187.692,4200.0,4186.795,4214.615,4216.795,4180.897,4194.872,4203.59,0,0
729,80,0,2955,4186.41,4185.513,4186.41,4184.487,4184.103,4173.718,4191.41,4204.359,4185.513,4206.795,4207.821,4180.0,4186.154,4197.692,0,0
730,81,0,1806,4183.205,4187.308,4187.564,4184.103,4185.897,4176.795,4192.179,4201.795,4187.692,4200.385,4205.513,4175.769,4189.359,4190.513,0,0
731,82,0,2374,4168.846,4178.59,4182.179,4172.9490000000005,4180.769,4180.513,4185.513,4199.872,4181.667,4194.487,4199.615,4167.308,4186.026,4179.872,0,0
732,83,0,3200,4152.821,4163.59,4174.487,4161.795,4170.385,4176.282,4186.154,4196.154,4171.923,4179.487,4184.872,4159.872,4171.282,4167.692,0,0
733,84,0,2955,4149.615,4159.359,4173.59,4162.821,4166.667,4172.436,4181.923,4179.872,4169.487,4172.564,4179.231,4157.308,4170.128,4163.205,0,0
734,85,0,1806,4155.0,4166.026,4176.282,4168.846,4168.59,4170.0,4162.436,4159.231,4167.692,4180.897,4186.154,4158.974,4182.0509999999995,4166.154,0,0
735,86,0,2374,4162.692,4173.077,4178.846,4169.615,4168.846,4165.641,4157.692,4155.385,4159.744000000001,4185.513,4188.59,4163.718,4185.513,4170.385,0,0
736,87,0,3200,4166.667,4171.795,4180.385,4165.385,4167.692,4166.154,4165.513,4163.718,4154.487,4180.0,4185.897,4167.0509999999995,4182.0509999999995,4176.667,0,0
737,88,0,2955,4170.385,4171.923,4183.462,4169.487,4169.359,4172.9490000000005,4167.564,4174.615,4160.641,4178.333,4192.9490000000005,4173.077,4184.615,4182.692,0,0
738,89,0,1806,4181.795,4182.436,4186.923,4185.641,4177.9490000000005,4176.026,4177.308,4192.692,4175.513,4193.077,4201.538,4177.179,4188.718,4185.0,0,0
739,90,0,2374,4189.359,4190.0,4187.9490000000005,4189.103,4186.923,4172.692,4189.872,4206.538,4183.974,4203.59,4201.667,4172.179,4188.846,4187.436,0,0
740,91,0,3200,4180.769,4186.026,4187.0509999999995,4175.385,4187.179,4171.154,4187.0509999999995,4199.615,4177.9490000000005,4192.821,4200.385,4167.436,4186.41,4185.128,0,0
741,92,0,2955,4169.359,4175.0,4184.872,4168.974,4180.513,4173.718,4177.0509999999995,4187.564,4170.255999999999,4183.846,4198.462,4168.974,4182.692,4173.205,0,0
742,93,0,1806,4168.974,4168.077,4178.974,4170.769,4179.615,4173.205,4172.692,4187.564,4171.667,4191.795,4191.41,4168.718,4183.59,4168.077,0,0
743,94,0,2374,4174.231,4175.255999999999,4179.103,4172.821,4181.923,4170.128,4170.0,4187.0509999999995,4175.128,4197.821,4187.9490000000005,4164.615,4186.667,4179.615,0,0
744,95,0,3200,4175.513,4173.077,4184.103,4172.821,4175.128,4169.872,4170.128,4189.487,4180.0,4198.718,4191.41,4166.538,4187.179,4184.744000000001,0,0
745,96,0,2955,4168.333,4155.641,4183.846,4167.436,4165.897,4170.128,4177.692,4199.615,4182.436,4198.462,4189.615,4171.154,4185.385,4175.769,0,0
746,97,0,1806,4166.154,4165.513,4181.026,4168.974,4170.128,4172.564,4192.179,4200.0,4175.128,4190.897,4187.179,4167.692,4184.487,4169.359,0,0
747,98,0,2374,4172.179,4197.308,4180.641,4182.9490000000005,4181.282,4173.846,4194.615,4191.41,4171.667,4186.154,4186.923,4160.385,4185.641,4165.0,0,0
748,99,0,3200,4169.872,4206.282,4178.974,4188.462,4184.231,4171.026,4182.308,4198.205,4177.821,4186.667,4178.333,4159.231,4181.667,4151.026,0,0
749,100,0,2955,4157.308,4201.154,4172.179,4183.205,4182.821,4169.615,4173.846,4192.179,4167.821,4173.205,4157.436,4154.615,4172.821,4129.103,0,0
750,101,0,1806,4143.59,4201.923,4161.923,4180.385,4177.564,4163.205,4157.0509999999995,4158.59,4148.974,4153.718,4139.744000000001,4142.179,4169.359,4111.923,0,0
751,102,0,2374,4137.9490000000005,4201.795,4164.103,4178.333,4170.897,4153.59,4136.923,4152.564,4151.795,4153.333,4138.333,4141.41,4172.179,4107.692,0,0
752,103,0,3200,4136.026,4199.744000000001,4169.103,4171.026,4169.231,4151.154,4137.564,4162.0509999999995,4156.923,4157.436,4142.821,4144.359,4170.513,4107.179,0,0
753,104,0,2955,4134.103,4198.846,4158.462,4167.0509999999995,4172.564,4154.744000000001,4148.077,4141.795,4142.0509999999995,4146.795,4136.923,4132.308,4167.9490000000005,4102.436,0,0
754,105,0,1806,4142.692,4200.769,4179.615,4178.846,4175.385,4160.769,4147.308,4123.59,4130.769,4138.205,4131.538,4151.282,4172.564,4109.615,0,0
755,106,0,2374,4146.923,4197.692,4196.154,4181.795,4178.59,4164.744000000001,4155.385,4151.282,4141.667,4143.974,4143.333,4171.795,4171.667,4121.282,0,0
756,107,0,3200,4145.897,4195.255999999999,4177.308,4173.462,4184.872,4170.641,4182.179,4186.795,4156.667,4153.718,4153.718,4157.308,4167.821,4122.821,0,0
757,108,0,2955,4147.179,4197.0509999999995,4162.9490000000005,4174.103,4184.615,4172.308,4181.538,4174.487,4154.487,4156.154,4147.436,4140.513,4170.385,4124.744000000001,0,0
758,109,0,1806,4142.9490000000005,4191.667,4167.9490000000005,4174.103,4173.974,4160.641,4151.795,4140.897,4138.59,4144.615,4138.077,4143.846,4167.436,4118.077,0,0
759,110,0,2374,4133.205,4181.923,4163.333,4164.744000000001,4169.359,4154.487,4150.769,4150.641,4136.41,4134.231,4138.59,4147.308,4160.255999999999,4107.436,0,0
760,111,0,3200,4134.872,4184.231,4158.077,4164.359,4175.0,4165.769,4172.436,4175.128,4150.128,4145.0,4145.769,4145.385,4166.282,4116.667,0,0
761,112,0,2955,4140.385,4189.103,4164.231,4170.255999999999,4175.897,4171.538,4169.103,4158.205,4150.769,4155.0,4147.308,4146.923,4173.974,4121.923,0,0
762,113,0,1806,4137.308,4186.667,4158.974,4168.333,4175.769,4167.179,4163.846,4151.41,4148.59,4152.308,4146.795,4142.436,4172.308,4112.9490000000005,0,0
763,114,0,2374,4140.897,4192.9490000000005,4160.641,4170.0,4180.769,4167.821,4174.744000000001,4171.923,4157.436,4155.769,4150.385,4147.9490000000005,4176.282,4118.59,0,0
764,115,0,3200,4141.026,4197.436,4157.308,4171.795,4183.462,4164.487,4169.487,4166.923,4156.795,4159.487,4154.231,4145.641,4180.385,4128.077,0,0
765,116,0,2955,4140.641,4194.615,4155.641,4172.821,4185.641,4166.667,4163.333,4157.436,4149.359,4154.487,4153.59,4144.615,4180.0,4128.077,0,0
766,117,0,1806,4151.923,4198.077,4164.359,4178.333,4190.769,4178.077,4177.692,4178.974,4162.821,4160.769,4159.744000000001,4155.128,4181.538,4139.359,0,0
767,118,0,2374,4153.846,4197.308,4161.026,4176.538,4191.154,4177.821,4183.333,4181.923,4169.487,4157.9490000000005,4160.513,4155.0,4178.846,4142.564,0,0
768,119,0,3200,4131.154,4180.385,4144.103,4162.0509999999995,4180.385,4173.077,4168.333,4148.077,4140.513,4126.667,4136.538,4138.846,4163.974,4115.255999999999,0,0
769,120,0,2955,4117.436,4173.205,4139.359,4152.821,4172.179,4172.0509999999995,4157.308,4133.59,4124.231,4111.538,4123.333,4131.667,4156.282,4100.513,0,0
770,121,0,1806,4125.255999999999,4180.897,4146.154,4153.59,4172.564,4165.897,4151.282,4140.641,4133.333,4119.615,4132.308,4137.179,4162.564,4110.641,0,0
771,122,0,2374,4140.897,4186.795,4155.513,4165.255999999999,4183.333,4167.821,4160.255999999999,4150.513,4138.846,4125.769,4143.205,4147.0509999999995,4169.872,4127.179,0,0
772,123,0,3200,4162.179,4200.385,4169.615,4185.128,4199.487,4177.9490000000005,4191.667,4177.436,4153.974,4143.974,4159.744000000001,4161.795,4180.897,4148.59,0,0
773,124,0,2955,4170.769,4211.667,4171.923,4188.59,4200.128,4170.385,4197.564,4194.231,4169.231,4161.538,4169.744000000001,4166.538,4190.769,4157.564,0,0
