,COUNTER, INTERPOLATED, RAW_CQ, AF3, F7, F3, FC5, T7, P7, O1, O2, P8, T8, FC6, F4, F8, AF4, MARKER_HARDWARE, MARKER
0,52,0,0,4159.487,4175.255999999999,4178.333,4175.897,4188.333,4175.385,4187.436,4181.538,4184.872,4182.179,4184.359,4168.462,4166.026,4173.59,0,0
1,53,0,0,4154.872,4170.897,4180.385,4181.026,4184.744000000001,4187.436,4190.128,4183.59,4185.897,4191.923,4188.205,4169.615,4170.255999999999,4177.308,0,0
2,54,0,0,4155.769,4172.692,4179.744000000001,4182.436,4186.026,4184.359,4190.641,4172.179,4183.205,4188.59,4180.385,4169.615,4167.308,4163.205,0,0
3,55,0,0,4153.462,4170.0,4173.974,4175.513,4182.0509999999995,4173.077,4185.641,4166.667,4183.333,4175.513,4169.615,4161.667,4160.255999999999,4155.255999999999,0,0
4,56,0,0,4140.385,4158.205,4166.667,4167.821,4167.821,4166.154,4180.641,4168.718,4184.487,4163.333,4153.846,4157.179,4163.462,4148.077,0,0
5,57,0,0,4139.872,4161.282,4165.897,4168.846,4173.59,4179.615,4188.59,4169.359,4185.0,4166.923,4156.026,4163.077,4171.923,4145.513,0,0
6,58,0,0,4156.026,4173.333,4171.282,4176.154,4192.692,4193.59,4204.872,4178.59,4185.128,4185.0,4185.513,4168.077,4175.255999999999,4161.41,0,0
7,59,0,0,4158.974,4173.718,4171.667,4173.718,4188.462,4183.205,4208.59,4184.744000000001,4183.718,4184.103,4191.538,4162.692,4173.077,4169.744000000001,0,0
8,60,0,0,4145.0,4163.333,4164.744000000001,4169.103,4177.821,4173.718,4197.9490000000005,4174.744000000001,4182.179,4167.308,4171.923,4160.255999999999,4167.692,4149.359,0,0
9,61,0,0,4142.436,4157.0509999999995,4165.897,4172.692,4185.769,4181.538,4192.9490000000005,4171.282,4182.821,4168.077,4165.128,4158.846,4167.692,4137.179,0,0
10,62,0,0,4151.026,4156.154,4169.487,4165.641,4186.282,4186.282,4196.41,4180.0,4183.846,4176.026,4171.538,4158.846,4171.667,4148.59,0,0
11,63,0,0,4153.333,4155.255999999999,4169.359,4157.436,4176.923,4184.744000000001,4201.026,4181.026,4183.974,4174.231,4177.308,4164.359,4169.615,4154.872,0,0
12,64,0,2666,4148.077,4155.385,4173.462,4161.026,4173.59,4182.0509999999995,4202.0509999999995,4180.128,4185.897,4173.077,4177.436,4164.103,4164.103,4154.487,0,0
13,65,0,2913,4141.538,4151.41,4171.026,4161.026,4171.026,4176.667,4201.026,4182.179,4181.154,4169.487,4164.872,4154.487,4162.308,4151.923,0,0
14,66,0,3093,4134.359,4142.179,4156.538,4152.692,4166.538,4174.744000000001,4197.564,4175.641,4171.667,4154.615,4149.872,4146.026,4157.9490000000005,4133.205,0,0
15,67,0,3140,4132.692,4141.026,4154.487,4149.359,4167.564,4181.282,4198.718,4172.692,4173.718,4146.538,4149.359,4153.205,4148.59,4118.974,0,0
16,68,0,3548,4137.564,4152.179,4171.538,4150.769,4171.41,4188.974,4206.795,4183.59,4183.718,4157.0509999999995,4156.667,4167.564,4152.692,4138.205,0,0
17,69,0,2213,4137.692,4156.154,4181.923,4157.692,4173.718,4184.487,4207.692,4185.255999999999,4183.462,4169.103,4161.923,4170.513,4169.359,4155.769,0,0
18,70,0,2635,4140.513,4156.538,4178.462,4168.077,4182.0509999999995,4176.282,4202.821,4172.692,4180.385,4171.154,4167.9490000000005,4164.359,4168.077,4147.308,0,0
19,71,0,1807,4152.308,4165.769,4178.462,4170.385,4183.077,4175.385,4199.487,4170.255999999999,4184.359,4177.0509999999995,4177.436,4166.282,4156.41,4149.744000000001,0,0
20,72,0,1161,4157.9490000000005,4168.718,4182.564,4166.41,4169.872,4175.769,4194.872,4170.769,4179.615,4175.0,4182.308,4171.41,4158.205,4166.667,0,0
21,73,0,3528,4157.564,4166.282,4184.872,4163.59,4167.436,4176.026,4194.615,4167.564,4172.564,4165.641,4180.897,4171.538,4165.513,4169.103,0,0
22,74,0,3207,4169.872,4174.103,4189.103,4173.59,4183.59,4184.615,4201.923,4177.179,4181.41,4182.179,4186.282,4178.846,4174.487,4170.385,0,0
23,75,0,3395,4174.231,4177.692,4192.0509999999995,4185.255999999999,4191.667,4190.769,4204.744000000001,4185.513,4191.41,4198.718,4185.255999999999,4181.154,4181.282,4174.744000000001,0,0
24,76,0,3143,4156.538,4169.359,4184.103,4179.103,4184.744000000001,4180.641,4198.077,4173.077,4180.513,4181.026,4167.692,4165.0,4169.487,4160.641,0,0
25,77,0,2288,4155.0,4171.41,4176.41,4174.359,4184.103,4176.282,4196.795,4166.667,4173.077,4170.769,4170.255999999999,4161.026,4160.0,4152.0509999999995,0,0
26,78,0,3207,4167.821,4184.615,4183.077,4177.9490000000005,4189.103,4182.179,4200.769,4178.59,4183.077,4177.9490000000005,4186.282,4175.0,4172.9490000000005,4162.0509999999995,0,0
27,79,0,3395,4162.821,4184.231,4187.436,4172.9490000000005,4187.308,4184.615,4198.846,4179.872,4185.513,4172.308,4175.897,4177.9490000000005,4180.769,4167.692,0,0
28,80,0,3143,4152.9490000000005,4172.564,4179.872,4168.205,4183.205,4185.897,4189.103,4172.0509999999995,4174.359,4170.128,4160.385,4166.154,4171.923,4163.205,0,0
29,81,0,2288,4153.205,4167.308,4173.59,4171.154,4185.385,4180.513,4186.154,4171.667,4169.615,4174.487,4166.41,4158.462,4166.154,4158.59,0,0
30,82,0,3207,4152.308,4170.641,4169.615,4170.255999999999,4181.41,4172.179,4192.179,4172.564,4177.0509999999995,4163.333,4170.769,4156.41,4167.821,4155.385,0,0
31,83,0,3395,4160.0,4175.641,4171.154,4173.205,4176.154,4176.026,4197.692,4174.231,4183.333,4166.667,4169.744000000001,4161.795,4176.667,4162.436,0,0
32,84,0,3143,4168.462,4170.255999999999,4180.513,4174.872,4180.0,4187.308,4202.9490000000005,4182.0509999999995,4186.923,4188.077,4174.872,4168.718,4186.41,4171.154,0,0
33,85,0,2288,4162.692,4166.667,4180.0,4167.308,4188.333,4187.179,4205.769,4188.205,4183.59,4189.744000000001,4176.667,4163.462,4188.077,4168.718,0,0
34,86,0,3207,4161.026,4180.897,4169.872,4167.821,4193.59,4185.128,4202.821,4180.769,4174.615,4175.385,4174.487,4157.179,4183.974,4166.026,0,0
35,87,0,3395,4164.231,4190.641,4168.333,4173.846,4191.667,4185.128,4200.255999999999,4171.923,4175.641,4169.103,4170.641,4160.769,4183.077,4160.769,0,0
36,88,0,3143,4155.513,4183.718,4171.667,4171.538,4184.615,4180.513,4199.103,4178.718,4182.564,4170.513,4169.103,4162.308,4183.974,4152.308,0,0
37,89,0,2288,4148.846,4182.692,4170.513,4167.564,4185.255999999999,4185.897,4198.59,4187.308,4183.205,4171.923,4176.667,4160.255999999999,4184.615,4153.718,0,0
38,90,0,3207,4149.615,4182.179,4167.564,4166.923,4183.718,4188.59,4197.179,4176.795,4175.0,4163.59,4171.282,4158.205,4179.359,4151.154,0,0
39,91,0,3395,4144.872,4172.821,4164.103,4164.872,4170.513,4173.846,4194.872,4163.59,4169.231,4150.641,4150.513,4153.205,4168.205,4141.026,0,0
40,92,0,3143,4148.974,4179.615,4171.667,4166.282,4177.0509999999995,4171.667,4198.333,4173.59,4175.385,4166.41,4157.9490000000005,4158.077,4171.667,4154.103,0,0
41,93,0,2288,4160.0,4193.077,4186.923,4171.154,4191.026,4185.385,4205.128,4184.359,4185.385,4192.179,4186.41,4169.744000000001,4188.077,4170.128,0,0
42,94,0,3207,4157.564,4189.103,4188.077,4173.333,4186.282,4187.308,4204.359,4179.487,4185.897,4182.9490000000005,4180.128,4167.436,4190.769,4157.179,0,0
43,95,0,3395,4153.718,4185.513,4183.846,4170.385,4189.231,4184.231,4201.795,4176.026,4181.282,4167.9490000000005,4155.385,4162.179,4180.897,4148.718,0,0
44,96,0,3143,4158.846,4189.872,4188.205,4168.974,4197.821,4187.564,4205.897,4182.179,4181.795,4176.923,4159.231,4165.255999999999,4181.538,4159.744000000001,0,0
45,97,0,2288,4161.282,4188.718,4188.974,4170.513,4191.026,4185.897,4205.769,4186.41,4183.333,4172.436,4170.385,4165.513,4183.974,4159.487,0,0
46,98,0,3207,4157.821,4185.0,4178.974,4164.872,4183.077,4182.179,4200.128,4183.205,4180.769,4158.59,4168.974,4157.692,4176.154,4150.641,0,0
47,99,0,3395,4153.59,4181.154,4172.692,4160.769,4186.026,4181.41,4198.718,4180.641,4175.897,4164.487,4163.974,4154.231,4171.282,4152.179,0,0
48,100,0,3143,4145.769,4172.9490000000005,4170.255999999999,4165.255999999999,4184.359,4181.154,4197.9490000000005,4181.41,4170.0,4159.744000000001,4158.59,4155.128,4170.641,4151.795,0,0
49,101,0,2288,4144.231,4170.641,4172.0509999999995,4168.974,4180.897,4185.0,4199.231,4183.333,4171.538,4144.615,4156.41,4159.744000000001,4166.923,4151.154,0,0
50,102,0,3207,4159.231,4180.897,4177.821,4169.359,4182.9490000000005,4186.538,4205.769,4186.41,4179.487,4158.718,4159.487,4167.692,4173.077,4158.462,0,0
51,103,0,3395,4166.282,4186.923,4176.026,4172.308,4187.436,4183.077,4208.718,4187.564,4182.0509999999995,4173.077,4167.436,4170.0,4183.077,4158.974,0,0
52,104,0,3143,4161.026,4184.103,4170.128,4171.538,4187.9490000000005,4178.333,4199.487,4179.872,4176.026,4157.692,4173.974,4164.231,4177.0509999999995,4151.41,0,0
53,105,0,2288,4159.615,4182.436,4169.615,4168.974,4171.795,4175.769,4187.9490000000005,4169.103,4171.795,4153.462,4167.692,4160.641,4166.026,4152.308,0,0
54,106,0,3207,4161.282,4183.205,4170.128,4178.077,4160.641,4174.872,4184.615,4168.59,4172.821,4170.128,4159.359,4160.897,4165.769,4157.436,0,0
55,107,0,3395,4162.436,4185.769,4167.0509999999995,4185.897,4177.9490000000005,4170.641,4187.308,4172.564,4174.231,4170.513,4163.718,4160.897,4171.538,4156.154,0,0
56,108,0,3143,4163.846,4186.154,4167.821,4178.846,4193.974,4173.462,4189.615,4171.41,4178.846,4166.667,4167.821,4159.103,4175.897,4154.103,0,0
57,109,0,2288,4159.872,4182.9490000000005,4171.538,4168.718,4189.231,4183.333,4187.0509999999995,4169.103,4180.897,4169.103,4170.641,4158.077,4175.0,4153.205,0,0
58,110,0,3207,4156.795,4183.718,4172.564,4168.974,4186.154,4178.846,4184.231,4171.026,4176.538,4171.282,4176.667,4159.487,4171.795,4154.615,0,0
59,111,0,3395,4157.821,4182.0509999999995,4169.487,4170.385,4184.103,4166.154,4179.872,4169.744000000001,4173.077,4172.179,4163.205,4160.0,4171.154,4149.231,0,0
60,112,0,3143,4154.487,4175.769,4169.359,4167.9490000000005,4174.103,4168.333,4175.897,4165.255999999999,4172.0509999999995,4164.359,4149.872,4161.667,4166.923,4137.692,0,0
61,113,0,2288,4158.59,4179.744000000001,4181.026,4168.462,4168.846,4169.744000000001,4181.795,4168.077,4176.667,4160.513,4164.744000000001,4168.205,4165.255999999999,4145.255999999999,0,0
62,114,0,3207,4171.282,4188.974,4188.462,4168.974,4169.615,4168.333,4187.308,4174.487,4184.231,4174.744000000001,4177.179,4173.718,4174.231,4161.026,0,0
63,115,0,3395,4170.769,4188.718,4182.821,4172.692,4175.0,4180.513,4186.41,4173.59,4185.0,4174.615,4167.9490000000005,4170.255999999999,4176.538,4160.0,0,0
64,116,0,3143,4169.359,4188.462,4188.077,4182.692,4185.255999999999,4187.436,4192.436,4177.179,4181.026,4156.026,4165.385,4175.897,4172.436,4161.667,0,0
65,117,0,2288,4174.103,4191.795,4202.308,4188.333,4180.0,4181.026,4202.179,4186.154,4181.667,4163.718,4178.59,4187.821,4173.333,4175.897,0,0
66,118,0,3207,4171.795,4186.282,4200.385,4184.231,4164.872,4181.538,4199.487,4183.974,4182.179,4177.692,4184.231,4185.255999999999,4172.0509999999995,4172.9490000000005,0,0
67,119,0,3395,4170.769,4184.487,4191.538,4179.872,4175.255999999999,4186.41,4195.513,4179.231,4182.0509999999995,4167.308,4176.923,4182.821,4171.154,4164.487,0,0
68,120,0,3143,4186.41,4197.0509999999995,4197.436,4185.513,4200.0,4188.077,4203.462,4186.026,4185.0,4169.744000000001,4179.359,4193.462,4183.718,4181.538,0,0
69,121,0,2288,4192.821,4200.385,4200.769,4187.179,4200.128,4185.385,4207.692,4190.641,4185.513,4183.974,4194.103,4197.564,4193.462,4187.692,0,0
70,122,0,3207,4176.41,4186.795,4186.667,4175.255999999999,4177.0509999999995,4173.974,4195.641,4181.538,4184.487,4179.487,4183.974,4185.385,4187.0509999999995,4165.641,0,0
71,123,0,3395,4165.0,4180.513,4180.255999999999,4169.231,4166.667,4169.615,4187.179,4174.615,4182.692,4165.0,4167.179,4179.359,4179.872,4154.615,0,0
72,124,0,3143,4170.128,4185.385,4193.59,4180.641,4175.255999999999,4182.179,4193.077,4183.974,4181.41,4160.513,4180.513,4186.41,4182.692,4168.077,0,0
73,125,0,2288,4175.128,4186.026,4199.103,4188.333,4176.41,4182.564,4194.359,4190.0,4186.795,4166.026,4189.103,4191.41,4187.564,4176.538,0,0
74,126,0,3207,4170.128,4183.333,4186.282,4179.103,4168.077,4170.0,4186.282,4176.667,4186.026,4171.795,4170.385,4187.308,4183.718,4171.026,0,0
75,127,0,53,4159.231,4180.769,4179.744000000001,4167.9490000000005,4166.667,4168.205,4182.0509999999995,4162.692,4172.564,4164.103,4160.513,4179.615,4170.769,4168.333,0,0
76,0,0,2665,4154.872,4177.0509999999995,4184.103,4167.9490000000005,4171.538,4172.564,4185.385,4167.821,4169.103,4156.795,4177.179,4176.795,4165.769,4167.692,0,0
77,1,0,2906,4165.128,4180.128,4183.333,4176.154,4172.0509999999995,4177.308,4192.436,4179.487,4180.897,4165.255999999999,4185.0,4180.385,4175.641,4171.154,0,0
78,2,0,3090,4182.564,4193.718,4181.795,4187.564,4176.795,4185.769,4201.667,4184.231,4187.564,4185.128,4183.205,4185.385,4186.282,4191.923,0,0
79,3,0,3131,4189.615,4203.077,4190.769,4192.9490000000005,4191.41,4184.487,4204.103,4183.718,4184.615,4197.564,4191.923,4186.282,4185.513,4215.255999999999,0,0
80,4,0,3541,4187.436,4199.872,4200.385,4186.795,4198.59,4176.923,4196.282,4182.308,4183.718,4188.974,4199.872,4185.0,4180.385,4215.513,0,0
81,5,0,2213,4187.0509999999995,4198.974,4198.59,4182.0509999999995,4194.872,4181.154,4194.231,4182.564,4185.255999999999,4182.179,4198.333,4184.872,4188.077,4210.255999999999,0,0
82,6,0,2634,4184.744000000001,4197.179,4185.897,4184.487,4191.667,4186.538,4195.385,4180.641,4185.255999999999,4187.9490000000005,4190.897,4176.538,4194.103,4212.436,0,0
83,7,0,1808,4179.872,4189.615,4177.9490000000005,4182.9490000000005,4188.205,4184.487,4192.692,4179.103,4185.0,4189.103,4190.0,4169.487,4187.0509999999995,4208.974,0,0
84,8,0,1161,4181.667,4193.077,4184.615,4184.231,4187.564,4183.974,4197.0509999999995,4183.462,4185.769,4192.564,4192.179,4176.795,4194.231,4212.821,0,0
85,9,0,3531,4188.077,4203.333,4190.385,4188.974,4195.128,4183.974,4205.255999999999,4185.255999999999,4186.667,4197.9490000000005,4185.897,4182.692,4203.846,4221.667,0,0
86,10,0,3203,4187.179,4199.872,4183.462,4184.103,4199.744000000001,4185.513,4202.436,4183.333,4185.385,4193.718,4185.641,4176.923,4191.667,4216.538,0,0
87,11,0,3384,4184.359,4196.41,4183.718,4180.255999999999,4195.769,4187.821,4199.103,4185.385,4185.641,4193.205,4198.59,4178.462,4188.846,4213.974,0,0
88,12,0,3141,4185.897,4199.615,4194.744000000001,4185.255999999999,4196.667,4182.9490000000005,4204.487,4187.308,4187.821,4196.154,4198.462,4185.513,4203.59,4220.385,0,0
89,13,0,2286,4185.897,4198.59,4200.128,4187.179,4200.897,4177.9490000000005,4204.359,4186.154,4187.308,4187.564,4180.385,4185.128,4199.872,4216.282,0,0
90,14,0,3203,4188.205,4199.487,4198.462,4189.744000000001,4194.615,4181.41,4203.077,4188.077,4186.667,4183.974,4178.333,4186.667,4187.436,4210.385,0,0
91,15,0,3384,4188.333,4195.0,4193.205,4187.308,4183.974,4186.154,4201.41,4185.128,4186.41,4185.513,4183.718,4187.692,4185.385,4212.179,0,0
92,16,0,0,4184.872,4184.872,4188.077,4179.744000000001,4181.41,4182.821,4194.231,4178.205,4185.385,4181.026,4182.308,4183.846,4181.667,4214.231,0,0
93,17,0,0,4192.0509999999995,4195.0,4193.974,4190.0,4188.462,4177.0509999999995,4196.538,4182.0509999999995,4184.231,4190.897,4195.385,4185.255999999999,4181.154,4215.0,0,0
94,18,0,0,4201.667,4207.308,4201.41,4203.333,4191.538,4172.692,4204.487,4186.538,4184.103,4207.0509999999995,4202.821,4193.462,4185.513,4216.538,0,0
95,19,0,0,4202.179,4200.897,4198.846,4199.359,4186.538,4172.308,4200.897,4181.923,4186.282,4199.615,4193.205,4196.923,4184.615,4224.103,0,0
96,20,0,0,4207.308,4204.103,4206.026,4198.205,4191.923,4183.462,4198.333,4182.692,4187.821,4188.205,4199.872,4203.205,4187.0509999999995,4235.897,0,0
97,21,0,0,4215.641,4215.385,4215.128,4202.308,4201.923,4188.333,4205.128,4188.205,4187.9490000000005,4195.385,4212.436,4210.128,4194.103,4239.744000000001,0,0
98,22,0,0,4203.205,4202.564,4204.872,4193.462,4193.718,4176.538,4205.0,4187.179,4187.9490000000005,4205.255999999999,4200.255999999999,4200.897,4190.385,4229.359,0,0
99,23,0,0,4183.205,4181.667,4190.897,4177.179,4181.667,4171.538,4198.974,4184.359,4186.282,4203.718,4184.231,4186.026,4184.872,4216.41,0,0
100,24,0,0,4184.103,4184.487,4188.077,4171.667,4188.205,4182.9490000000005,4200.255999999999,4185.385,4185.385,4200.641,4183.974,4184.359,4191.923,4210.513,0,0
101,25,0,0,4183.59,4186.667,4185.897,4171.41,4184.103,4187.564,4205.128,4186.795,4186.41,4192.821,4176.538,4184.872,4191.026,4201.795,0,0
102,26,0,0,4165.769,4164.231,4182.436,4166.795,4166.41,4183.205,4205.255999999999,4184.872,4186.923,4178.333,4175.769,4182.179,4182.179,4191.154,0,0
103,27,0,0,4167.9490000000005,4157.308,4192.179,4174.872,4173.846,4186.154,4208.718,4187.9490000000005,4187.821,4186.026,4201.154,4191.282,4192.436,4205.513,0,0
104,28,0,0,4201.795,4179.231,4202.179,4193.846,4187.0509999999995,4186.154,4211.154,4195.128,4190.769,4210.385,4219.487,4205.513,4205.385,4238.462,0,0
105,29,0,0,4229.744000000001,4190.897,4204.487,4194.615,4182.308,4183.205,4208.333,4193.077,4195.385,4218.462,4220.128,4206.41,4198.974,4258.077,0,0
106,30,0,0,4241.154,4182.821,4208.59,4183.462,4180.385,4184.487,4210.128,4186.538,4193.846,4213.59,4221.538,4206.667,4196.026,4271.154,0,0
107,31,0,0,4258.846,4183.333,4216.667,4187.179,4183.077,4184.744000000001,4217.564,4190.769,4191.795,4215.513,4228.974,4213.718,4203.205,4286.667,0,0
108,32,0,0,4268.462,4183.205,4218.333,4185.513,4176.923,4185.128,4219.103,4193.974,4191.923,4217.0509999999995,4230.0,4214.872,4201.667,4288.59,0,0
109,33,0,0,4256.41,4171.795,4212.821,4171.795,4168.205,4185.641,4214.231,4185.513,4188.974,4206.282,4220.513,4208.077,4196.41,4279.231,0,0
110,34,0,0,4247.0509999999995,4165.769,4211.667,4176.282,4167.436,4184.359,4216.923,4189.103,4191.41,4198.333,4214.872,4206.923,4201.41,4277.179,0,0
111,35,0,0,4250.385,4164.487,4215.641,4187.9490000000005,4169.872,4184.231,4221.795,4200.128,4200.769,4204.103,4220.897,4210.897,4207.308,4277.179,0,0
112,36,0,0,4249.231,4163.462,4215.128,4184.744000000001,4166.41,4185.769,4216.923,4195.385,4198.462,4206.538,4221.538,4209.744000000001,4204.103,4268.205,0,0
113,37,0,0,4242.436,4162.0509999999995,4207.564,4181.538,4166.282,4186.154,4211.538,4187.9490000000005,4187.308,4200.641,4212.821,4206.795,4199.487,4261.026,0,0
114,38,0,0,4243.205,4164.103,4202.436,4184.744000000001,4179.487,4188.59,4214.615,4191.154,4192.821,4210.128,4218.846,4207.179,4201.795,4266.538,0,0
115,39,0,0,4240.128,4163.974,4198.462,4175.897,4177.9490000000005,4183.846,4214.744000000001,4194.615,4198.462,4217.436,4214.872,4205.385,4202.436,4267.308,0,0
116,40,0,0,4223.846,4155.769,4183.846,4160.0,4154.615,4171.923,4204.359,4187.564,4187.9490000000005,4194.615,4191.795,4193.077,4197.0509999999995,4251.538,0,0
117,41,0,0,4217.308,4148.077,4177.9490000000005,4159.103,4146.026,4177.0509999999995,4194.487,4180.641,4182.692,4182.692,4196.923,4185.641,4195.128,4238.974,0,0
118,42,0,0,4228.59,4152.308,4193.205,4169.359,4159.103,4190.255999999999,4198.846,4184.103,4187.179,4202.179,4221.41,4196.795,4199.231,4248.974,0,0
119,43,0,0,4234.615,4163.333,4203.205,4172.692,4167.9490000000005,4181.538,4211.795,4189.103,4188.462,4210.897,4224.359,4204.615,4203.718,4258.333,0,0
120,44,0,0,4230.641,4167.308,4199.615,4171.538,4166.795,4169.103,4213.462,4186.41,4185.769,4199.744000000001,4211.667,4196.667,4205.641,4249.744000000001,0,0
121,45,0,0,4231.667,4167.692,4194.615,4171.154,4166.923,4180.513,4208.974,4184.872,4186.923,4191.41,4198.462,4186.923,4202.9490000000005,4241.923,0,0
122,46,0,0,4231.667,4170.0,4188.333,4168.462,4174.615,4190.641,4210.769,4188.974,4187.0509999999995,4188.718,4190.769,4181.41,4196.923,4238.077,0,0
123,47,0,0,4230.513,4178.462,4188.974,4174.103,4185.128,4182.9490000000005,4213.077,4187.564,4188.205,4196.538,4201.538,4177.308,4197.179,4233.077,0,0
124,48,0,0,4238.718,4188.205,4197.564,4187.564,4190.0,4180.255999999999,4212.308,4188.718,4191.41,4206.923,4215.513,4181.154,4205.513,4239.359,0,0
125,49,0,0,4245.513,4189.359,4202.179,4189.103,4189.487,4186.667,4214.744000000001,4197.821,4191.667,4202.564,4217.179,4187.0509999999995,4207.0509999999995,4255.0,0,0
126,50,0,0,4246.282,4188.59,4205.0,4186.667,4185.641,4189.231,4216.795,4198.974,4191.538,4204.103,4214.615,4191.667,4204.103,4261.282,0,0
127,51,0,0,4248.333,4193.974,4211.538,4196.795,4183.59,4188.59,4211.41,4191.154,4191.538,4215.513,4210.513,4196.282,4206.282,4258.59,0,0
128,52,0,0,4250.513,4197.179,4213.333,4202.308,4189.103,4188.333,4208.846,4187.564,4188.462,4211.667,4207.0509999999995,4198.846,4206.154,4260.513,0,0
129,53,0,0,4249.615,4194.231,4214.231,4198.462,4190.0,4185.513,4215.513,4189.359,4185.897,4197.436,4213.077,4200.769,4202.692,4264.615,0,0
130,54,0,0,4251.154,4199.359,4217.821,4206.026,4186.41,4183.846,4216.026,4190.513,4187.692,4196.154,4219.103,4203.205,4203.205,4261.538,0,0
131,55,0,0,4250.385,4205.255999999999,4209.487,4204.359,4193.974,4185.641,4204.103,4187.179,4186.282,4200.769,4207.821,4201.795,4201.41,4247.564,0,0
132,56,0,0,4243.59,4200.385,4202.564,4184.103,4200.128,4187.436,4205.769,4188.846,4187.692,4200.255999999999,4197.179,4200.897,4200.128,4242.436,0,0
133,57,0,0,4242.179,4197.821,4207.564,4186.282,4196.026,4188.077,4217.9490000000005,4197.9490000000005,4198.077,4201.923,4207.692,4201.538,4206.538,4252.564,0,0
134,58,0,0,4247.436,4201.154,4204.359,4201.795,4197.821,4187.308,4212.308,4200.769,4199.872,4204.487,4220.0,4197.564,4208.333,4255.385,0,0
135,59,0,0,4245.897,4200.385,4195.897,4195.513,4201.538,4188.718,4202.9490000000005,4196.923,4192.308,4204.359,4221.026,4197.0509999999995,4202.692,4243.974,0,0
136,60,0,0,4237.0509999999995,4197.0509999999995,4197.692,4187.564,4190.897,4190.255999999999,4205.385,4196.41,4190.513,4202.821,4214.744000000001,4202.0509999999995,4203.59,4236.667,0,0
137,61,0,0,4232.0509999999995,4196.538,4199.615,4185.769,4180.385,4185.385,4206.154,4192.692,4188.846,4200.641,4206.923,4200.641,4205.641,4242.0509999999995,0,0
138,62,0,0,4233.59,4198.077,4196.667,4182.179,4188.59,4185.255999999999,4202.308,4185.641,4185.128,4196.795,4207.436,4195.897,4202.821,4248.077,0,0
139,63,0,0,4239.103,4202.9490000000005,4199.103,4194.487,4202.0509999999995,4192.692,4203.462,4188.59,4191.667,4200.513,4217.179,4198.205,4200.897,4247.0509999999995,0,0
140,64,0,2671,4248.333,4209.231,4204.872,4212.0509999999995,4208.462,4191.282,4208.333,4196.795,4196.154,4215.641,4223.077,4204.744000000001,4201.923,4249.103,0,0
141,65,0,2910,4249.744000000001,4207.436,4208.974,4203.462,4202.9490000000005,4183.333,4207.308,4197.308,4188.974,4213.462,4217.436,4203.846,4205.897,4248.59,0,0
142,66,0,3088,4236.154,4196.282,4203.333,4183.846,4187.9490000000005,4185.385,4193.846,4187.564,4183.205,4187.436,4202.9490000000005,4192.564,4201.923,4232.692,0,0
143,67,0,3140,4233.462,4193.974,4199.103,4183.333,4182.179,4190.897,4187.821,4185.0,4187.9490000000005,4189.872,4205.385,4192.308,4198.333,4229.359,0,0
144,68,0,3547,4250.0,4205.513,4207.9490000000005,4194.744000000001,4190.255999999999,4186.923,4200.255999999999,4194.744000000001,4193.974,4216.538,4227.308,4204.872,4208.718,4251.282,0,0
145,69,0,2215,4250.128,4205.769,4209.487,4197.0509999999995,4186.923,4181.41,4204.872,4194.744000000001,4191.154,4214.487,4222.9490000000005,4205.641,4204.872,4249.615,0,0
146,70,0,2636,4236.41,4194.872,4205.255999999999,4191.538,4181.026,4184.231,4196.41,4184.744000000001,4185.641,4202.308,4202.692,4198.974,4189.744000000001,4227.179,0,0
147,71,0,1810,4242.9490000000005,4198.462,4214.231,4191.154,4197.9490000000005,4189.615,4198.59,4186.026,4187.179,4207.9490000000005,4211.923,4205.0,4198.718,4235.641,0,0
148,72,0,1161,4253.718,4205.0,4215.641,4195.897,4209.744000000001,4189.615,4202.9490000000005,4191.026,4189.231,4207.564,4221.41,4207.179,4207.436,4254.615,0,0
149,73,0,3537,4240.255999999999,4195.513,4198.333,4192.0509999999995,4194.872,4183.846,4190.769,4182.564,4184.615,4194.231,4203.077,4193.846,4187.0509999999995,4233.846,0,0
150,74,0,3210,4227.9490000000005,4190.128,4192.692,4188.974,4180.897,4181.667,4181.154,4178.718,4185.385,4193.077,4194.487,4190.385,4181.795,4210.897,0,0
151,75,0,3389,4234.744000000001,4201.154,4202.179,4192.9490000000005,4183.974,4184.872,4188.205,4187.436,4189.872,4204.103,4208.974,4201.667,4202.9490000000005,4225.385,0,0
152,76,0,3138,4238.462,4205.897,4201.282,4193.205,4189.872,4188.846,4192.9490000000005,4188.462,4187.179,4199.872,4211.538,4201.41,4204.744000000001,4235.255999999999,0,0
153,77,0,2288,4231.026,4199.103,4190.385,4185.897,4181.026,4187.692,4186.41,4181.538,4184.231,4185.769,4200.385,4190.897,4193.333,4219.103,0,0
154,78,0,3210,4226.154,4196.538,4184.744000000001,4182.179,4167.821,4179.103,4185.897,4181.282,4187.308,4190.255999999999,4199.103,4194.872,4196.538,4209.744000000001,0,0
155,79,0,3389,4227.821,4199.487,4188.205,4192.692,4174.487,4176.282,4190.255999999999,4183.846,4187.564,4198.59,4202.308,4203.846,4199.359,4215.255999999999,0,0
156,80,0,3138,4227.308,4200.0,4192.436,4198.59,4182.436,4181.667,4185.769,4182.9490000000005,4181.923,4185.641,4203.974,4198.205,4189.487,4218.205,0,0
157,81,0,2288,4228.718,4201.538,4196.154,4193.077,4177.308,4186.923,4190.641,4185.641,4189.359,4187.9490000000005,4211.795,4196.026,4191.41,4226.538,0,0
158,82,0,3210,4234.231,4204.615,4199.744000000001,4186.538,4179.744000000001,4181.026,4200.513,4189.231,4198.333,4212.692,4218.462,4202.179,4204.872,4236.538,0,0
159,83,0,3389,4235.513,4205.897,4199.359,4188.077,4188.846,4171.282,4195.0,4187.692,4192.179,4221.41,4216.154,4200.255999999999,4205.769,4231.667,0,0
160,84,0,3138,4232.692,4203.59,4198.333,4193.205,4183.333,4174.615,4190.641,4187.179,4191.026,4210.769,4212.9490000000005,4197.0509999999995,4201.538,4222.436,0,0
161,85,0,2288,4230.385,4201.667,4198.974,4188.462,4174.103,4178.974,4196.667,4189.359,4196.795,4200.641,4215.641,4197.692,4203.974,4219.359,0,0
162,86,0,3210,4220.769,4199.103,4196.282,4181.282,4172.308,4168.205,4189.103,4186.026,4191.026,4197.692,4215.385,4192.692,4201.538,4216.667,0,0
163,87,0,3389,4213.718,4192.179,4191.538,4179.872,4171.282,4167.179,4182.0509999999995,4181.667,4184.872,4199.487,4205.128,4187.0509999999995,4197.564,4215.897,0,0
164,88,0,3138,4226.538,4200.255999999999,4193.462,4187.179,4170.513,4184.872,4192.564,4184.359,4189.359,4201.795,4202.308,4192.308,4203.59,4224.487,0,0
165,89,0,2288,4235.255999999999,4206.538,4198.205,4190.0,4167.692,4179.231,4193.205,4187.308,4188.333,4201.41,4204.615,4196.795,4202.821,4225.769,0,0
166,90,0,3210,4226.282,4185.255999999999,4200.641,4183.59,4173.59,4160.513,4191.026,4185.641,4186.282,4197.821,4202.9490000000005,4197.179,4196.282,4218.59,0,0
167,91,0,3389,4231.026,4189.359,4206.538,4192.436,4195.897,4172.692,4198.59,4186.538,4191.026,4200.513,4211.282,4200.513,4206.282,4224.103,0,0
168,92,0,3138,4239.872,4231.795,4207.0509999999995,4211.026,4212.0509999999995,4190.128,4196.667,4190.641,4191.923,4208.462,4216.923,4198.846,4218.974,4226.154,0,0
169,93,0,2288,4213.59,4235.641,4193.59,4208.974,4205.897,4180.128,4186.923,4184.487,4189.103,4201.41,4193.59,4182.179,4212.0509999999995,4195.769,0,0
170,94,0,3210,4174.744000000001,4210.513,4181.667,4192.308,4195.641,4166.667,4179.615,4173.718,4185.385,4181.154,4167.821,4165.897,4196.667,4156.154,0,0
171,95,0,3389,4165.641,4225.0,4183.974,4190.128,4192.9490000000005,4169.615,4176.41,4170.385,4181.923,4173.59,4162.0509999999995,4164.872,4192.821,4142.0509999999995,0,0
172,96,0,3138,4164.744000000001,4238.718,4184.103,4192.821,4186.795,4169.872,4173.846,4170.513,4182.179,4169.487,4158.974,4163.462,4192.564,4133.718,0,0
173,97,0,2288,4149.615,4218.718,4178.59,4183.974,4187.692,4166.41,4175.641,4170.769,4183.846,4156.923,4148.718,4157.0509999999995,4189.744000000001,4118.59,0,0
174,98,0,3210,4139.231,4210.128,4176.154,4176.923,4184.359,4167.692,4174.872,4171.026,4181.923,4154.359,4140.0,4155.255999999999,4195.385,4114.103,0,0
175,99,0,3389,4140.769,4214.744000000001,4179.872,4180.513,4174.231,4169.359,4172.692,4170.0,4180.128,4158.718,4147.308,4161.154,4198.59,4120.769,0,0
176,100,0,3138,4146.538,4216.41,4184.615,4186.923,4186.538,4169.103,4173.205,4170.255999999999,4183.205,4153.59,4161.923,4163.974,4194.487,4126.282,0,0
177,101,0,2288,4152.692,4215.385,4184.103,4185.641,4199.103,4165.769,4173.077,4172.308,4183.462,4155.0,4159.231,4162.564,4191.795,4126.667,0,0
178,102,0,3210,4151.667,4208.974,4182.564,4182.564,4192.436,4165.128,4171.795,4170.513,4182.308,4170.897,4148.59,4164.231,4193.462,4124.487,0,0
179,103,0,3389,4142.564,4201.667,4178.718,4185.769,4186.923,4170.513,4166.538,4166.282,4179.231,4171.154,4143.59,4160.769,4187.564,4121.026,0,0
180,104,0,3138,4136.538,4199.359,4169.744000000001,4184.487,4179.744000000001,4165.255999999999,4165.128,4168.333,4171.41,4152.308,4142.308,4150.128,4176.538,4120.0,0,0
181,105,0,2288,4136.41,4198.333,4170.769,4179.872,4178.718,4156.667,4175.513,4172.308,4175.385,4149.231,4153.077,4153.077,4180.0,4121.667,0,0
182,106,0,3210,4138.59,4199.487,4182.308,4185.255999999999,4196.667,4167.308,4185.897,4171.923,4183.077,4158.718,4160.0,4165.255999999999,4186.538,4125.385,0,0
183,107,0,3389,4146.538,4203.462,4185.128,4195.513,4200.0,4176.154,4188.077,4173.462,4176.923,4148.462,4153.077,4163.718,4186.026,4124.744000000001,0,0
184,108,0,3138,4151.41,4206.667,4185.385,4195.513,4190.128,4170.0,4191.538,4180.255999999999,4173.846,4138.333,4159.744000000001,4161.154,4188.974,4126.154,0,0
185,109,0,2288,4151.667,4209.744000000001,4189.487,4192.436,4203.718,4172.564,4199.231,4185.128,4183.718,4160.255999999999,4166.154,4168.974,4199.872,4136.795,0,0
186,110,0,3210,4154.744000000001,4207.564,4184.615,4194.615,4203.333,4175.897,4195.255999999999,4185.255999999999,4188.205,4175.641,4159.872,4167.821,4205.128,4139.103,0,0
187,111,0,3389,4161.026,4203.59,4183.077,4195.0,4180.769,4170.0,4185.897,4186.026,4185.0,4161.923,4165.128,4161.41,4203.077,4136.923,0,0
188,112,0,3138,4157.0509999999995,4203.974,4182.564,4185.897,4180.769,4168.59,4180.641,4181.923,4180.769,4152.692,4164.103,4160.385,4198.59,4140.0,0,0
189,113,0,2288,4143.846,4198.974,4171.538,4177.564,4188.462,4169.872,4177.308,4171.795,4176.282,4154.615,4146.923,4155.255999999999,4189.359,4130.513,0,0
190,114,0,3210,4143.077,4193.462,4172.308,4178.077,4178.974,4168.718,4180.0,4168.462,4176.795,4150.769,4148.462,4152.308,4183.462,4116.026,0,0
191,115,0,3389,4154.359,4202.0509999999995,4186.026,4190.385,4183.974,4171.282,4184.359,4170.513,4178.077,4152.9490000000005,4157.0509999999995,4159.744000000001,4184.359,4127.9490000000005,0,0
192,116,0,3138,4159.359,4211.154,4188.205,4199.872,4208.205,4173.462,4182.564,4170.385,4179.872,4160.128,4152.821,4167.179,4186.154,4146.538,0,0
193,117,0,2288,4155.897,4206.41,4185.513,4192.308,4216.026,4173.077,4183.333,4169.231,4184.744000000001,4161.282,4158.974,4165.641,4187.692,4140.255999999999,0,0
194,118,0,3210,4153.077,4199.872,4186.923,4180.513,4197.0509999999995,4172.436,4186.026,4169.231,4178.974,4160.255999999999,4159.744000000001,4163.205,4184.872,4131.795,0,0
195,119,0,3389,4157.436,4197.9490000000005,4186.923,4184.744000000001,4183.59,4171.026,4183.846,4169.487,4170.513,4155.897,4153.718,4167.564,4185.0,4141.795,0,0
196,120,0,3138,4169.615,4202.436,4188.974,4197.179,4189.872,4171.923,4185.897,4168.974,4178.205,4158.59,4167.436,4173.59,4193.205,4155.897,0,0
197,121,0,2288,4170.513,4206.667,4188.205,4192.179,4193.718,4171.667,4184.615,4167.692,4188.077,4170.385,4168.718,4170.128,4193.846,4152.436,0,0
198,122,0,3210,4155.513,4198.974,4183.205,4178.846,4178.59,4168.846,4174.359,4166.282,4181.923,4169.231,4150.255999999999,4160.897,4186.154,4139.615,0,0
199,123,0,3389,4151.538,4192.0509999999995,4182.0509999999995,4180.128,4166.41,4168.974,4173.718,4165.128,4170.769,4155.255999999999,4154.231,4159.103,4185.255999999999,4138.205,0,0
200,124,0,3138,4160.769,4199.103,4184.487,4190.0,4176.923,4170.255999999999,4184.359,4167.179,4169.872,4149.872,4170.897,4160.513,4186.41,4140.769,0,0
201,125,0,2288,4162.692,4202.821,4185.513,4191.41,4188.077,4168.205,4184.744000000001,4168.077,4174.744000000001,4159.103,4169.487,4160.769,4187.179,4142.179,0,0
202,126,0,3210,4155.513,4196.282,4177.9490000000005,4183.333,4185.641,4164.231,4174.359,4158.59,4173.333,4167.436,4157.308,4158.59,4187.9490000000005,4148.077,0,0
203,127,0,53,4153.974,4199.359,4170.513,4181.282,4179.872,4166.538,4171.667,4152.436,4169.615,4172.0509999999995,4152.436,4159.231,4189.487,4155.385,0,0
204,0,0,2669,4155.385,4201.667,4172.564,4185.128,4177.0509999999995,4167.0509999999995,4175.0,4158.718,4172.0509999999995,4166.41,4157.821,4159.615,4190.255999999999,4157.692,0,0
205,1,0,2912,4149.103,4186.795,4170.255999999999,4177.821,4171.923,4156.667,4171.667,4157.564,4171.41,4155.0,4158.718,4152.564,4182.179,4149.359,0,0
206,2,0,3093,4143.462,4181.795,4162.564,4168.974,4162.821,4153.974,4170.0,4153.718,4169.615,4155.641,4152.821,4148.846,4174.231,4140.0,0,0
207,3,0,3139,4151.41,4197.692,4169.487,4184.744000000001,4173.846,4169.103,4179.615,4163.846,4177.9490000000005,4167.9490000000005,4156.41,4156.026,4185.769,4149.872,0,0
208,4,0,3544,4163.718,4207.179,4180.897,4194.615,4198.59,4177.436,4190.128,4173.077,4185.897,4176.667,4158.846,4163.205,4195.513,4165.128,0,0
209,5,0,2210,4164.359,4198.974,4181.538,4176.026,4199.103,4170.897,4189.103,4170.255999999999,4183.077,4172.436,4152.308,4160.641,4188.333,4163.205,0,0
210,6,0,2639,4164.103,4196.667,4182.692,4171.026,4182.821,4168.974,4187.0509999999995,4169.615,4181.923,4168.718,4158.077,4157.179,4188.077,4164.744000000001,0,0
211,7,0,1810,4167.0509999999995,4201.667,4187.436,4190.513,4182.9490000000005,4174.359,4188.333,4173.846,4184.487,4168.718,4163.974,4161.026,4195.897,4173.077,0,0
212,8,0,1161,4160.0,4196.795,4181.282,4194.359,4187.179,4172.692,4183.974,4171.41,4176.282,4159.103,4149.872,4161.154,4184.359,4160.0,0,0
213,9,0,3544,4148.846,4188.718,4169.615,4178.974,4181.795,4166.026,4175.641,4165.128,4168.077,4149.487,4141.026,4151.026,4167.436,4136.026,0,0
214,10,0,3211,4158.718,4196.282,4173.462,4177.179,4184.231,4166.154,4176.795,4166.282,4177.179,4166.667,4150.769,4150.641,4173.718,4146.026,0,0
215,11,0,3399,4172.179,4207.179,4182.692,4185.255999999999,4191.026,4172.308,4189.103,4172.308,4185.769,4190.513,4156.154,4159.103,4189.103,4184.231,0,0
216,12,0,3156,4158.718,4198.462,4173.59,4182.436,4184.231,4173.333,4183.59,4167.308,4175.513,4171.026,4150.769,4153.205,4183.205,4148.077,0,0
217,13,0,2291,4150.385,4191.282,4168.333,4178.333,4180.0,4171.795,4168.59,4160.769,4170.769,4148.333,4155.769,4150.897,4167.821,4145.385,0,0
218,14,0,3211,4166.538,4201.795,4180.0,4187.0509999999995,4187.564,4171.154,4178.846,4168.462,4183.077,4173.974,4170.255999999999,4163.718,4172.436,4339.231,0,0
219,15,0,3399,4173.974,4206.923,4181.154,4192.436,4182.9490000000005,4167.308,4186.667,4172.821,4183.59,4197.308,4168.333,4161.795,4185.641,4442.0509999999995,0,0
220,16,0,0,4166.538,4201.795,4177.564,4183.718,4177.308,4168.846,4172.9490000000005,4167.692,4175.641,4184.103,4158.205,4157.308,4185.513,4271.282,0,0
221,17,0,0,4165.769,4200.0,4181.41,4181.026,4192.436,4174.231,4171.538,4167.821,4181.154,4179.103,4164.872,4165.385,4182.821,4144.872,0,0
222,18,0,0,4168.974,4200.641,4181.026,4187.692,4200.128,4170.385,4184.231,4170.769,4187.564,4190.641,4177.179,4168.974,4184.615,4187.9490000000005,0,0
223,19,0,0,4171.026,4201.154,4179.615,4189.744000000001,4190.385,4166.282,4184.231,4172.179,4183.718,4182.308,4172.436,4166.923,4186.538,4189.744000000001,0,0
224,20,0,0,4173.077,4203.077,4180.897,4186.795,4183.462,4171.41,4178.077,4174.487,4182.9490000000005,4173.205,4167.564,4169.359,4186.026,4154.231,0,0
225,21,0,0,4171.923,4198.077,4176.026,4183.718,4174.231,4171.026,4173.59,4172.308,4186.41,4186.538,4172.0509999999995,4167.0509999999995,4185.641,4166.538,0,0
226,22,0,0,4164.487,4194.615,4168.846,4183.077,4166.154,4163.718,4168.974,4166.154,4182.821,4187.308,4164.103,4157.564,4180.255999999999,4163.333,0,0
227,23,0,0,4156.667,4200.897,4169.872,4185.128,4178.462,4164.744000000001,4170.897,4166.795,4178.462,4172.308,4158.846,4153.846,4177.179,4152.9490000000005,0,0
228,24,0,0,4159.103,4201.282,4169.744000000001,4186.41,4189.103,4171.41,4173.718,4168.462,4180.255999999999,4167.692,4170.0,4157.308,4185.255999999999,4150.128,0,0
229,25,0,0,4165.128,4195.128,4170.0,4184.744000000001,4184.359,4170.513,4176.282,4166.667,4182.9490000000005,4169.359,4169.872,4160.897,4188.462,4148.205,0,0
230,26,0,0,4167.9490000000005,4198.462,4180.769,4187.308,4183.718,4171.154,4184.487,4168.718,4182.821,4178.974,4166.538,4164.615,4186.154,4159.872,0,0
231,27,0,0,4171.667,4204.872,4185.897,4189.359,4188.205,4176.795,4189.103,4173.077,4183.205,4195.385,4174.359,4167.308,4193.974,4169.231,0,0
232,28,0,0,4171.154,4201.282,4177.692,4183.205,4186.026,4175.769,4186.923,4173.205,4182.821,4195.128,4168.718,4166.026,4198.462,4158.846,0,0
233,29,0,0,4164.872,4198.718,4176.282,4181.538,4183.333,4170.641,4187.179,4170.897,4181.154,4182.564,4160.897,4161.026,4195.128,4142.564,0,0
234,30,0,0,4167.692,4202.564,4181.795,4190.385,4185.385,4171.41,4190.128,4169.487,4181.795,4173.077,4167.436,4160.769,4194.231,4143.462,0,0
235,31,0,0,4172.179,4202.308,4178.846,4188.59,4184.872,4173.974,4186.667,4167.308,4182.564,4167.179,4161.667,4161.026,4188.077,4143.718,0,0
236,32,0,0,4169.103,4204.359,4177.436,4181.282,4189.487,4172.692,4183.333,4167.9490000000005,4182.9490000000005,4174.103,4156.923,4157.9490000000005,4183.718,4148.846,0,0
237,33,0,0,4174.872,4213.462,4183.59,4188.718,4196.026,4169.487,4185.128,4171.538,4184.103,4184.744000000001,4168.462,4161.026,4195.641,4163.205,0,0
238,34,0,0,4183.205,4217.0509999999995,4184.487,4199.231,4190.769,4169.231,4185.128,4173.59,4184.487,4179.615,4169.872,4163.718,4203.59,4162.821,0,0
239,35,0,0,4184.615,4217.0509999999995,4189.615,4203.205,4191.41,4174.231,4190.641,4175.0,4184.103,4177.564,4172.692,4167.308,4200.769,4162.821,0,0
240,36,0,0,4187.564,4223.333,4198.974,4202.0509999999995,4200.255999999999,4177.179,4199.615,4176.795,4184.615,4188.718,4183.077,4174.231,4204.359,4175.513,0,0
241,37,0,0,4185.0,4218.333,4192.9490000000005,4191.154,4196.41,4172.564,4193.718,4174.103,4184.615,4187.436,4174.487,4173.718,4199.231,4169.487,0,0
242,38,0,0,4176.026,4202.0509999999995,4178.205,4181.538,4184.231,4170.255999999999,4184.103,4168.718,4183.846,4180.513,4161.026,4163.205,4184.744000000001,4153.205,0,0
243,39,0,0,4178.077,4199.744000000001,4174.615,4186.282,4179.872,4171.923,4185.641,4173.718,4183.846,4178.974,4162.564,4159.487,4183.462,4153.333,0,0
244,40,0,0,4188.077,4207.179,4181.538,4191.538,4190.128,4173.205,4185.128,4181.282,4184.487,4182.436,4170.769,4169.744000000001,4188.462,4159.615,0,0
245,41,0,0,4181.282,4204.615,4183.077,4185.0,4200.769,4172.436,4179.359,4176.667,4184.615,4181.154,4178.333,4173.205,4186.538,4162.179,0,0
246,42,0,0,4167.9490000000005,4197.436,4179.103,4179.231,4196.538,4171.795,4180.385,4166.923,4183.462,4168.333,4171.41,4164.615,4180.385,4160.385,0,0
247,43,0,0,4174.103,4205.0,4182.564,4188.59,4193.077,4174.872,4185.513,4169.103,4183.077,4174.231,4159.231,4160.513,4180.897,4161.41,0,0
248,44,0,0,4187.308,4218.718,4191.923,4205.128,4194.359,4174.615,4188.718,4177.179,4183.462,4197.564,4166.026,4166.667,4186.282,4166.154,0,0
249,45,0,0,4182.9490000000005,4216.795,4193.333,4202.308,4183.974,4168.462,4189.487,4176.538,4183.333,4199.103,4176.667,4168.846,4188.462,4162.564,0,0
250,46,0,0,4170.769,4205.255999999999,4182.436,4184.103,4178.333,4174.103,4186.41,4170.255999999999,4184.231,4177.9490000000005,4166.667,4161.026,4186.41,4153.974,0,0
251,47,0,0,4170.255999999999,4202.436,4173.718,4179.103,4190.255999999999,4184.487,4186.795,4167.564,4184.872,4171.154,4155.128,4158.974,4186.154,4157.0509999999995,0,0
252,48,0,0,4172.0509999999995,4202.692,4174.359,4183.974,4184.487,4176.923,4187.692,4168.846,4182.436,4169.359,4156.538,4162.692,4185.897,4158.077,0,0
253,49,0,0,4169.744000000001,4198.462,4175.897,4188.077,4168.333,4163.205,4184.103,4169.359,4180.385,4156.667,4156.282,4161.154,4183.077,4151.923,0,0
254,50,0,0,4171.154,4199.872,4172.9490000000005,4190.641,4177.308,4169.231,4185.0,4170.0,4181.538,4159.103,4154.615,4159.359,4185.128,4153.846,0,0
255,51,0,0,4168.59,4198.077,4168.077,4180.128,4186.795,4178.077,4187.9490000000005,4170.128,4182.564,4168.333,4157.564,4157.179,4184.487,4147.308,0,0
256,52,0,0,4168.077,4198.846,4172.9490000000005,4172.9490000000005,4183.205,4176.41,4186.282,4170.255999999999,4183.077,4173.974,4163.718,4158.077,4182.821,4140.513,0,0
257,53,0,0,4178.718,4210.255999999999,4183.205,4184.103,4186.282,4173.718,4185.769,4172.821,4184.487,4180.769,4168.333,4163.077,4190.641,4153.462,0,0
258,54,0,0,4179.615,4211.154,4179.744000000001,4190.255999999999,4184.103,4174.872,4186.923,4172.821,4184.744000000001,4177.308,4165.897,4165.128,4195.128,4160.897,0,0
259,55,0,0,4166.282,4199.744000000001,4170.0,4180.0,4173.718,4179.744000000001,4185.641,4171.026,4182.821,4167.0509999999995,4162.9490000000005,4160.769,4187.564,4150.255999999999,0,0
260,56,0,0,4163.205,4192.9490000000005,4168.974,4173.462,4178.333,4181.667,4184.103,4169.487,4182.692,4170.255999999999,4166.538,4159.487,4182.692,4147.692,0,0
261,57,0,0,4169.359,4191.41,4171.923,4174.487,4186.667,4179.103,4186.41,4170.255999999999,4184.231,4180.385,4170.641,4162.308,4185.385,4149.615,0,0
262,58,0,0,4170.641,4195.128,4172.564,4174.103,4180.128,4180.897,4192.436,4173.59,4183.974,4183.077,4173.59,4163.59,4187.308,4147.692,0,0
263,59,0,0,4170.513,4200.897,4173.846,4180.255999999999,4181.282,4185.0,4192.436,4176.026,4181.538,4183.59,4173.077,4162.821,4187.179,4150.385,0,0
264,60,0,0,4169.231,4192.179,4171.41,4180.0,4181.538,4182.9490000000005,4182.9490000000005,4171.41,4181.154,4171.923,4161.154,4157.0509999999995,4183.974,4145.641,0,0
265,61,0,0,4165.128,4180.385,4169.103,4169.872,4170.513,4179.744000000001,4180.0,4168.59,4182.564,4163.462,4157.308,4156.538,4180.513,4138.846,0,0
266,62,0,0,4166.026,4189.872,4170.769,4173.333,4174.487,4181.282,4187.692,4177.0509999999995,4183.974,4183.974,4168.718,4160.769,4182.821,4149.359,0,0
267,63,0,0,4174.231,4203.077,4176.667,4187.0509999999995,4187.436,4185.255999999999,4190.513,4183.974,4186.41,4204.359,4171.923,4163.462,4189.103,4162.436,0,0
268,64,0,2670,4184.231,4202.308,4183.718,4189.872,4187.308,4188.974,4189.103,4182.436,4186.923,4205.255999999999,4171.795,4165.769,4191.923,4159.359,0,0
269,65,0,2912,4187.308,4199.744000000001,4185.513,4184.487,4183.846,4182.692,4190.385,4182.564,4184.487,4197.564,4184.103,4168.846,4190.641,4154.744000000001,0,0
270,66,0,3093,4182.9490000000005,4200.897,4185.0,4183.333,4187.436,4180.128,4190.769,4182.308,4183.333,4194.744000000001,4190.255999999999,4171.154,4188.077,4155.769,0,0
271,67,0,3133,4181.026,4196.667,4186.026,4183.846,4183.333,4185.769,4189.872,4175.0,4183.462,4198.077,4179.103,4170.255999999999,4179.615,4156.154,0,0
272,68,0,3546,4182.692,4191.667,4183.718,4184.359,4169.231,4184.231,4185.513,4169.615,4181.667,4194.744000000001,4171.41,4165.641,4171.795,4155.385,0,0
273,69,0,2213,4176.795,4187.436,4180.897,4184.231,4167.179,4182.436,4179.615,4171.282,4180.897,4185.255999999999,4171.41,4162.436,4171.154,4155.641,0,0
274,70,0,2640,4169.744000000001,4184.872,4182.179,4181.923,4178.077,4180.513,4178.974,4171.154,4181.667,4182.692,4170.641,4163.974,4170.0,4153.974,0,0
275,71,0,1812,4173.077,4192.692,4182.821,4182.436,4178.59,4173.462,4181.795,4169.744000000001,4180.897,4177.692,4171.538,4164.872,4170.641,4150.128,0,0
276,72,0,1165,4181.795,4204.744000000001,4185.897,4182.9490000000005,4179.744000000001,4176.41,4186.282,4177.821,4181.923,4176.795,4185.255999999999,4168.59,4181.923,4159.231,0,0
277,73,0,3532,4185.641,4206.154,4187.9490000000005,4182.821,4193.718,4187.179,4187.9490000000005,4183.59,4185.0,4197.308,4190.897,4171.282,4190.385,4167.564,0,0
278,74,0,3212,4185.128,4201.923,4182.821,4184.487,4194.872,4184.103,4182.9490000000005,4174.744000000001,4185.0,4206.154,4175.513,4164.615,4186.282,4160.255999999999,0,0
279,75,0,3401,4186.538,4200.641,4179.744000000001,4183.846,4186.282,4180.255999999999,4180.385,4172.821,4182.564,4189.103,4174.744000000001,4159.615,4183.718,4154.615,0,0
280,76,0,3149,4186.538,4199.103,4183.077,4185.128,4178.846,4183.462,4184.872,4180.513,4181.667,4183.846,4183.077,4164.103,4184.744000000001,4158.846,0,0
281,77,0,2293,4185.128,4202.179,4187.0509999999995,4187.692,4168.974,4181.41,4187.308,4181.026,4183.205,4191.795,4179.615,4170.255999999999,4185.897,4164.744000000001,0,0
282,78,0,3212,4182.821,4199.872,4187.436,4179.103,4170.769,4181.923,4183.846,4176.923,4184.359,4183.077,4175.0,4170.513,4187.0509999999995,4162.564,0,0
283,79,0,3401,4180.255999999999,4190.641,4183.974,4172.436,4184.744000000001,4184.615,4182.564,4175.641,4182.308,4170.769,4176.282,4164.872,4184.744000000001,4155.255999999999,0,0
284,80,0,3149,4180.128,4192.692,4182.564,4181.538,4185.513,4185.385,4184.872,4176.41,4181.282,4183.974,4179.487,4166.026,4181.026,4157.0509999999995,0,0
285,81,0,2293,4183.077,4201.154,4187.308,4193.974,4179.872,4184.359,4187.9490000000005,4182.308,4184.231,4200.897,4183.077,4172.821,4183.718,4165.513,0,0
286,82,0,3212,4188.077,4204.615,4190.897,4193.974,4186.667,4180.641,4188.333,4185.255999999999,4185.769,4193.462,4184.487,4172.0509999999995,4187.179,4165.255999999999,0,0
287,83,0,3401,4187.179,4204.231,4190.513,4182.179,4194.487,4189.615,4188.077,4179.103,4184.487,4178.333,4180.255999999999,4167.0509999999995,4184.359,4163.333,0,0
288,84,0,3149,4185.897,4201.795,4190.385,4175.641,4196.026,4200.255999999999,4192.436,4181.923,4184.744000000001,4183.974,4184.487,4175.0,4183.846,4171.923,0,0
289,85,0,2293,4195.128,4202.179,4191.41,4183.59,4191.154,4193.846,4199.872,4189.615,4185.769,4202.692,4194.103,4184.103,4189.872,4175.897,0,0
290,86,0,3212,4197.0509999999995,4201.154,4190.897,4188.846,4175.385,4182.436,4197.564,4186.923,4185.897,4198.718,4186.923,4176.282,4190.769,4170.255999999999,0,0
291,87,0,3401,4186.154,4191.923,4185.641,4180.513,4166.026,4185.641,4189.487,4182.179,4184.872,4181.538,4173.974,4166.026,4183.846,4165.255999999999,0,0
292,88,0,3149,4189.744000000001,4192.0509999999995,4183.333,4181.538,4177.9490000000005,4196.154,4192.0509999999995,4182.436,4183.718,4192.308,4179.231,4169.872,4181.923,4169.231,0,0
293,89,0,2293,4203.205,4203.974,4190.513,4188.974,4191.41,4201.154,4200.641,4184.487,4183.974,4204.744000000001,4190.513,4175.255999999999,4184.744000000001,4174.487,0,0
294,90,0,3212,4200.769,4202.0509999999995,4198.205,4183.077,4189.615,4197.308,4200.385,4185.255999999999,4185.513,4184.231,4186.667,4175.255999999999,4187.179,4171.923,0,0
295,91,0,3401,4195.641,4198.59,4200.769,4182.564,4191.795,4190.513,4197.0509999999995,4185.897,4185.897,4180.255999999999,4183.59,4176.282,4192.9490000000005,4170.385,0,0
296,92,0,3149,4202.692,4210.255999999999,4201.667,4196.026,4204.487,4193.205,4202.821,4190.513,4186.923,4205.128,4188.205,4180.385,4201.026,4174.231,0,0
297,93,0,2293,4198.974,4208.205,4194.103,4193.077,4200.0,4197.821,4202.692,4193.205,4187.821,4198.718,4182.436,4177.564,4199.359,4175.897,0,0
298,94,0,3212,4180.641,4186.282,4180.0,4170.255999999999,4181.282,4199.615,4189.359,4187.436,4185.513,4174.487,4174.487,4170.0,4187.821,4170.641,0,0
299,95,0,3401,4176.667,4182.564,4181.154,4167.564,4172.821,4201.282,4184.231,4183.974,4184.231,4181.795,4182.564,4173.846,4185.897,4169.359,0,0
300,96,0,3149,4185.769,4193.077,4187.0509999999995,4178.462,4175.513,4193.077,4187.9490000000005,4185.769,4184.872,4190.255999999999,4188.333,4176.795,4190.385,4173.462,0,0
301,97,0,2293,4187.692,4192.821,4177.9490000000005,4177.179,4183.718,4186.282,4186.923,4183.462,4183.333,4177.436,4176.538,4168.718,4187.179,4168.333,0,0
302,98,0,3212,4183.333,4186.795,4167.821,4171.538,4185.769,4192.821,4183.59,4180.385,4181.667,4171.538,4168.077,4165.385,4184.103,4158.974,0,0
303,99,0,3401,4182.564,4184.359,4169.744000000001,4170.255999999999,4180.0,4200.897,4184.615,4184.231,4183.205,4185.769,4178.333,4168.974,4184.359,4161.923,0,0
304,100,0,3149,4185.513,4186.923,4176.795,4175.385,4183.077,4205.513,4187.308,4189.487,4187.436,4197.436,4189.359,4169.744000000001,4186.538,4173.205,0,0
305,101,0,2293,4187.436,4192.308,4182.692,4186.026,4192.692,4202.308,4189.487,4190.385,4187.564,4193.846,4186.923,4171.538,4188.59,4177.308,0,0
306,102,0,3212,4183.077,4187.0509999999995,4177.9490000000005,4182.564,4183.718,4188.462,4181.667,4184.487,4183.333,4177.9490000000005,4175.128,4166.795,4178.718,4170.0,0,0
307,103,0,3401,4178.718,4180.385,4172.308,4172.308,4173.205,4187.0509999999995,4174.744000000001,4179.103,4181.795,4168.974,4169.103,4156.795,4167.9490000000005,4161.667,0,0
308,104,0,3149,4187.308,4190.0,4179.103,4183.333,4188.333,4204.487,4184.103,4180.897,4185.255999999999,4180.0,4172.692,4160.255999999999,4177.0509999999995,4165.255999999999,0,0
309,105,0,2293,4190.0,4194.231,4182.9490000000005,4191.923,4188.59,4206.026,4185.255999999999,4175.769,4185.255999999999,4180.769,4172.308,4164.487,4182.0509999999995,4170.385,0,0
310,106,0,3212,4178.846,4183.462,4177.436,4176.667,4164.744000000001,4188.846,4171.795,4169.359,4182.436,4165.513,4167.821,4157.308,4167.692,4165.128,0,0
311,107,0,3401,4177.564,4183.333,4179.615,4166.41,4169.103,4188.718,4169.231,4177.436,4183.846,4175.385,4169.487,4158.718,4167.0509999999995,4166.026,0,0
312,108,0,3149,4181.026,4187.692,4183.077,4170.128,4185.128,4199.615,4173.718,4184.615,4185.255999999999,4190.128,4172.692,4164.103,4176.667,4170.513,0,0
313,109,0,2293,4182.179,4185.897,4185.128,4174.231,4175.897,4202.179,4173.205,4184.359,4184.103,4180.128,4175.641,4162.9490000000005,4175.255999999999,4170.769,0,0
314,110,0,3212,4179.744000000001,4183.462,4183.077,4171.667,4162.564,4198.59,4170.769,4181.282,4182.436,4165.128,4172.692,4160.769,4168.462,4168.718,0,0
315,111,0,3401,4175.385,4181.41,4173.974,4169.359,4167.821,4196.538,4172.436,4177.692,4181.795,4164.744000000001,4170.128,4160.897,4167.9490000000005,4167.821,0,0
316,112,0,3149,4178.718,4187.308,4180.0,4172.308,4182.692,4202.9490000000005,4182.821,4182.564,4184.487,4181.923,4178.462,4167.9490000000005,4180.513,4179.615,0,0
317,113,0,2293,4176.795,4187.0509999999995,4186.282,4168.462,4182.9490000000005,4202.308,4184.487,4182.179,4185.641,4192.436,4177.564,4166.41,4184.615,4183.077,0,0
318,114,0,3212,4165.769,4173.462,4172.0509999999995,4166.795,4167.692,4188.974,4175.385,4171.282,4182.308,4173.077,4166.026,4154.231,4167.564,4169.359,0,0
319,115,0,3401,4172.564,4176.795,4173.205,4181.026,4165.385,4187.308,4181.026,4175.513,4181.795,4161.41,4170.0,4157.9490000000005,4161.795,4174.872,0,0
320,116,0,3149,4188.077,4189.231,4188.462,4186.795,4176.538,4204.231,4192.308,4188.59,4185.897,4176.667,4171.795,4171.41,4173.333,4191.795,0,0
321,117,0,2293,4179.615,4179.359,4180.641,4173.462,4173.077,4206.923,4189.487,4186.41,4185.641,4176.154,4158.974,4165.641,4173.333,4186.41,0,0
322,118,0,3212,4168.077,4165.769,4167.0509999999995,4161.026,4163.077,4190.641,4183.846,4180.897,4182.436,4160.897,4164.487,4157.0509999999995,4166.41,4181.923,0,0
323,119,0,3401,4170.897,4171.154,4170.641,4160.513,4170.385,4188.59,4182.308,4181.923,4183.846,4171.026,4179.872,4161.41,4170.385,4186.41,0,0
324,120,0,3149,4170.255999999999,4177.436,4171.282,4169.103,4178.205,4201.026,4181.795,4184.231,4186.923,4186.667,4177.436,4156.538,4176.41,4175.255999999999,0,0
325,121,0,2293,4167.9490000000005,4174.103,4163.333,4175.385,4175.897,4200.513,4184.872,4183.718,4184.872,4182.308,4165.128,4150.128,4171.667,4168.205,0,0
326,122,0,3212,4168.718,4170.128,4159.872,4167.821,4174.359,4184.744000000001,4183.077,4178.718,4180.385,4173.205,4153.59,4154.359,4157.9490000000005,4177.821,0,0
327,123,0,3401,4168.205,4169.487,4164.359,4162.9490000000005,4171.41,4181.026,4178.974,4175.385,4181.282,4170.513,4152.692,4156.667,4157.308,4183.974,0,0
328,124,0,3149,4168.077,4170.769,4170.897,4170.385,4158.718,4195.0,4181.923,4176.667,4185.128,4169.615,4168.077,4153.718,4168.59,4183.333,0,0
329,125,0,2293,4169.744000000001,4171.026,4173.077,4169.615,4158.59,4198.333,4181.667,4174.231,4185.128,4169.872,4181.538,4154.872,4168.718,4182.436,0,0
330,126,0,3212,4170.128,4170.255999999999,4171.41,4166.41,4167.436,4187.692,4174.103,4172.436,4182.308,4173.846,4172.9490000000005,4157.564,4164.872,4186.41,0,0
331,127,0,53,4171.667,4172.821,4174.231,4169.103,4155.513,4182.821,4171.41,4173.077,4182.0509999999995,4178.846,4163.462,4159.615,4166.795,4186.667,0,0
332,0,0,2674,4178.077,4180.255999999999,4181.795,4170.385,4152.821,4190.128,4178.718,4171.795,4184.103,4183.333,4172.179,4161.41,4163.077,4183.333,0,0
333,1,0,2916,4186.282,4186.538,4187.0509999999995,4173.077,4178.077,4197.821,4186.795,4176.026,4183.974,4184.744000000001,4175.385,4165.641,4156.026,4192.821,0,0
334,2,0,3093,4187.564,4187.179,4185.255999999999,4173.974,4189.231,4200.128,4187.821,4182.436,4183.077,4180.513,4167.436,4169.359,4157.692,4202.692,0,0
335,3,0,3136,4186.667,4186.795,4185.897,4170.769,4182.692,4201.154,4187.179,4185.513,4184.744000000001,4185.0,4175.128,4170.128,4168.718,4201.667,0,0
336,4,0,3549,4185.385,4185.641,4184.872,4170.769,4179.231,4194.487,4188.718,4186.667,4185.513,4191.795,4186.282,4166.923,4173.718,4197.179,0,0
337,5,0,2215,4182.564,4182.692,4178.205,4177.308,4173.077,4184.103,4189.872,4183.718,4182.308,4186.667,4178.974,4163.974,4160.255999999999,4192.436,0,0
338,6,0,2642,4186.41,4185.513,4180.255999999999,4187.179,4173.205,4190.513,4189.359,4180.385,4180.513,4182.436,4176.667,4162.9490000000005,4151.667,4191.41,0,0
339,7,0,1812,4192.9490000000005,4188.718,4185.769,4186.154,4181.41,4201.923,4188.077,4181.41,4182.308,4186.282,4182.564,4165.513,4158.846,4200.513,0,0
340,8,0,1165,4192.0509999999995,4187.0509999999995,4186.923,4173.846,4177.179,4196.282,4188.974,4185.128,4183.333,4188.205,4175.0,4167.308,4160.385,4202.436,0,0
341,9,0,3539,4184.231,4182.564,4185.897,4170.769,4167.9490000000005,4185.641,4184.359,4183.205,4182.179,4180.0,4164.103,4162.179,4155.641,4188.462,0,0
342,10,0,3212,4182.179,4182.0509999999995,4182.436,4176.923,4169.231,4184.231,4176.923,4180.255999999999,4182.0509999999995,4170.897,4167.692,4157.308,4157.0509999999995,4182.692,0,0
343,11,0,3398,4185.897,4185.128,4178.462,4173.718,4172.9490000000005,4193.974,4178.846,4184.103,4184.103,4172.564,4176.538,4157.308,4158.333,4187.0509999999995,0,0
344,12,0,3148,4178.462,4180.0,4180.0,4166.026,4172.308,4200.0,4180.0,4184.231,4185.0,4173.077,4170.641,4157.692,4155.385,4185.769,0,0
345,13,0,2292,4169.615,4175.769,4183.462,4168.333,4173.462,4192.0509999999995,4175.897,4178.59,4182.692,4166.026,4153.718,4157.0509999999995,4154.615,4180.769,0,0
346,14,0,3212,4179.872,4184.103,4185.255999999999,4177.692,4176.41,4184.744000000001,4176.154,4179.103,4181.538,4170.769,4152.179,4159.103,4155.897,4182.564,0,0
347,15,0,3398,4191.923,4188.462,4183.077,4182.308,4174.615,4185.769,4177.436,4178.974,4183.974,4174.359,4165.897,4159.103,4159.103,4187.308,0,0
348,16,0,0,4181.923,4182.564,4177.0509999999995,4182.821,4171.282,4189.103,4170.641,4170.513,4180.128,4161.41,4173.59,4154.744000000001,4153.59,4179.744000000001,0,0
349,17,0,0,4172.308,4181.41,4176.795,4183.333,4172.821,4191.667,4166.41,4166.923,4173.077,4163.205,4171.667,4153.718,4140.897,4171.282,0,0
350,18,0,0,4181.795,4184.872,4186.795,4183.462,4170.641,4191.282,4174.615,4171.667,4175.897,4177.0509999999995,4170.769,4160.255999999999,4146.41,4181.282,0,0
351,19,0,0,4195.0,4192.436,4195.128,4190.897,4171.41,4186.795,4184.487,4173.846,4183.333,4175.385,4180.641,4170.385,4162.821,4200.769,0,0
352,20,0,0,4199.744000000001,4203.077,4195.0,4200.255999999999,4179.487,4186.026,4183.205,4173.59,4184.359,4181.538,4185.769,4173.205,4163.077,4204.872,0,0
353,21,0,0,4191.538,4195.255999999999,4187.0509999999995,4191.923,4172.436,4191.154,4170.769,4172.821,4182.308,4188.846,4171.026,4166.154,4153.077,4191.538,0,0
354,22,0,0,4189.231,4185.385,4185.513,4187.179,4171.795,4196.282,4169.231,4170.513,4182.179,4172.692,4165.128,4162.0509999999995,4151.026,4182.0509999999995,0,0
355,23,0,0,4198.846,4196.282,4193.462,4201.41,4197.692,4195.641,4181.41,4171.538,4181.538,4162.821,4177.179,4169.615,4154.487,4185.385,0,0
356,24,0,0,4196.282,4201.026,4192.436,4200.513,4206.154,4185.897,4182.436,4171.667,4184.103,4173.718,4173.59,4173.077,4157.436,4188.846,0,0
357,25,0,0,4181.026,4186.667,4181.923,4184.359,4186.154,4180.769,4171.923,4170.255999999999,4181.795,4172.9490000000005,4162.821,4163.205,4154.744000000001,4183.974,0,0
358,26,0,0,4184.103,4186.795,4185.128,4184.615,4182.564,4187.9490000000005,4173.077,4171.923,4174.487,4166.026,4175.255999999999,4159.615,4150.385,4181.795,0,0
359,27,0,0,4201.282,4201.026,4197.564,4192.821,4188.974,4189.872,4182.821,4173.974,4177.436,4175.897,4189.487,4166.667,4153.462,4185.641,0,0
360,28,0,0,4202.564,4201.282,4200.897,4196.282,4180.641,4188.205,4182.308,4172.436,4184.359,4189.744000000001,4183.205,4172.0509999999995,4154.744000000001,4191.282,0,0
361,29,0,0,4197.821,4196.667,4200.641,4201.026,4183.333,4192.308,4180.769,4171.41,4183.846,4187.692,4174.615,4175.897,4151.026,4199.231,0,0
362,30,0,0,4202.179,4197.0509999999995,4199.872,4197.9490000000005,4195.641,4193.846,4183.077,4172.692,4182.0509999999995,4178.077,4172.564,4171.795,4153.205,4200.128,0,0
363,31,0,0,4198.333,4190.897,4191.282,4189.103,4189.615,4184.872,4175.0,4171.923,4181.282,4172.9490000000005,4165.0,4161.795,4150.513,4188.59,0,0
364,32,0,0,4191.538,4189.487,4185.897,4193.846,4180.641,4182.436,4168.205,4170.0,4180.513,4167.0509999999995,4165.513,4163.077,4142.179,4181.795,0,0
365,33,0,0,4194.487,4196.154,4187.692,4199.744000000001,4186.282,4192.0509999999995,4172.179,4171.282,4185.0,4166.282,4181.795,4172.179,4146.538,4187.0509999999995,0,0
366,34,0,0,4194.359,4193.59,4184.487,4188.333,4184.359,4188.846,4172.308,4173.59,4186.795,4181.538,4180.769,4168.077,4154.872,4190.0,0,0
367,35,0,0,4185.897,4184.615,4178.59,4177.564,4167.821,4181.538,4171.026,4173.205,4181.026,4188.974,4166.154,4162.0509999999995,4153.718,4185.641,0,0
368,36,0,0,4183.974,4184.872,4178.333,4182.436,4171.282,4186.795,4175.641,4170.385,4180.385,4183.077,4172.9490000000005,4168.333,4152.692,4183.077,0,0
369,37,0,0,4190.255999999999,4191.026,4180.385,4187.308,4189.487,4189.103,4176.154,4170.128,4183.974,4183.205,4188.718,4171.154,4157.308,4186.538,0,0
370,38,0,0,4196.282,4195.769,4182.692,4190.0,4188.077,4184.744000000001,4172.308,4173.077,4183.974,4192.179,4191.538,4170.897,4158.205,4189.744000000001,0,0
371,39,0,0,4197.436,4195.513,4183.59,4187.436,4181.923,4183.846,4170.255999999999,4171.667,4182.692,4192.436,4186.923,4171.154,4157.436,4184.744000000001,0,0
372,40,0,0,4195.0,4194.487,4184.872,4182.692,4185.769,4187.436,4171.154,4169.615,4184.615,4186.923,4178.333,4169.744000000001,4165.385,4183.205,0,0
373,41,0,0,4199.615,4198.718,4189.231,4194.872,4188.59,4190.897,4174.487,4173.333,4186.667,4190.255999999999,4178.718,4174.103,4176.667,4194.615,0,0
374,42,0,0,4202.564,4200.513,4188.974,4201.538,4188.462,4189.231,4172.308,4171.154,4184.359,4190.0,4193.462,4178.974,4174.103,4199.872,0,0
375,43,0,0,4198.59,4198.59,4187.692,4192.564,4188.205,4184.744000000001,4173.205,4170.255999999999,4182.9490000000005,4189.103,4198.846,4180.128,4167.821,4198.718,0,0
376,44,0,0,4205.0,4201.667,4196.026,4194.103,4188.462,4188.59,4181.41,4178.59,4185.0,4198.333,4186.923,4180.128,4177.821,4203.077,0,0
377,45,0,0,4211.795,4203.077,4202.436,4202.308,4196.538,4189.872,4180.0,4179.359,4186.282,4204.744000000001,4184.615,4180.128,4183.974,4206.154,0,0
378,46,0,0,4208.974,4203.974,4198.718,4205.255999999999,4202.179,4183.718,4172.436,4171.923,4185.513,4204.359,4194.744000000001,4178.718,4176.667,4201.667,0,0
379,47,0,0,4200.0,4202.821,4187.0509999999995,4199.872,4187.308,4186.026,4171.795,4169.487,4184.872,4199.615,4191.795,4175.769,4167.821,4195.0,0,0
380,48,0,0,4188.205,4193.205,4173.462,4183.59,4175.897,4191.026,4166.538,4169.744000000001,4182.821,4182.564,4172.179,4167.0509999999995,4159.744000000001,4181.795,0,0
381,49,0,0,4178.718,4182.564,4166.154,4175.0,4181.41,4186.667,4153.974,4167.0509999999995,4181.154,4167.564,4160.641,4155.641,4152.179,4166.667,0,0
382,50,0,0,4177.9490000000005,4184.359,4169.487,4185.897,4177.821,4180.641,4153.846,4165.0,4182.692,4177.692,4169.231,4158.718,4153.333,4168.333,0,0
383,51,0,0,4187.821,4195.385,4179.487,4195.769,4174.872,4183.077,4165.769,4168.462,4184.487,4196.026,4186.154,4170.769,4164.487,4182.9490000000005,0,0
384,52,0,0,4201.154,4202.821,4187.821,4202.436,4187.564,4193.59,4174.103,4175.769,4184.872,4203.718,4193.718,4177.436,4173.205,4193.846,0,0
385,53,0,0,4202.436,4201.923,4186.667,4203.462,4192.436,4197.436,4173.333,4175.513,4184.615,4198.718,4185.769,4173.205,4170.769,4192.179,0,0
386,54,0,0,4193.205,4196.538,4182.564,4192.692,4186.538,4188.59,4171.923,4169.103,4183.718,4191.282,4181.41,4165.897,4165.897,4188.333,0,0
387,55,0,0,4193.333,4192.9490000000005,4183.077,4188.974,4187.436,4183.59,4176.026,4171.41,4185.128,4188.59,4188.205,4168.333,4172.436,4190.641,0,0
388,56,0,0,4191.923,4188.333,4175.0,4185.897,4182.308,4186.026,4174.103,4171.923,4183.205,4175.255999999999,4182.692,4169.615,4169.103,4179.487,0,0
389,57,0,0,4181.41,4183.077,4168.462,4175.769,4174.359,4185.641,4170.897,4167.564,4175.385,4166.923,4170.0,4161.923,4153.077,4163.59,0,0
390,58,0,0,4178.846,4181.667,4181.667,4179.359,4182.179,4185.897,4174.872,4169.487,4174.615,4181.41,4171.154,4158.462,4157.308,4169.872,0,0
391,59,0,0,4188.59,4188.205,4195.128,4194.872,4187.179,4186.667,4174.615,4171.923,4182.9490000000005,4189.615,4182.821,4167.9490000000005,4173.205,4185.769,0,0
392,60,0,0,4195.128,4199.744000000001,4193.718,4205.385,4183.077,4186.026,4178.462,4173.333,4184.872,4183.59,4185.513,4174.615,4172.692,4187.179,0,0
393,61,0,0,4188.974,4196.154,4188.846,4198.333,4178.846,4187.308,4183.59,4173.205,4180.769,4180.128,4174.231,4169.872,4165.513,4179.487,0,0
394,62,0,0,4187.692,4191.154,4188.333,4187.0509999999995,4176.282,4186.795,4176.154,4169.487,4182.0509999999995,4180.255999999999,4171.538,4167.179,4173.077,4179.359,0,0
395,63,0,0,4196.538,4200.0,4190.255999999999,4191.41,4181.282,4186.795,4174.615,4174.487,4185.385,4183.59,4187.692,4174.487,4179.487,4185.513,0,0
396,64,0,2664,4197.0509999999995,4198.974,4188.333,4195.897,4190.255999999999,4188.974,4182.9490000000005,4182.821,4183.974,4184.744000000001,4189.744000000001,4175.385,4176.026,4184.744000000001,0,0
397,65,0,2903,4182.436,4184.872,4176.154,4183.974,4181.41,4187.821,4176.538,4176.795,4181.538,4176.667,4169.872,4166.282,4172.564,4173.59,0,0
398,66,0,3083,4167.179,4177.692,4164.487,4175.385,4166.282,4181.923,4164.359,4167.436,4180.641,4169.103,4165.0,4159.103,4164.872,4160.641,0,0
399,67,0,3127,4174.359,4185.513,4175.897,4187.308,4172.308,4183.718,4172.564,4175.769,4183.59,4179.103,4184.487,4169.615,4165.897,4167.308,0,0
400,68,0,3546,4200.128,4201.795,4198.846,4201.282,4187.179,4196.154,4188.205,4188.333,4186.538,4194.744000000001,4196.923,4185.385,4183.59,4193.59,0,0
401,69,0,2214,4205.513,4205.641,4197.179,4197.9490000000005,4189.744000000001,4198.462,4189.103,4183.333,4184.744000000001,4192.821,4188.462,4180.255999999999,4187.179,4200.769,0,0
402,70,0,2639,4185.897,4189.872,4182.179,4185.897,4184.359,4184.872,4176.923,4170.641,4182.436,4183.333,4179.487,4165.641,4171.538,4176.154,0,0
403,71,0,1809,4181.795,4181.41,4182.821,4182.692,4185.897,4178.333,4169.103,4167.9490000000005,4182.308,4180.769,4184.615,4163.974,4162.564,4160.0,0,0
404,72,0,1165,4191.667,4190.0,4186.795,4190.255999999999,4189.615,4192.692,4179.744000000001,4174.872,4182.436,4177.692,4187.9490000000005,4170.769,4165.641,4170.769,0,0
405,73,0,3529,4180.128,4183.333,4173.846,4180.385,4184.359,4199.231,4181.795,4173.205,4182.9490000000005,4166.538,4172.821,4166.154,4165.769,4168.077,0,0
406,74,0,3206,4164.231,4168.718,4164.359,4166.282,4179.231,4187.564,4171.538,4166.667,4180.128,4168.333,4162.0509999999995,4161.282,4157.0509999999995,4152.179,0,0
407,75,0,3385,4174.872,4178.974,4172.179,4179.231,4182.821,4181.795,4175.255999999999,4173.718,4176.538,4183.59,4176.154,4167.0509999999995,4154.359,4157.179,0,0
408,76,0,3137,4182.9490000000005,4185.641,4175.897,4185.897,4180.255999999999,4181.667,4183.718,4181.41,4179.872,4187.436,4189.744000000001,4170.513,4163.718,4165.769,0,0
409,77,0,2284,4171.282,4172.0509999999995,4171.538,4170.255999999999,4170.769,4185.0,4182.692,4181.282,4185.128,4186.923,4190.128,4168.205,4171.923,4163.333,0,0
410,78,0,3206,4167.308,4171.538,4169.872,4170.385,4168.974,4192.0509999999995,4181.923,4178.59,4182.308,4182.308,4181.41,4169.103,4168.718,4162.9490000000005,0,0
411,79,0,3385,4179.872,4186.41,4170.641,4186.026,4171.154,4192.308,4182.308,4177.308,4180.513,4171.923,4172.308,4172.0509999999995,4168.846,4168.462,0,0
412,80,0,3137,4186.282,4185.769,4175.897,4186.154,4173.718,4184.103,4177.0509999999995,4176.795,4184.615,4175.255999999999,4176.538,4170.513,4173.333,4170.0,0,0
413,81,0,2284,4180.769,4179.872,4179.359,4179.872,4175.385,4182.308,4174.872,4175.513,4184.744000000001,4192.436,4187.821,4166.538,4171.282,4169.615,0,0
414,82,0,3206,4177.9490000000005,4183.462,4176.41,4180.0,4173.846,4187.308,4180.255999999999,4175.641,4181.538,4195.641,4189.615,4163.333,4167.436,4168.462,0,0
415,83,0,3385,4178.462,4183.59,4174.615,4182.436,4176.923,4186.538,4186.026,4176.282,4181.795,4187.821,4181.41,4161.667,4166.923,4168.462,0,0
416,84,0,3137,4175.897,4181.667,4174.487,4180.128,4180.385,4183.205,4182.821,4176.154,4183.205,4184.103,4172.308,4162.564,4169.359,4170.385,0,0
417,85,0,2284,4171.41,4182.179,4167.821,4171.026,4176.154,4180.897,4172.564,4171.154,4178.846,4173.077,4171.538,4160.769,4168.718,4159.103,0,0
418,86,0,3206,4171.538,4179.615,4167.0509999999995,4170.897,4169.103,4182.692,4173.974,4171.667,4173.077,4164.359,4183.462,4161.923,4169.231,4149.744000000001,0,0
419,87,0,3385,4172.0509999999995,4176.41,4174.487,4177.436,4164.359,4186.923,4179.615,4177.692,4177.436,4170.641,4183.974,4161.538,4168.077,4156.795,0,0
420,88,0,3137,4175.0,4179.103,4176.795,4173.333,4171.538,4184.744000000001,4173.205,4175.385,4186.667,4176.282,4168.718,4160.513,4159.231,4167.436,0,0
421,89,0,2284,4182.564,4186.795,4177.308,4169.487,4186.667,4183.333,4171.282,4172.692,4182.179,4177.0509999999995,4166.282,4163.846,4155.897,4174.359,0,0
422,90,0,3206,4179.103,4181.282,4173.333,4166.154,4176.538,4184.359,4171.795,4170.255999999999,4171.154,4169.744000000001,4168.974,4159.103,4152.692,4166.538,0,0
423,91,0,3385,4173.462,4171.795,4171.667,4168.718,4156.923,4182.821,4166.667,4169.487,4174.231,4164.872,4172.692,4156.795,4150.128,4155.385,0,0
424,92,0,3137,4184.231,4180.641,4188.077,4189.872,4176.667,4182.308,4174.231,4178.718,4186.667,4174.359,4185.128,4169.359,4160.897,4168.333,0,0
425,93,0,2284,4193.846,4191.923,4197.821,4196.154,4196.026,4185.128,4181.923,4181.538,4185.385,4177.436,4186.795,4176.41,4167.179,4183.59,0,0
426,94,0,3206,4191.923,4190.0,4190.897,4181.41,4179.872,4187.692,4175.513,4177.564,4176.795,4175.769,4176.154,4170.0,4163.462,4175.897,0,0
427,95,0,3385,4187.821,4186.41,4187.436,4181.41,4173.974,4184.231,4171.923,4178.846,4178.333,4180.897,4168.718,4168.59,4161.667,4166.154,0,0
428,96,0,3137,4183.718,4184.103,4186.026,4188.333,4188.462,4182.692,4173.205,4178.462,4183.462,4184.359,4172.179,4171.282,4163.333,4169.487,0,0
429,97,0,2284,4183.333,4182.436,4180.385,4182.179,4188.846,4185.385,4169.744000000001,4174.359,4185.0,4182.692,4185.0,4169.744000000001,4162.9490000000005,4171.538,0,0
430,98,0,3206,4184.103,4184.487,4180.0,4175.385,4182.692,4184.615,4167.821,4176.923,4178.846,4174.744000000001,4181.026,4169.103,4165.255999999999,4166.795,0,0
431,99,0,3385,4186.41,4188.333,4184.231,4180.513,4183.077,4180.897,4172.179,4185.641,4174.615,4167.564,4166.154,4168.718,4169.359,4166.282,0,0
432,100,0,3137,4188.846,4188.974,4181.41,4188.59,4172.821,4182.821,4171.923,4182.308,4180.0,4174.103,4172.0509999999995,4170.0,4164.872,4175.385,0,0
433,101,0,2284,4182.9490000000005,4184.615,4175.385,4185.897,4164.615,4186.41,4166.154,4171.923,4181.667,4183.974,4179.615,4170.0,4161.154,4181.282,0,0
434,102,0,3206,4182.0509999999995,4181.154,4177.821,4178.59,4178.205,4184.103,4166.282,4173.974,4177.692,4182.564,4177.692,4168.462,4166.41,4182.179,0,0
435,103,0,3385,4195.385,4190.385,4189.615,4185.128,4190.769,4183.333,4177.9490000000005,4186.282,4180.385,4184.615,4185.385,4176.026,4174.487,4188.974,0,0
436,104,0,3137,4203.59,4199.487,4194.487,4193.462,4186.026,4182.436,4186.41,4188.205,4185.641,4194.231,4190.513,4182.9490000000005,4176.154,4192.0509999999995,0,0
437,105,0,2284,4199.615,4194.103,4189.359,4189.487,4182.692,4186.795,4185.0,4181.41,4182.9490000000005,4189.744000000001,4185.255999999999,4180.769,4181.538,4186.282,0,0
438,106,0,3206,4196.282,4185.513,4193.462,4182.9490000000005,4184.615,4194.231,4184.615,4185.769,4182.179,4173.333,4183.205,4178.846,4182.436,4184.872,0,0
439,107,0,3385,4195.513,4184.103,4201.154,4183.077,4173.462,4188.205,4186.538,4189.231,4181.41,4171.538,4187.564,4182.179,4169.359,4192.0509999999995,0,0
440,108,0,3137,4195.385,4186.282,4200.897,4192.9490000000005,4164.103,4179.487,4187.179,4186.795,4179.487,4185.513,4192.436,4184.103,4173.462,4198.718,0,0
441,109,0,2284,4200.513,4188.846,4199.359,4199.487,4179.359,4184.872,4187.308,4187.564,4186.026,4192.692,4191.667,4185.255999999999,4187.0509999999995,4200.0,0,0
442,110,0,3206,4199.359,4185.897,4200.128,4189.231,4193.59,4190.513,4187.821,4187.436,4184.103,4182.436,4182.308,4184.744000000001,4179.872,4197.179,0,0
443,111,0,3385,4188.59,4179.615,4199.103,4177.821,4179.744000000001,4184.487,4187.179,4185.641,4174.744000000001,4176.538,4179.744000000001,4180.513,4166.923,4196.282,0,0
444,112,0,3137,4185.641,4183.462,4200.128,4182.308,4170.769,4184.359,4188.59,4185.0,4181.282,4183.077,4188.077,4182.179,4168.718,4201.154,0,0
445,113,0,2284,4189.744000000001,4185.0,4200.255999999999,4191.41,4182.0509999999995,4188.333,4190.128,4185.0,4187.564,4184.103,4186.667,4181.282,4173.974,4203.718,0,0
446,114,0,3206,4186.538,4171.154,4188.718,4186.154,4177.308,4183.462,4185.255999999999,4180.385,4175.255999999999,4178.333,4174.744000000001,4172.692,4164.744000000001,4199.615,0,0
447,115,0,3385,4180.769,4169.103,4180.513,4173.974,4165.897,4180.128,4180.255999999999,4177.436,4173.718,4181.923,4172.308,4171.282,4161.538,4196.795,0,0
448,116,0,3137,4184.615,4181.667,4186.667,4176.282,4182.308,4186.667,4184.103,4186.154,4187.692,4193.974,4187.436,4179.487,4177.308,4202.0509999999995,0,0
449,117,0,2284,4182.308,4178.974,4186.026,4185.385,4193.205,4187.0509999999995,4182.179,4188.59,4183.077,4182.436,4191.154,4180.385,4181.538,4198.846,0,0
450,118,0,3206,4169.359,4168.846,4172.179,4179.872,4174.103,4172.308,4170.0,4176.538,4169.487,4163.333,4168.462,4170.513,4167.308,4185.385,0,0
451,119,0,3385,4167.436,4171.667,4170.897,4167.692,4162.821,4172.564,4170.255999999999,4171.154,4170.513,4167.9490000000005,4155.769,4165.255999999999,4162.9490000000005,4183.846,0,0
452,120,0,3137,4174.231,4173.205,4181.923,4170.255999999999,4173.462,4189.359,4179.744000000001,4180.128,4177.0509999999995,4171.154,4166.667,4171.795,4169.615,4194.359,0,0
453,121,0,2284,4172.436,4166.667,4184.359,4176.667,4171.795,4184.103,4180.641,4184.615,4179.103,4166.282,4178.077,4176.538,4174.359,4200.641,0,0
454,122,0,3206,4173.205,4168.59,4182.692,4175.0,4153.974,4169.615,4181.923,4187.9490000000005,4183.077,4178.718,4175.897,4176.795,4182.179,4200.897,0,0
455,123,0,3385,4185.0,4168.846,4185.0,4168.462,4151.282,4179.872,4188.205,4195.128,4186.667,4191.154,4170.513,4178.974,4187.692,4202.821,0,0
456,124,0,3137,4183.333,4159.487,4180.769,4166.538,4167.308,4191.41,4187.179,4190.769,4182.821,4175.385,4171.41,4176.282,4183.205,4201.154,0,0
457,125,0,2284,4174.231,4159.744000000001,4178.59,4177.692,4174.103,4184.231,4183.205,4181.538,4178.974,4164.744000000001,4170.385,4172.692,4181.667,4198.462,0,0
458,126,0,3206,4180.769,4170.769,4187.821,4187.308,4169.615,4180.641,4185.255999999999,4181.41,4182.0509999999995,4177.179,4168.974,4177.9490000000005,4185.385,4202.821,0,0
459,127,0,53,4187.9490000000005,4172.564,4188.846,4183.718,4168.205,4184.103,4187.308,4183.974,4184.615,4175.897,4169.744000000001,4182.0509999999995,4186.154,4202.692,0,0
460,0,0,2663,4185.385,4168.462,4185.0,4180.255999999999,4170.641,4184.231,4187.821,4183.59,4183.205,4167.308,4172.0509999999995,4177.179,4183.462,4200.641,0,0
461,1,0,2911,4185.128,4177.308,4191.026,4185.897,4173.333,4185.255999999999,4188.974,4186.41,4183.077,4176.026,4173.462,4177.564,4183.846,4209.615,0,0
462,2,0,3088,4185.769,4183.333,4194.231,4183.333,4169.872,4186.795,4186.154,4188.59,4182.692,4185.128,4172.436,4180.128,4187.0509999999995,4211.026,0,0
463,3,0,3130,4188.718,4181.538,4193.462,4181.923,4168.846,4185.769,4184.744000000001,4186.282,4181.795,4187.308,4177.821,4181.41,4184.744000000001,4203.59,0,0
464,4,0,3547,4202.692,4188.205,4198.205,4198.974,4183.846,4186.026,4189.872,4186.154,4185.769,4194.103,4190.385,4184.744000000001,4186.795,4214.872,0,0
465,5,0,2210,4202.821,4189.359,4195.128,4195.897,4190.641,4185.641,4184.487,4186.41,4184.359,4193.077,4185.513,4179.231,4189.487,4221.667,0,0
466,6,0,2635,4184.103,4172.9490000000005,4181.026,4171.026,4175.128,4178.59,4168.974,4181.923,4176.41,4171.923,4165.0,4168.462,4176.026,4197.179,0,0
467,7,0,1805,4178.333,4162.308,4179.103,4171.667,4164.359,4180.897,4170.897,4180.769,4177.308,4162.179,4165.769,4169.359,4168.718,4182.692,0,0
468,8,0,1158,4188.333,4175.641,4190.897,4191.154,4171.41,4195.897,4192.9490000000005,4190.769,4186.282,4185.0,4188.846,4178.974,4189.615,4201.026,0,0
469,9,0,3528,4188.462,4184.872,4192.821,4187.821,4177.821,4196.282,4200.513,4195.255999999999,4187.436,4201.154,4191.41,4179.231,4204.231,4209.359,0,0
470,10,0,3205,4182.436,4176.538,4187.0509999999995,4173.077,4171.026,4182.821,4184.872,4186.026,4182.564,4187.692,4173.718,4174.359,4191.667,4195.897,0,0
471,11,0,3387,4180.769,4167.821,4182.0509999999995,4171.282,4156.41,4180.255999999999,4168.846,4180.385,4182.9490000000005,4172.179,4171.41,4172.179,4179.615,4190.128,0,0
472,12,0,3145,4180.513,4170.255999999999,4182.308,4176.667,4160.769,4183.462,4168.846,4182.436,4184.872,4183.718,4184.615,4172.564,4182.436,4196.026,0,0
473,13,0,2287,4183.59,4179.103,4190.641,4185.0,4184.487,4184.615,4178.333,4183.59,4182.308,4198.846,4191.026,4176.667,4185.385,4200.0,0,0
474,14,0,3205,4189.359,4185.641,4199.872,4189.487,4185.641,4186.282,4181.795,4187.179,4182.436,4193.718,4186.923,4180.513,4187.308,4204.231,0,0
475,15,0,3387,4188.846,4185.513,4192.564,4186.154,4168.846,4178.974,4177.308,4185.769,4184.359,4183.333,4177.0509999999995,4176.667,4187.9490000000005,4204.744000000001,0,0
476,16,0,0,4181.282,4175.385,4181.538,4182.179,4168.462,4172.0509999999995,4170.0,4174.487,4177.821,4180.897,4167.308,4172.0509999999995,4180.255999999999,4194.359,0,0
477,17,0,0,4183.59,4174.231,4191.41,4184.103,4175.0,4180.128,4169.359,4174.487,4175.513,4183.718,4174.231,4176.41,4181.923,4192.179,0,0
478,18,0,0,4193.846,4184.103,4195.769,4189.103,4170.255999999999,4186.667,4178.333,4184.359,4180.0,4182.692,4187.0509999999995,4181.282,4193.59,4200.897,0,0
479,19,0,0,4192.0509999999995,4184.487,4184.231,4191.154,4170.897,4187.436,4186.154,4182.821,4180.385,4182.692,4188.205,4180.128,4193.974,4202.436,0,0
480,20,0,0,4183.205,4176.41,4182.9490000000005,4183.205,4176.923,4188.077,4183.59,4172.9490000000005,4180.255999999999,4183.846,4187.179,4180.513,4187.9490000000005,4200.641,0,0
481,21,0,0,4181.154,4173.846,4186.538,4175.0,4169.744000000001,4180.897,4174.103,4169.103,4183.205,4175.385,4183.205,4179.359,4184.615,4197.692,0,0
482,22,0,0,4184.359,4177.9490000000005,4182.9490000000005,4178.077,4166.154,4174.615,4175.897,4176.026,4182.692,4177.9490000000005,4180.128,4177.436,4189.487,4194.744000000001,0,0
483,23,0,0,4183.974,4178.462,4181.41,4176.923,4174.487,4182.821,4181.282,4185.0,4182.0509999999995,4198.333,4185.385,4180.255999999999,4194.615,4191.538,0,0
484,24,0,0,4181.154,4173.205,4182.821,4170.513,4176.41,4190.255999999999,4176.154,4186.282,4184.615,4197.308,4182.821,4178.205,4187.821,4185.769,0,0
485,25,0,0,4182.692,4169.359,4181.667,4177.0509999999995,4170.385,4188.205,4174.744000000001,4185.0,4185.128,4182.436,4173.333,4177.9490000000005,4185.385,4186.154,0,0
486,26,0,0,4191.154,4178.974,4186.154,4189.231,4171.667,4187.564,4185.0,4189.231,4186.282,4194.744000000001,4182.308,4187.564,4201.795,4203.333,0,0
487,27,0,0,4193.846,4188.333,4189.744000000001,4189.231,4178.974,4184.359,4188.205,4189.103,4186.026,4202.9490000000005,4193.333,4187.564,4203.077,4210.385,0,0
488,28,0,0,4185.513,4183.462,4184.359,4183.333,4181.667,4179.231,4179.744000000001,4182.821,4180.769,4181.154,4185.513,4175.0,4181.154,4192.821,0,0
489,29,0,0,4187.179,4183.077,4186.026,4184.872,4183.462,4184.231,4181.923,4185.897,4182.564,4178.462,4184.231,4176.41,4182.9490000000005,4192.436,0,0
490,30,0,0,4189.744000000001,4186.538,4187.564,4185.769,4183.077,4185.128,4183.462,4186.282,4185.769,4194.615,4180.513,4179.103,4188.333,4198.718,0,0
491,31,0,0,4183.205,4182.0509999999995,4179.359,4183.718,4178.59,4177.9490000000005,4171.795,4175.385,4179.615,4186.282,4166.282,4166.923,4170.255999999999,4187.308,0,0
492,32,0,0,4186.795,4185.385,4176.795,4186.154,4182.821,4181.026,4170.897,4171.795,4176.923,4179.615,4174.231,4165.769,4169.103,4189.231,0,0
493,33,0,0,4195.513,4195.385,4179.615,4190.513,4184.615,4186.795,4177.564,4176.923,4183.205,4187.692,4188.59,4174.487,4185.385,4201.154,0,0
494,34,0,0,4189.103,4187.821,4169.231,4181.923,4169.487,4182.0509999999995,4170.897,4172.564,4183.974,4175.897,4172.436,4167.9490000000005,4181.154,4188.205,0,0
495,35,0,0,4180.897,4178.59,4166.795,4172.692,4165.641,4179.359,4169.744000000001,4171.026,4180.769,4169.103,4160.0,4161.538,4175.897,4174.487,0,0
496,36,0,0,4186.923,4185.128,4185.0,4179.359,4186.282,4187.179,4187.179,4185.769,4183.718,4192.692,4178.846,4172.9490000000005,4196.795,4190.513,0,0
497,37,0,0,4192.0509999999995,4186.154,4186.667,4187.308,4191.667,4191.154,4188.718,4192.308,4186.795,4202.179,4185.128,4177.179,4204.359,4196.282,0,0
498,38,0,0,4179.744000000001,4175.513,4171.41,4180.385,4172.692,4179.231,4171.923,4184.103,4183.974,4185.128,4171.795,4165.769,4189.872,4175.385,0,0
499,39,0,0,4167.564,4170.513,4168.846,4166.538,4163.333,4173.718,4168.718,4180.641,4182.564,4180.897,4167.692,4161.154,4190.641,4167.692,0,0
500,40,0,0,4175.0,4169.744000000001,4173.333,4163.974,4166.282,4179.872,4171.41,4182.564,4184.487,4187.436,4167.179,4165.897,4200.897,4179.615,0,0
501,41,0,0,4186.026,4172.436,4176.154,4174.231,4169.103,4177.821,4169.487,4182.0509999999995,4185.641,4190.255999999999,4169.872,4168.333,4201.282,4186.154,0,0
502,42,0,0,4185.255999999999,4183.333,4184.231,4185.769,4166.026,4174.231,4171.667,4182.436,4183.846,4200.255999999999,4183.333,4172.436,4200.128,4183.077,0,0
503,43,0,0,4185.255999999999,4188.974,4190.897,4188.077,4164.615,4181.795,4175.255999999999,4186.282,4183.205,4201.923,4193.077,4175.641,4202.0509999999995,4184.231,0,0
504,44,0,0,4187.308,4184.359,4185.897,4177.821,4177.179,4187.308,4170.897,4187.0509999999995,4185.641,4187.179,4181.026,4171.41,4201.538,4183.974,0,0
505,45,0,0,4187.9490000000005,4185.0,4185.0,4175.128,4190.897,4185.385,4171.026,4186.154,4187.564,4188.205,4172.821,4169.744000000001,4202.564,4182.0509999999995,0,0
506,46,0,0,4191.41,4190.255999999999,4193.205,4185.513,4190.513,4186.795,4179.744000000001,4187.436,4187.821,4202.821,4181.795,4176.923,4203.333,4186.538,0,0
507,47,0,0,4190.641,4189.103,4193.846,4189.359,4185.128,4187.436,4185.897,4187.692,4187.308,4207.308,4186.667,4177.9490000000005,4203.974,4186.923,0,0
508,48,0,0,4186.795,4187.821,4188.077,4191.795,4187.692,4184.744000000001,4183.718,4186.923,4185.769,4201.154,4183.077,4171.538,4204.872,4176.795,0,0
509,49,0,0,4186.154,4187.179,4184.359,4187.179,4184.359,4181.667,4175.128,4184.615,4184.103,4183.462,4181.923,4168.077,4193.333,4168.59,0,0
510,50,0,0,4186.154,4184.615,4185.128,4171.282,4179.872,4183.205,4173.974,4181.795,4184.231,4171.41,4185.128,4170.255999999999,4183.59,4174.744000000001,0,0
511,51,0,0,4192.9490000000005,4191.282,4192.308,4179.103,4196.026,4189.103,4184.359,4186.154,4185.769,4188.59,4184.872,4179.103,4194.103,4188.462,0,0
512,52,0,0,4201.923,4203.974,4200.897,4204.231,4205.128,4186.667,4189.359,4193.718,4187.692,4209.487,4181.795,4187.308,4203.077,4190.641,0,0
513,53,0,0,4202.179,4201.795,4200.128,4199.872,4188.333,4179.231,4183.077,4190.513,4186.923,4202.436,4186.538,4183.718,4197.9490000000005,4184.744000000001,0,0
514,54,0,0,4200.769,4188.205,4197.308,4183.59,4181.282,4183.846,4180.769,4183.974,4185.513,4191.923,4195.513,4176.795,4193.974,4185.0,0,0
515,55,0,0,4198.59,4185.255999999999,4197.821,4180.385,4194.487,4195.513,4186.667,4187.564,4184.231,4196.923,4193.974,4181.795,4191.282,4187.308,0,0
516,56,0,0,4190.0,4185.385,4189.744000000001,4176.795,4188.205,4192.179,4186.282,4188.59,4182.179,4187.436,4181.154,4185.255999999999,4183.974,4185.385,0,0
517,57,0,0,4187.179,4177.9490000000005,4186.795,4178.077,4171.795,4182.564,4187.179,4184.487,4183.59,4173.846,4178.462,4180.641,4187.308,4183.59,0,0
518,58,0,0,4198.846,4189.744000000001,4197.308,4188.974,4181.154,4186.41,4194.487,4189.103,4187.308,4194.744000000001,4192.564,4183.462,4198.974,4190.513,0,0
519,59,0,0,4202.564,4196.154,4203.59,4188.974,4194.487,4189.872,4197.308,4199.872,4188.077,4224.359,4206.41,4189.744000000001,4203.718,4203.205,0,0
520,60,0,0,4185.513,4168.077,4200.0,4177.692,4186.538,4187.0509999999995,4195.513,4200.255999999999,4186.282,4210.897,4199.487,4188.333,4201.667,4197.564,0,0
521,61,0,0,4182.179,4171.795,4198.462,4183.205,4180.513,4194.744000000001,4195.897,4191.795,4185.255999999999,4185.255999999999,4188.462,4189.359,4196.795,4183.718,0,0
522,62,0,0,4208.333,4229.872,4202.436,4207.692,4192.692,4200.641,4195.128,4189.103,4186.282,4188.077,4189.103,4192.308,4191.026,4191.41,0,0
523,63,0,0,4228.205,4270.385,4202.179,4220.255999999999,4199.872,4188.846,4184.615,4187.436,4183.077,4180.513,4178.462,4183.718,4181.538,4201.923,0,0
524,64,0,2659,4232.821,4299.103,4192.692,4219.615,4194.359,4180.769,4170.897,4174.487,4173.333,4148.59,4154.487,4172.308,4165.255999999999,4195.0,0,0
525,65,0,2895,4253.333,4362.9490000000005,4188.718,4237.308,4193.077,4183.846,4164.872,4167.0509999999995,4172.436,4134.359,4147.9490000000005,4172.692,4153.974,4197.9490000000005,0,0
526,66,0,3076,4293.077,4441.282,4205.897,4273.333,4209.487,4186.923,4171.923,4176.154,4184.103,4144.744000000001,4157.436,4182.0509999999995,4162.0509999999995,4224.744000000001,0,0
527,67,0,3113,4327.0509999999995,4508.462,4220.385,4297.308,4231.667,4185.641,4178.205,4179.615,4184.103,4143.59,4157.692,4188.718,4170.513,4248.077,0,0
528,68,0,3535,4342.564,4557.436,4213.59,4305.128,4235.255999999999,4183.333,4164.744000000001,4168.846,4171.026,4121.41,4141.667,4181.154,4154.231,4254.359,0,0
529,69,0,2207,4347.9490000000005,4591.795,4210.897,4312.436,4228.718,4185.385,4155.385,4165.897,4168.59,4111.282,4122.9490000000005,4174.872,4136.026,4250.0,0,0
530,70,0,2632,4360.641,4632.564,4219.103,4323.846,4234.615,4188.846,4165.897,4171.923,4173.718,4109.359,4109.872,4182.9490000000005,4136.923,4245.897,0,0
531,71,0,1805,4375.128,4668.974,4222.821,4330.513,4249.103,4187.179,4175.128,4170.897,4170.385,4101.538,4106.795,4187.0509999999995,4137.821,4250.897,0,0
532,72,0,1158,4371.795,4680.255999999999,4224.231,4338.462,4257.821,4185.769,4171.026,4168.846,4165.897,4096.667,4107.564,4178.718,4127.9490000000005,4253.333,0,0
533,73,0,3530,4355.0,4678.59,4224.103,4349.231,4262.0509999999995,4187.308,4167.564,4173.974,4167.692,4087.821,4102.436,4166.154,4121.154,4231.667,0,0
534,74,0,3201,4337.9490000000005,4675.128,4215.897,4342.436,4255.769,4187.179,4168.59,4169.359,4168.974,4076.923,4083.077,4157.692,4121.923,4197.308,0,0
535,75,0,3389,4323.205,4670.641,4209.359,4330.513,4246.538,4188.077,4168.333,4158.846,4168.718,4074.487,4066.538,4154.744000000001,4125.128,4182.692,0,0
536,76,0,3148,4303.846,4663.333,4206.795,4336.538,4251.538,4188.974,4167.692,4159.872,4167.436,4066.026,4069.744,4153.077,4123.462,4173.333,0,0
537,77,0,2284,4280.255999999999,4651.795,4199.872,4341.538,4260.897,4184.487,4165.641,4162.9490000000005,4163.462,4058.205,4075.0,4146.795,4116.923,4149.615,0,0
538,78,0,3201,4263.077,4644.487,4194.487,4334.359,4263.462,4181.667,4164.615,4158.846,4163.462,4074.615,4074.8720000000003,4144.872,4117.821,4134.231,0,0
539,79,0,3389,4250.385,4639.231,4190.769,4325.255999999999,4261.795,4186.282,4162.692,4157.821,4165.385,4085.0,4069.8720000000003,4146.538,4125.769,4127.0509999999995,0,0
540,80,0,3148,4234.615,4623.846,4183.846,4317.308,4249.615,4185.128,4152.0509999999995,4157.564,4157.9490000000005,4065.0,4053.8459999999995,4140.769,4122.9490000000005,4110.641,0,0
541,81,0,2284,4223.59,4606.667,4182.179,4309.872,4228.077,4175.897,4148.077,4151.41,4151.41,4053.59,4043.718,4132.179,4114.744000000001,4099.103,0,0
542,82,0,3201,4225.0,4598.846,4186.41,4310.385,4228.974,4177.9490000000005,4162.436,4155.897,4161.667,4061.41,4053.974,4132.179,4119.872,4103.59,0,0
543,83,0,3389,4223.077,4588.974,4185.128,4312.0509999999995,4253.333,4191.41,4173.718,4165.769,4168.846,4064.487,4064.744,4134.615,4127.436,4106.282,0,0
544,84,0,3148,4206.795,4564.231,4174.615,4302.564,4250.255999999999,4190.385,4169.231,4161.154,4161.026,4058.333,4060.7690000000002,4127.692,4124.744000000001,4089.744,0,0
545,85,0,2284,4195.128,4539.231,4167.821,4289.103,4220.0,4177.564,4161.282,4153.462,4155.385,4055.385,4058.462,4121.282,4120.897,4071.667,0,0
546,86,0,3201,4196.795,4533.077,4172.821,4286.41,4216.923,4178.205,4159.487,4154.103,4158.077,4066.1540000000005,4058.8459999999995,4125.513,4126.923,4078.718,0,0
547,87,0,3389,4202.564,4540.0,4184.359,4296.923,4237.9490000000005,4185.128,4164.359,4158.205,4161.923,4079.103,4060.256,4134.872,4132.308,4098.205,0,0
548,88,0,3148,4203.077,4534.487,4188.333,4298.077,4233.333,4180.897,4167.9490000000005,4155.897,4157.564,4080.0,4063.974,4140.128,4126.923,4095.256,0,0
549,89,0,2284,4195.128,4516.923,4180.255999999999,4283.718,4217.436,4180.255999999999,4167.0509999999995,4151.667,4151.923,4070.1279999999997,4066.1540000000005,4138.846,4119.615,4081.026,0,0
550,90,0,3201,4186.538,4504.487,4171.795,4278.205,4223.333,4183.59,4168.846,4159.359,4160.0,4069.487,4066.1540000000005,4131.41,4119.615,4086.026,0,0
551,91,0,3389,4183.846,4496.667,4170.769,4282.821,4225.513,4177.179,4167.179,4166.026,4167.9490000000005,4078.333,4057.308,4123.205,4123.462,4089.2309999999998,0,0
552,92,0,3148,4185.513,4489.872,4170.641,4282.0509999999995,4217.692,4175.641,4158.333,4159.359,4160.641,4073.077,4051.41,4120.128,4121.923,4077.692,0,0
553,93,0,2284,4182.692,4486.026,4167.692,4273.974,4221.154,4184.231,4160.385,4158.974,4152.564,4060.256,4056.1540000000005,4120.385,4114.103,4073.974,0,0
554,94,0,3201,4173.077,4475.128,4165.897,4265.897,4222.692,4185.385,4167.436,4164.872,4155.128,4054.487,4052.051,4117.821,4110.769,4073.077,0,0
555,95,0,3389,4167.821,4464.487,4168.846,4264.872,4218.718,4186.026,4168.077,4163.718,4163.077,4063.974,4047.949,4117.564,4118.333,4075.1279999999997,0,0
556,96,0,3148,4172.9490000000005,4465.0,4167.692,4267.692,4220.255999999999,4185.897,4170.385,4165.385,4169.487,4079.487,4059.103,4119.872,4127.564,4084.744,0,0
557,97,0,2284,4171.41,4456.41,4154.744000000001,4262.692,4215.385,4174.615,4170.385,4170.255999999999,4168.846,4076.282,4064.103,4116.41,4125.385,4080.256,0,0
558,98,0,3201,4163.462,4441.41,4147.821,4257.308,4208.846,4170.385,4166.795,4166.282,4164.103,4063.974,4058.205,4115.0,4118.974,4065.256,0,0
559,99,0,3389,4172.179,4445.513,4163.846,4262.308,4214.744000000001,4183.077,4168.462,4164.615,4165.641,4075.7690000000002,4066.026,4126.538,4125.897,4075.6409999999996,0,0
560,100,0,3148,4182.821,4448.59,4180.255999999999,4268.205,4218.077,4190.641,4171.667,4170.385,4172.821,4098.974,4080.0,4137.179,4139.487,4094.8720000000003,0,0
561,101,0,2284,4176.538,4434.872,4176.667,4262.564,4213.462,4178.846,4169.744000000001,4170.897,4170.385,4095.897,4075.385,4136.026,4135.385,4093.974,0,0
562,102,0,3201,4167.308,4421.41,4166.923,4251.923,4205.128,4168.077,4166.538,4167.436,4158.333,4075.897,4058.974,4128.718,4119.487,4087.4359999999997,0,0
563,103,0,3389,4169.487,4417.564,4168.462,4253.974,4200.0,4175.641,4165.385,4164.872,4155.0,4076.1540000000005,4062.692,4125.769,4122.564,4093.718,0,0
564,104,0,3148,4181.923,4418.59,4176.41,4259.872,4207.179,4186.538,4169.487,4169.103,4167.9490000000005,4090.6409999999996,4088.8459999999995,4132.821,4139.872,4106.538,0,0
565,105,0,2284,4191.026,4416.154,4176.795,4254.231,4213.846,4185.128,4173.59,4172.564,4172.821,4089.615,4093.974,4140.769,4144.231,4105.641,0,0
566,106,0,3201,4184.744000000001,4407.692,4170.255999999999,4248.462,4213.974,4180.255999999999,4170.513,4166.923,4159.359,4079.487,4074.615,4137.0509999999995,4138.077,4094.2309999999998,0,0
567,107,0,3389,4171.795,4401.026,4165.385,4252.0509999999995,4216.667,4181.41,4169.744000000001,4162.692,4155.255999999999,4084.8720000000003,4062.821,4127.9490000000005,4137.9490000000005,4092.051,0,0
568,108,0,3148,4170.385,4398.462,4165.385,4253.462,4212.308,4184.231,4174.487,4165.769,4165.255999999999,4092.051,4064.2309999999998,4128.59,4141.282,4096.538,0,0
569,109,0,2284,4174.872,4394.872,4168.974,4251.667,4205.128,4184.487,4176.41,4169.231,4170.128,4090.513,4076.795,4134.872,4142.692,4103.59,0,0
570,110,0,3201,4173.718,4391.538,4170.255999999999,4250.641,4205.513,4181.026,4172.0509999999995,4170.385,4166.795,4093.462,4087.179,4137.308,4145.0,4108.846,0,0
571,111,0,3389,4169.359,4389.103,4165.0,4246.282,4206.41,4182.9490000000005,4167.564,4169.487,4164.359,4098.205,4084.744,4132.9490000000005,4145.897,4109.615,0,0
572,112,0,3148,4170.513,4382.9490000000005,4162.692,4245.128,4201.667,4183.462,4168.718,4165.513,4166.538,4097.9490000000005,4077.4359999999997,4130.513,4143.205,4113.462,0,0
573,113,0,2284,4172.692,4375.255999999999,4162.436,4246.026,4200.513,4172.179,4170.0,4164.231,4167.821,4097.0509999999995,4076.795,4130.385,4143.846,4119.359,0,0
574,114,0,3201,4167.821,4369.744000000001,4159.359,4246.154,4205.769,4171.923,4167.821,4169.103,4168.59,4102.564,4082.4359999999997,4128.205,4149.487,4118.333,0,0
575,115,0,3389,4166.282,4368.205,4163.333,4243.974,4208.333,4184.872,4170.0,4172.179,4168.462,4118.59,4089.103,4130.255999999999,4158.846,4119.615,0,0
576,116,0,3148,4172.821,4365.255999999999,4170.255999999999,4237.436,4205.385,4184.615,4172.436,4170.769,4169.103,4125.255999999999,4102.179,4136.41,4168.718,4133.205,0,0
577,117,0,2284,4173.462,4359.872,4168.718,4232.308,4197.436,4178.974,4167.308,4170.385,4168.846,4112.436,4106.154,4136.41,4170.255999999999,4137.9490000000005,0,0
578,118,0,3201,4167.9490000000005,4354.872,4166.026,4232.308,4196.923,4187.564,4166.667,4172.308,4167.0509999999995,4110.255999999999,4090.897,4131.923,4168.718,4132.0509999999995,0,0
579,119,0,3389,4169.744000000001,4352.692,4169.615,4233.077,4204.744000000001,4186.795,4170.769,4172.0509999999995,4166.923,4124.744000000001,4083.718,4134.615,4171.154,4132.179,0,0
580,120,0,3148,4171.41,4345.641,4169.103,4232.9490000000005,4197.0509999999995,4168.205,4167.821,4169.744000000001,4166.923,4124.872,4092.179,4136.154,4169.103,4130.769,0,0
581,121,0,2284,4166.667,4330.513,4167.0509999999995,4231.282,4183.462,4168.59,4167.308,4169.103,4166.923,4117.179,4091.795,4134.872,4166.41,4125.385,0,0
582,122,0,3201,4168.205,4328.333,4171.538,4232.308,4191.282,4184.872,4174.487,4172.179,4171.154,4121.923,4091.41,4135.769,4172.179,4126.282,0,0
583,123,0,3389,4170.0,4338.974,4172.564,4235.385,4202.692,4181.923,4171.923,4171.538,4170.255999999999,4122.308,4096.282,4131.282,4167.564,4128.59,0,0
584,124,0,3148,4159.744000000001,4342.821,4162.0509999999995,4227.692,4190.0,4169.231,4160.513,4163.333,4160.128,4108.077,4084.103,4122.692,4148.205,4119.744000000001,0,0
585,125,0,2284,4153.974,4346.538,4159.103,4222.0509999999995,4181.154,4167.0509999999995,4154.359,4158.333,4160.513,4101.538,4079.3590000000004,4127.821,4144.487,4117.564,0,0
586,126,0,3201,4158.59,4356.795,4171.282,4236.795,4194.359,4172.179,4155.513,4158.077,4167.821,4111.923,4095.385,4137.821,4153.59,4128.077,0,0
587,127,0,53,4155.385,4352.179,4169.615,4243.333,4204.872,4180.128,4156.026,4155.769,4161.41,4118.462,4090.385,4130.255999999999,4148.462,4123.077,0,0
588,0,0,2669,4151.538,4342.9490000000005,4157.692,4235.769,4201.667,4180.641,4156.538,4155.641,4152.821,4109.103,4074.103,4123.718,4147.436,4112.308,0,0
589,1,0,2907,4154.487,4343.205,4157.0509999999995,4232.821,4190.0,4169.872,4158.718,4155.385,4154.744000000001,4093.718,4075.1279999999997,4127.564,4152.564,4109.487,0,0
590,2,0,3094,4149.103,4333.846,4158.077,4222.9490000000005,4184.359,4166.923,4161.282,4151.795,4155.769,4091.923,4081.41,4125.128,4142.436,4106.667,0,0
591,3,0,3126,4150.128,4327.308,4160.0,4218.846,4194.872,4177.692,4168.974,4157.308,4160.0,4110.897,4087.051,4126.923,4143.333,4113.718,0,0
592,4,0,3544,4164.359,4332.9490000000005,4168.974,4237.436,4205.897,4184.103,4173.462,4169.359,4169.359,4127.436,4093.462,4138.077,4161.282,4130.641,0,0
593,5,0,2207,4165.0,4332.436,4172.308,4245.385,4199.231,4183.333,4170.385,4170.513,4169.487,4122.692,4094.103,4138.333,4160.897,4133.59,0,0
594,6,0,2637,4153.718,4320.641,4168.077,4231.538,4184.359,4183.59,4177.436,4168.205,4165.385,4110.513,4091.795,4128.718,4149.744000000001,4123.462,0,0
595,7,0,1805,4151.538,4312.692,4163.974,4221.026,4183.59,4181.41,4184.103,4169.615,4163.077,4106.795,4092.692,4126.154,4151.667,4121.923,0,0
596,8,0,1159,4153.462,4310.255999999999,4158.077,4217.179,4188.59,4173.333,4175.641,4167.436,4162.179,4102.308,4089.3590000000004,4129.872,4153.59,4123.846,0,0
597,9,0,3539,4153.974,4311.282,4156.923,4217.821,4188.333,4170.128,4175.385,4169.872,4166.538,4104.615,4088.462,4134.103,4155.769,4123.077,0,0
598,10,0,3210,4150.128,4307.9490000000005,4157.308,4216.41,4185.0,4179.359,4183.718,4175.897,4169.103,4118.974,4093.59,4132.179,4158.846,4116.41,0,0
599,11,0,3398,4142.308,4294.744000000001,4151.41,4211.026,4184.359,4183.333,4174.231,4172.821,4166.538,4123.974,4089.2309999999998,4125.385,4155.255999999999,4104.359,0,0
600,12,0,3153,4147.564,4294.359,4159.103,4222.9490000000005,4193.974,4184.487,4171.026,4171.026,4169.744000000001,4123.077,4095.0,4132.436,4159.615,4113.846,0,0
601,13,0,2291,4153.333,4299.231,4168.333,4227.308,4197.179,4188.718,4180.513,4174.744000000001,4171.667,4127.0509999999995,4107.692,4137.0509999999995,4163.846,4128.718,0,0
602,14,0,3210,4142.0509999999995,4286.795,4158.333,4200.897,4188.846,4180.513,4173.846,4172.308,4166.154,4122.179,4094.8720000000003,4127.821,4152.692,4118.333,0,0
603,15,0,3398,4142.436,4281.282,4158.846,4195.641,4195.513,4172.9490000000005,4168.205,4168.59,4164.615,4120.255999999999,4088.59,4130.769,4150.0,4114.359,0,0
604,16,0,0,4156.41,4296.282,4173.333,4219.231,4205.641,4180.897,4176.026,4170.513,4167.0509999999995,4130.641,4115.0,4141.026,4161.538,4126.667,0,0
605,17,0,0,4157.179,4300.255999999999,4168.462,4223.974,4196.026,4186.795,4176.154,4171.026,4168.205,4129.744000000001,4124.103,4139.231,4161.795,4129.487,0,0
606,18,0,0,4152.436,4284.231,4157.821,4212.821,4186.41,4180.0,4169.231,4168.59,4168.462,4125.0,4105.513,4134.744000000001,4153.333,4127.436,0,0
607,19,0,0,4152.821,4274.231,4162.0509999999995,4211.538,4187.564,4177.0509999999995,4168.718,4167.179,4168.205,4134.231,4101.538,4135.641,4153.59,4128.846,0,0
608,20,0,0,4153.205,4275.513,4170.255999999999,4214.231,4193.462,4182.308,4169.744000000001,4166.538,4168.974,4139.615,4109.487,4139.615,4154.231,4125.0,0,0
609,21,0,0,4159.103,4280.128,4176.923,4218.077,4204.359,4186.154,4171.795,4169.359,4170.897,4135.385,4109.487,4147.308,4155.128,4125.255999999999,0,0
610,22,0,0,4167.179,4283.59,4177.692,4223.077,4203.974,4183.718,4175.897,4172.9490000000005,4170.769,4138.077,4107.9490000000005,4149.359,4160.128,4135.641,0,0
611,23,0,0,4170.897,4283.846,4178.333,4220.641,4200.128,4180.769,4174.872,4173.333,4169.359,4142.436,4113.846,4146.923,4163.718,4142.308,0,0
612,24,0,0,4166.538,4278.974,4180.0,4214.744000000001,4202.821,4184.231,4171.795,4171.282,4169.487,4139.487,4122.179,4146.667,4164.103,4136.667,0,0
613,25,0,0,4153.077,4267.692,4173.333,4213.846,4188.59,4183.077,4170.0,4169.744000000001,4169.103,4134.872,4118.59,4141.667,4160.0,4125.641,0,0
614,26,0,0,4148.59,4260.897,4167.308,4216.282,4173.205,4175.0,4171.538,4169.872,4169.359,4138.974,4109.103,4131.795,4155.769,4123.205,0,0
615,27,0,0,4149.487,4255.128,4164.744000000001,4208.718,4176.154,4167.308,4164.744000000001,4163.974,4165.385,4142.9490000000005,4102.564,4127.436,4152.821,4123.333,0,0
616,28,0,0,4142.0509999999995,4245.897,4159.872,4194.359,4178.333,4168.718,4156.154,4157.692,4161.923,4133.846,4106.026,4130.255999999999,4150.513,4121.667,0,0
617,29,0,0,4148.846,4253.974,4164.872,4197.9490000000005,4187.821,4181.667,4171.154,4170.641,4166.667,4141.667,4128.077,4144.615,4161.667,4138.974,0,0
618,30,0,0,4170.255999999999,4268.462,4175.0,4208.205,4203.718,4193.205,4187.564,4185.385,4172.308,4163.974,4139.615,4154.872,4178.462,4156.026,0,0
619,31,0,0,4166.41,4257.179,4166.667,4200.255999999999,4196.154,4183.59,4175.385,4174.487,4169.231,4151.282,4124.231,4142.9490000000005,4170.128,4142.9490000000005,0,0
620,32,0,0,4151.795,4244.231,4163.333,4198.846,4182.9490000000005,4168.718,4165.0,4164.487,4166.538,4131.154,4117.564,4135.897,4157.821,4133.333,0,0
621,33,0,0,4155.0,4249.231,4171.026,4209.744000000001,4186.667,4174.231,4173.333,4173.333,4169.359,4146.026,4125.641,4144.103,4167.9490000000005,4141.538,0,0
622,34,0,0,4159.103,4250.513,4168.718,4207.692,4193.077,4184.744000000001,4172.821,4172.308,4170.513,4157.9490000000005,4128.333,4144.231,4170.0,4142.692,0,0
623,35,0,0,4170.0,4255.897,4176.026,4213.205,4205.385,4186.795,4175.513,4170.769,4170.513,4159.615,4136.667,4148.077,4170.897,4154.359,0,0
624,36,0,0,4185.641,4269.103,4191.538,4230.641,4214.103,4185.769,4190.0,4180.128,4172.436,4176.538,4146.667,4163.59,4188.59,4177.564,0,0
625,37,0,0,4180.128,4265.897,4185.0,4226.026,4204.615,4184.615,4185.769,4177.436,4172.9490000000005,4175.255999999999,4140.385,4160.897,4189.359,4171.026,0,0
626,38,0,0,4161.538,4251.795,4170.641,4214.231,4197.9490000000005,4185.128,4169.744000000001,4166.538,4170.255999999999,4153.59,4133.59,4144.359,4170.897,4145.385,0,0
627,39,0,0,4157.0509999999995,4246.026,4170.0,4214.872,4204.231,4183.333,4168.718,4166.026,4166.41,4147.179,4136.026,4145.0,4166.795,4138.077,0,0
628,40,0,0,4163.077,4243.718,4172.179,4208.59,4202.9490000000005,4174.487,4171.923,4166.923,4165.641,4150.897,4137.9490000000005,4148.718,4169.615,4138.333,0,0
629,41,0,0,4166.154,4242.821,4170.128,4208.333,4187.692,4166.026,4166.795,4164.359,4167.9490000000005,4156.282,4137.821,4140.769,4165.641,4135.128,0,0
630,42,0,0,4169.744000000001,4249.615,4171.923,4219.744000000001,4181.923,4174.872,4169.872,4168.846,4170.385,4167.0509999999995,4136.154,4143.333,4168.59,4139.487,0,0
631,43,0,0,4168.462,4248.462,4172.179,4211.282,4194.872,4185.385,4177.9490000000005,4172.308,4170.128,4167.179,4123.205,4151.282,4171.795,4138.846,0,0
632,44,0,0,4162.0509999999995,4229.359,4170.513,4195.513,4202.0509999999995,4183.333,4174.359,4169.359,4167.0509999999995,4160.255999999999,4118.462,4148.077,4169.487,4132.821,0,0
633,45,0,0,4168.59,4217.692,4173.846,4200.641,4195.385,4181.41,4173.333,4173.333,4167.821,4170.385,4150.513,4149.103,4173.718,4151.41,0,0
634,46,0,0,4195.0,4221.41,4182.308,4209.231,4197.9490000000005,4185.513,4186.154,4184.103,4177.308,4191.154,4189.487,4161.667,4185.255999999999,4190.255999999999,0,0
635,47,0,0,4225.128,4209.487,4189.487,4201.026,4201.282,4187.179,4192.692,4188.333,4184.615,4205.641,4204.103,4171.41,4196.41,4221.667,0,0
636,48,0,0,4247.692,4181.667,4191.667,4189.872,4184.872,4184.359,4186.923,4184.615,4184.103,4213.205,4212.9490000000005,4177.308,4198.462,4246.154,0,0
637,49,0,0,4268.718,4165.0,4190.255999999999,4183.077,4168.59,4181.795,4184.103,4183.333,4182.692,4218.333,4228.333,4185.128,4192.9490000000005,4271.026,0,0
638,50,0,0,4289.231,4152.564,4192.564,4174.103,4164.359,4181.667,4185.0,4184.872,4182.564,4231.41,4247.436,4189.744000000001,4196.923,4293.974,0,0
639,51,0,0,4310.769,4132.436,4204.103,4170.128,4162.821,4186.282,4188.59,4185.769,4182.564,4257.436,4274.615,4201.154,4216.026,4323.462,0,0
640,52,0,0,4332.692,4107.564,4218.846,4172.692,4165.385,4189.872,4195.255999999999,4191.282,4190.255999999999,4284.231,4293.718,4220.769,4229.615,4356.923,0,0
641,53,0,0,4346.026,4077.308,4222.564,4163.59,4168.59,4187.436,4198.077,4197.9490000000005,4197.436,4295.897,4303.462,4232.821,4230.255999999999,4379.487,0,0
642,54,0,0,4345.128,4038.974,4220.769,4143.205,4164.103,4184.872,4198.718,4198.59,4197.308,4299.872,4325.513,4234.359,4235.641,4393.077,0,0
643,55,0,0,4333.846,3999.487,4224.744000000001,4135.897,4149.359,4183.846,4200.385,4199.359,4198.462,4310.128,4344.744000000001,4237.9490000000005,4247.821,4401.154,0,0
644,56,0,0,4322.692,3962.051,4225.385,4131.026,4131.026,4183.974,4199.487,4202.0509999999995,4195.769,4318.462,4344.231,4239.103,4249.872,4398.333,0,0
645,57,0,0,4310.641,3923.59,4216.282,4106.667,4124.487,4181.026,4196.923,4200.513,4191.538,4319.615,4342.308,4234.359,4244.872,4384.615,0,0
646,58,0,0,4296.795,3894.8720000000003,4210.769,4093.462,4133.205,4180.897,4199.872,4204.103,4197.692,4331.154,4349.231,4232.821,4259.872,4377.308,0,0
647,59,0,0,4284.615,3878.333,4216.538,4105.0,4140.255999999999,4190.385,4205.0,4211.667,4204.359,4350.641,4354.872,4235.641,4279.487,4377.0509999999995,0,0
648,60,0,0,4265.255999999999,3862.5640000000003,4216.795,4104.103,4139.615,4193.077,4203.333,4209.872,4201.667,4353.077,4347.821,4230.641,4272.179,4357.564,0,0
649,61,0,0,4239.744000000001,3850.256,4205.513,4087.949,4132.821,4182.436,4199.359,4203.333,4201.923,4340.255999999999,4331.795,4222.436,4260.385,4328.333,0,0
650,62,0,0,4230.641,3854.3590000000004,4200.128,4088.974,4128.205,4182.179,4201.154,4205.769,4204.487,4336.923,4323.846,4220.255999999999,4263.59,4317.179,0,0
651,63,0,0,4231.667,3863.077,4201.154,4095.897,4134.615,4190.385,4203.718,4212.0509999999995,4202.436,4341.026,4330.513,4218.718,4264.231,4316.667,0,0
652,64,0,2669,4222.436,3864.2309999999998,4199.872,4091.923,4138.333,4188.077,4202.436,4211.667,4202.0509999999995,4335.128,4329.487,4215.255999999999,4264.487,4307.436,0,0
653,65,0,2911,4210.641,3858.205,4197.9490000000005,4087.692,4126.795,4183.077,4196.154,4204.487,4201.41,4319.615,4310.385,4212.308,4263.333,4295.513,0,0
654,66,0,3089,4209.231,3851.923,4198.974,4089.2309999999998,4121.026,4182.9490000000005,4193.718,4197.9490000000005,4199.744000000001,4307.308,4300.513,4211.282,4252.0509999999995,4288.974,0,0
655,67,0,3156,4220.897,3866.026,4202.9490000000005,4100.385,4135.769,4184.231,4203.333,4201.923,4202.179,4316.41,4313.718,4223.59,4252.9490000000005,4296.282,0,0
656,68,0,3545,4227.9490000000005,3883.8459999999995,4206.538,4106.667,4145.769,4183.333,4209.103,4206.923,4204.103,4336.282,4323.846,4230.513,4269.487,4305.769,0,0
657,69,0,2209,4211.282,3872.692,4201.282,4095.7690000000002,4131.282,4171.538,4200.128,4200.513,4200.897,4329.231,4312.179,4215.513,4265.255999999999,4292.692,0,0
658,70,0,2637,4194.487,3859.2309999999998,4192.692,4088.718,4117.179,4164.487,4195.641,4201.026,4199.487,4311.41,4300.513,4203.974,4248.718,4273.974,0,0
659,71,0,1806,4199.359,3871.538,4190.769,4094.103,4131.282,4179.103,4205.897,4213.718,4203.205,4318.333,4304.615,4206.667,4253.718,4275.128,0,0
660,72,0,1159,4202.179,3882.179,4187.564,4096.41,4144.103,4190.385,4213.59,4219.103,4205.513,4323.462,4302.179,4206.795,4265.128,4277.308,0,0
661,73,0,3530,4192.0509999999995,3878.333,4182.436,4088.077,4131.154,4182.564,4213.462,4212.564,4203.077,4309.487,4296.154,4203.205,4261.667,4270.128,0,0
662,74,0,3202,4185.641,3872.179,4181.154,4078.077,4119.872,4178.59,4208.718,4211.41,4200.385,4305.0,4292.692,4200.769,4252.821,4259.487,0,0
663,75,0,3385,4181.538,3868.077,4178.846,4078.462,4126.41,4183.205,4201.538,4214.615,4199.487,4307.564,4285.0,4196.41,4245.897,4250.513,0,0
664,76,0,3133,4179.103,3871.795,4179.487,4090.6409999999996,4133.846,4185.128,4205.897,4212.179,4199.872,4302.564,4285.385,4200.769,4243.846,4253.462,0,0
665,77,0,2283,4188.333,3885.7690000000002,4185.897,4096.154,4136.282,4186.41,4212.9490000000005,4212.0509999999995,4203.205,4302.179,4297.179,4208.205,4248.205,4265.385,0,0
666,78,0,3202,4196.667,3895.385,4187.564,4091.795,4137.0509999999995,4186.923,4206.538,4213.974,4204.744000000001,4306.282,4300.0,4210.641,4253.077,4268.974,0,0
667,79,0,3385,4191.795,3894.487,4185.0,4092.4359999999997,4134.615,4183.718,4198.718,4208.59,4201.41,4302.564,4295.0,4212.821,4248.974,4265.0,0,0
668,80,0,3133,4184.231,3891.538,4185.385,4092.179,4135.0,4183.59,4201.282,4200.769,4200.128,4295.897,4293.846,4208.077,4243.59,4262.308,0,0
669,81,0,2283,4185.513,3894.103,4185.255999999999,4089.615,4135.385,4183.333,4203.846,4200.255999999999,4202.0509999999995,4290.641,4283.333,4200.513,4243.718,4261.923,0,0
670,82,0,3202,4193.462,3904.615,4187.9490000000005,4098.205,4134.359,4183.077,4204.744000000001,4203.974,4202.179,4289.487,4279.744000000001,4202.436,4248.205,4262.308,0,0
671,83,0,3385,4200.769,3911.538,4194.103,4109.744000000001,4142.0509999999995,4195.0,4207.821,4205.641,4202.564,4300.0,4293.205,4212.821,4251.923,4262.0509999999995,0,0
672,84,0,3133,4200.0,3910.7690000000002,4193.077,4108.077,4152.308,4201.667,4204.615,4205.0,4204.103,4310.255999999999,4299.103,4217.9490000000005,4250.897,4263.846,0,0
673,85,0,2283,4192.436,3912.051,4187.564,4102.9490000000005,4157.179,4188.974,4197.9490000000005,4201.923,4202.9490000000005,4300.128,4292.821,4212.9490000000005,4248.077,4263.974,0,0
674,86,0,3202,4186.795,3912.5640000000003,4185.128,4107.179,4155.641,4180.641,4196.282,4198.205,4200.385,4284.487,4282.564,4202.0509999999995,4245.385,4252.9490000000005,0,0
675,87,0,3385,4185.385,3911.41,4183.59,4106.154,4148.974,4188.205,4197.436,4197.436,4201.026,4281.923,4275.513,4197.821,4243.205,4245.255999999999,0,0
676,88,0,3133,4185.769,3917.5640000000003,4183.462,4101.923,4148.205,4191.923,4198.333,4199.231,4201.538,4283.077,4275.641,4201.154,4245.128,4250.128,0,0
677,89,0,2283,4186.41,3926.282,4186.154,4107.179,4150.0,4187.564,4198.718,4200.641,4199.103,4281.41,4279.359,4201.538,4245.0,4251.667,0,0
678,90,0,3202,4185.897,3928.077,4185.513,4110.128,4143.718,4185.128,4197.308,4199.103,4198.59,4281.026,4279.487,4195.641,4236.154,4247.308,0,0
679,91,0,3385,4184.872,3925.256,4181.154,4105.897,4140.0,4183.974,4193.59,4197.0509999999995,4199.615,4274.872,4275.897,4192.436,4224.103,4244.103,0,0
680,92,0,3133,4182.821,3925.1279999999997,4180.897,4110.128,4152.9490000000005,4185.385,4194.359,4199.615,4199.103,4272.9490000000005,4267.0509999999995,4198.077,4223.462,4244.487,0,0
681,93,0,2283,4183.974,3933.205,4181.667,4117.9490000000005,4165.0,4187.564,4201.923,4203.077,4198.974,4285.769,4263.077,4204.615,4232.564,4248.846,0,0
682,94,0,3202,4181.026,3935.385,4174.231,4106.41,4152.436,4186.154,4199.872,4198.59,4195.385,4273.846,4267.0509999999995,4197.9490000000005,4230.255999999999,4242.9490000000005,0,0
683,95,0,3385,4172.9490000000005,3925.897,4167.564,4095.0,4136.667,4181.795,4187.692,4193.333,4192.9490000000005,4242.179,4263.462,4190.513,4219.103,4228.077,0,0
684,96,0,3133,4172.436,3929.103,4171.795,4104.744000000001,4143.205,4183.077,4185.897,4196.154,4198.462,4253.077,4263.077,4195.128,4215.255999999999,4229.231,0,0
685,97,0,2283,4174.487,3942.051,4175.513,4111.538,4149.231,4187.821,4189.744000000001,4199.744000000001,4198.718,4283.59,4270.513,4199.231,4220.0,4236.154,0,0
686,98,0,3202,4168.718,3941.026,4174.231,4103.846,4140.255999999999,4185.641,4189.872,4194.872,4191.795,4271.282,4269.615,4194.615,4224.744000000001,4230.385,0,0
687,99,0,3385,4172.564,3942.5640000000003,4180.385,4104.103,4138.205,4182.564,4194.615,4195.255999999999,4195.897,4254.103,4263.205,4195.641,4229.744000000001,4233.846,0,0
688,100,0,3133,4181.41,3954.2309999999998,4188.59,4109.744000000001,4146.41,4184.103,4196.41,4197.179,4202.436,4270.385,4262.0509999999995,4200.769,4233.718,4248.718,0,0
689,101,0,2283,4178.846,3954.615,4184.103,4106.667,4149.231,4181.154,4187.179,4190.0,4198.205,4273.333,4264.359,4196.923,4231.026,4249.744000000001,0,0
690,102,0,3202,4174.103,3949.744,4174.744000000001,4105.641,4149.103,4176.282,4180.255999999999,4184.359,4193.846,4252.9490000000005,4265.641,4189.744000000001,4222.436,4245.641,0,0
691,103,0,3385,4172.308,3953.59,4170.385,4107.9490000000005,4149.103,4181.667,4182.0509999999995,4183.974,4188.974,4252.564,4263.077,4189.359,4215.513,4249.744000000001,0,0
692,104,0,3133,4173.462,3959.3590000000004,4174.359,4110.641,4150.513,4187.564,4189.103,4188.974,4188.718,4262.821,4257.9490000000005,4192.436,4224.487,4248.462,0,0
693,105,0,2283,4182.692,3970.0,4184.487,4118.205,4156.154,4185.385,4197.564,4197.692,4199.231,4256.667,4258.077,4195.385,4237.179,4244.615,0,0
694,106,0,3202,4190.769,3982.821,4190.128,4126.282,4157.308,4185.128,4200.769,4203.333,4199.231,4250.0,4256.923,4197.692,4236.538,4248.974,0,0
695,107,0,3385,4182.308,3978.462,4188.846,4123.59,4157.692,4187.0509999999995,4197.0509999999995,4198.333,4189.872,4247.821,4245.385,4193.205,4233.59,4248.718,0,0
696,108,0,3133,4175.128,3970.1279999999997,4185.641,4116.667,4156.795,4184.359,4191.923,4191.154,4192.9490000000005,4248.59,4245.385,4189.872,4228.205,4245.513,0,0
697,109,0,2283,4182.179,3980.897,4186.795,4125.128,4157.692,4185.385,4188.205,4190.513,4203.846,4254.103,4259.359,4195.255999999999,4221.026,4251.154,0,0
698,110,0,3202,4187.9490000000005,3992.4359999999997,4189.615,4139.872,4163.333,4188.846,4190.641,4190.897,4198.333,4257.821,4259.231,4198.333,4219.103,4254.872,0,0
699,111,0,3385,4183.718,3987.179,4187.0509999999995,4134.487,4159.744000000001,4185.0,4195.897,4188.846,4184.615,4245.641,4247.436,4193.205,4215.128,4246.538,0,0
700,112,0,3133,4179.872,3987.308,4183.077,4120.513,4157.0509999999995,4184.103,4197.9490000000005,4190.128,4187.821,4231.923,4245.769,4192.179,4213.462,4241.154,0,0
701,113,0,2283,4186.538,4001.923,4186.282,4126.795,4169.744000000001,4190.769,4202.0509999999995,4200.128,4201.026,4243.718,4250.385,4196.923,4222.436,4249.872,0,0
702,114,0,3202,4184.359,4002.692,4187.436,4130.897,4172.436,4187.0509999999995,4197.0509999999995,4198.846,4196.41,4250.769,4250.0,4193.974,4223.59,4250.0,0,0
703,115,0,3385,4173.205,3989.615,4181.282,4119.744000000001,4155.897,4180.769,4185.255999999999,4186.154,4181.795,4236.41,4251.41,4190.897,4211.923,4237.0509999999995,0,0
704,116,0,3133,4176.154,3993.462,4181.538,4125.128,4152.821,4192.692,4189.103,4190.513,4184.487,4239.487,4251.795,4196.282,4213.077,4236.538,0,0
705,117,0,2283,4185.385,4012.4359999999997,4188.846,4138.462,4168.718,4199.487,4201.154,4201.667,4193.333,4253.205,4249.744000000001,4198.718,4222.821,4248.462,0,0
706,118,0,3202,4179.872,4011.41,4187.179,4130.0,4174.231,4186.41,4201.41,4194.359,4188.974,4240.385,4245.769,4192.436,4216.923,4246.154,0,0
707,119,0,3385,4167.564,3993.205,4180.769,4116.41,4157.564,4179.487,4194.744000000001,4182.821,4182.692,4222.9490000000005,4234.615,4189.487,4203.718,4233.718,0,0
708,120,0,3133,4167.179,3996.667,4182.179,4120.0,4147.564,4185.255999999999,4191.923,4186.154,4185.255999999999,4229.231,4236.026,4189.487,4200.128,4230.897,0,0
709,121,0,2283,4176.538,4012.692,4183.59,4128.974,4161.538,4189.359,4188.077,4191.026,4189.231,4235.0,4248.974,4190.255999999999,4201.795,4231.667,0,0
710,122,0,3202,4186.282,4014.103,4183.974,4137.436,4165.897,4187.9490000000005,4187.179,4189.103,4187.692,4231.41,4243.846,4193.718,4201.923,4235.897,0,0
711,123,0,3385,4184.103,4010.7690000000002,4191.667,4137.0509999999995,4153.974,4184.872,4190.769,4188.462,4185.255999999999,4223.077,4234.872,4196.41,4201.026,4244.872,0,0
712,124,0,3133,4174.487,4015.7690000000002,4197.308,4125.0,4158.205,4190.0,4191.538,4190.0,4186.795,4220.0,4246.667,4197.179,4203.974,4245.385,0,0
713,125,0,2283,4180.513,4020.513,4197.179,4126.538,4168.974,4196.923,4190.0,4188.974,4190.255999999999,4235.641,4250.385,4199.872,4208.462,4243.974,0,0
714,126,0,3202,4185.513,4020.7690000000002,4193.59,4138.205,4158.462,4187.436,4185.128,4189.487,4189.744000000001,4241.923,4235.255999999999,4197.564,4207.821,4243.718,0,0
715,127,0,53,4174.487,4020.256,4187.179,4136.667,4148.974,4177.9490000000005,4182.308,4190.128,4187.179,4234.744000000001,4233.846,4192.0509999999995,4202.0509999999995,4238.333,0,0
716,0,0,2671,4167.179,4016.795,4183.205,4133.59,4156.41,4185.255999999999,4184.231,4186.538,4187.179,4231.667,4235.769,4191.282,4199.615,4230.128,0,0
717,1,0,2917,4168.462,4016.538,4184.872,4136.41,4155.769,4186.538,4186.026,4183.974,4187.9490000000005,4217.564,4229.231,4190.513,4200.897,4225.641,0,0
718,2,0,3088,4168.846,4020.513,4186.026,4130.641,4149.359,4184.744000000001,4187.821,4186.667,4187.0509999999995,4206.154,4232.821,4190.128,4206.154,4227.179,0,0
719,3,0,3144,4164.359,4020.897,4185.255999999999,4118.974,4160.769,4193.462,4189.231,4188.718,4187.436,4223.718,4237.9490000000005,4191.538,4210.255999999999,4228.462,0,0
720,4,0,3547,4157.436,4017.821,4184.615,4116.41,4168.974,4193.59,4186.795,4187.179,4188.718,4239.872,4233.333,4192.308,4205.385,4220.385,0,0
721,5,0,2208,4154.872,4021.1540000000005,4184.359,4127.692,4160.0,4184.615,4183.077,4187.821,4189.359,4235.385,4234.103,4191.282,4206.923,4213.462,0,0
722,6,0,2630,4156.923,4029.744,4185.769,4140.641,4154.615,4183.974,4185.128,4188.59,4189.231,4233.974,4233.974,4190.0,4215.641,4217.308,0,0
723,7,0,1806,4152.564,4029.8720000000003,4181.41,4135.513,4153.462,4186.795,4188.462,4185.897,4187.821,4228.846,4224.487,4186.538,4209.487,4218.59,0,0
724,8,0,1161,4150.897,4027.4359999999997,4176.795,4123.59,4156.538,4185.897,4187.692,4184.231,4186.923,4218.59,4228.718,4183.718,4199.231,4216.154,0,0
725,9,0,3531,4152.692,4031.538,4177.436,4125.513,4163.205,4184.487,4187.692,4185.897,4187.692,4221.154,4237.692,4181.154,4200.128,4214.231,0,0
726,10,0,3201,4140.769,4033.462,4177.436,4130.128,4160.513,4185.769,4186.795,4185.641,4186.154,4214.744000000001,4222.564,4177.308,4198.59,4206.282,0,0
727,11,0,3386,4135.128,4034.3590000000004,4178.333,4133.333,4156.154,4186.41,4182.308,4183.59,4186.026,4205.897,4213.077,4181.026,4196.538,4205.255999999999,0,0
728,12,0,3141,4155.0,4048.077,4190.641,4146.795,4168.846,4185.897,4186.282,4190.897,4194.103,4224.872,4234.744000000001,4193.59,4207.308,4225.128,0,0
729,13,0,2284,4174.103,4065.513,4205.769,4158.718,4181.026,4191.282,4199.359,4201.538,4203.718,4242.821,4252.179,4205.0,4218.205,4240.897,0,0
730,14,0,3201,4169.872,4065.256,4202.564,4154.103,4175.897,4195.641,4201.41,4201.795,4202.692,4235.897,4242.692,4204.487,4216.282,4230.128,0,0
731,15,0,3386,4155.513,4054.103,4187.564,4139.231,4166.795,4189.359,4190.255999999999,4193.846,4192.308,4228.462,4223.974,4195.385,4203.718,4212.564,0,0
732,16,0,0,4149.872,4053.205,4179.744000000001,4135.385,4167.564,4185.769,4186.154,4190.255999999999,4187.692,4224.487,4212.9490000000005,4186.538,4195.769,4212.564,0,0
733,17,0,0,4151.41,4059.487,4182.692,4149.487,4168.846,4187.692,4187.564,4188.333,4188.718,4212.308,4213.462,4183.077,4197.692,4217.308,0,0
734,18,0,0,4152.821,4062.5640000000003,4183.077,4157.179,4165.641,4184.487,4185.128,4185.641,4187.436,4209.487,4228.59,4185.255999999999,4199.615,4213.205,0,0
735,19,0,0,4153.077,4066.538,4182.564,4149.359,4173.462,4183.462,4185.255999999999,4190.255999999999,4193.077,4222.436,4240.897,4188.846,4201.026,4213.718,0,0
736,20,0,0,4155.897,4074.8720000000003,4186.154,4150.513,4184.744000000001,4188.462,4188.974,4197.692,4197.9490000000005,4233.59,4236.923,4193.718,4202.9490000000005,4219.359,0,0
737,21,0,0,4159.103,4079.3590000000004,4189.487,4158.846,4176.154,4188.333,4191.538,4198.974,4191.795,4232.9490000000005,4231.154,4197.179,4203.077,4219.872,0,0
738,22,0,0,4152.436,4072.5640000000003,4188.846,4147.9490000000005,4166.795,4185.513,4187.821,4192.821,4184.231,4220.641,4227.564,4191.795,4199.744000000001,4217.9490000000005,0,0
739,23,0,0,4141.026,4063.59,4182.692,4135.897,4166.795,4185.513,4181.667,4186.282,4184.231,4211.154,4226.026,4188.077,4193.974,4212.179,0,0
740,24,0,0,4145.385,4069.8720000000003,4186.538,4154.744000000001,4168.205,4188.718,4188.59,4188.974,4192.9490000000005,4221.026,4236.026,4198.718,4198.205,4211.923,0,0
741,25,0,0,4159.231,4082.308,4197.308,4172.564,4176.667,4190.128,4199.744000000001,4196.026,4201.667,4231.538,4246.154,4206.538,4210.128,4220.769,0,0
742,26,0,0,4157.179,4079.615,4191.026,4158.462,4175.385,4185.255999999999,4197.179,4192.692,4193.974,4226.154,4232.179,4192.821,4206.026,4219.744000000001,0,0
743,27,0,0,4150.513,4079.2309999999998,4184.615,4146.41,4166.026,4185.385,4196.282,4186.923,4184.359,4225.641,4215.641,4186.026,4199.103,4213.846,0,0
744,28,0,0,4155.513,4089.487,4191.026,4155.897,4177.821,4190.385,4198.974,4189.231,4189.359,4235.641,4221.795,4194.487,4207.436,4217.821,0,0
745,29,0,0,4159.231,4088.974,4192.0509999999995,4159.231,4187.0509999999995,4192.821,4193.077,4188.846,4193.205,4230.897,4234.744000000001,4192.436,4209.615,4217.436,0,0
746,30,0,0,4150.0,4077.949,4183.59,4151.282,4173.846,4190.769,4188.333,4185.513,4188.462,4213.846,4232.436,4183.59,4198.846,4202.821,0,0
747,31,0,0,4140.128,4075.256,4184.231,4150.128,4166.154,4185.513,4187.821,4183.59,4185.641,4210.769,4219.615,4183.974,4193.462,4194.872,0,0
748,32,0,0,4148.205,4084.615,4197.0509999999995,4155.385,4174.231,4191.026,4188.974,4186.154,4191.026,4226.282,4225.0,4194.103,4203.462,4214.103,0,0
749,33,0,0,4162.9490000000005,4092.308,4204.487,4155.0,4172.308,4198.718,4196.667,4192.692,4198.077,4232.692,4236.026,4201.538,4213.077,4232.9490000000005,0,0
750,34,0,0,4161.795,4092.5640000000003,4201.026,4153.59,4167.821,4190.769,4200.255999999999,4193.846,4192.9490000000005,4221.282,4233.846,4201.41,4207.564,4224.359,0,0
751,35,0,0,4154.615,4090.6409999999996,4194.487,4161.282,4180.0,4184.487,4190.641,4187.564,4184.231,4217.436,4231.41,4196.923,4198.077,4211.923,0,0
752,36,0,0,4155.513,4091.282,4193.333,4168.333,4185.769,4188.077,4183.846,4186.154,4186.538,4225.385,4228.974,4194.359,4197.821,4213.718,0,0
753,37,0,0,4156.282,4093.077,4192.308,4160.769,4174.487,4187.692,4187.564,4188.974,4188.59,4214.872,4222.821,4191.667,4200.0,4207.564,0,0
754,38,0,0,4151.41,4093.205,4186.667,4152.564,4166.538,4189.231,4187.9490000000005,4186.026,4183.974,4198.846,4222.0509999999995,4185.0,4196.667,4194.615,0,0
755,39,0,0,4148.718,4088.8459999999995,4184.744000000001,4152.0509999999995,4170.641,4192.692,4185.385,4185.513,4184.744000000001,4207.436,4227.9490000000005,4184.359,4196.154,4202.0509999999995,0,0
756,40,0,0,4158.333,4090.385,4192.0509999999995,4155.385,4169.487,4187.0509999999995,4193.846,4195.385,4193.077,4219.744000000001,4232.564,4193.846,4204.359,4217.308,0,0
757,41,0,0,4169.231,4102.0509999999995,4201.923,4165.385,4163.59,4186.923,4203.333,4200.385,4199.872,4220.769,4231.667,4200.255999999999,4213.974,4221.538,0,0
758,42,0,0,4162.436,4102.308,4195.641,4165.0,4168.846,4187.436,4191.795,4191.923,4195.385,4217.564,4222.179,4192.308,4210.0,4215.128,0,0
759,43,0,0,4148.205,4095.256,4182.436,4150.897,4181.667,4183.462,4178.846,4184.103,4186.795,4214.231,4219.487,4183.205,4199.487,4202.692,0,0
760,44,0,0,4149.359,4097.308,4182.179,4151.923,4185.641,4193.333,4187.0509999999995,4187.0509999999995,4185.769,4211.667,4226.026,4183.077,4200.769,4195.641,0,0
761,45,0,0,4156.41,4100.641,4184.487,4163.205,4174.359,4199.103,4190.641,4189.615,4185.897,4208.462,4219.359,4184.103,4203.205,4198.59,0,0
762,46,0,0,4149.487,4094.8720000000003,4179.872,4158.205,4167.436,4184.615,4184.103,4185.641,4183.846,4198.205,4208.974,4182.436,4195.641,4197.821,0,0
763,47,0,0,4139.231,4092.4359999999997,4179.744000000001,4149.359,4172.436,4181.667,4189.872,4182.9490000000005,4185.769,4189.231,4209.615,4179.103,4187.179,4191.154,0,0
764,48,0,0,4140.255999999999,4098.59,4184.359,4155.128,4174.231,4195.385,4196.795,4185.128,4185.769,4197.308,4215.513,4178.974,4184.744000000001,4190.128,0,0
765,49,0,0,4144.231,4102.0509999999995,4184.487,4155.255999999999,4169.744000000001,4192.564,4193.974,4188.846,4185.513,4201.795,4217.308,4183.462,4193.333,4189.744000000001,0,0
766,50,0,0,4139.615,4096.282,4177.0509999999995,4143.462,4166.667,4182.564,4190.769,4188.333,4187.821,4195.255999999999,4211.282,4182.692,4201.41,4184.872,0,0
767,51,0,0,4133.333,4089.2309999999998,4169.744000000001,4133.333,4167.0509999999995,4192.564,4186.795,4185.513,4186.026,4193.59,4206.538,4178.462,4195.255999999999,4181.667,0,0
768,52,0,0,4138.077,4097.179,4175.513,4137.564,4170.897,4201.41,4184.744000000001,4187.564,4189.487,4202.9490000000005,4213.462,4183.846,4192.692,4184.487,0,0
