,COUNTER, INTERPOLATED, RAW_CQ, AF3, F7, F3, FC5, T7, P7, O1, O2, P8, T8, FC6, F4, F8, AF4, MARKER_HARDWARE, MARKER
0,78,0,3152,4198.462,4143.846,4199.615,4176.154,4184.359,4183.718,4173.462,4184.487,4193.846,4198.59,4216.795,4188.205,4178.59,4216.923,0,0
1,79,0,3408,4176.923,4118.462,4184.872,4157.564,4165.513,4184.872,4173.462,4174.359,4188.59,4172.0509999999995,4195.0,4175.769,4099.615,4192.692,0,0
2,80,0,3244,4179.744000000001,4120.897,4184.359,4158.59,4150.255999999999,4181.538,4176.026,4170.385,4201.154,4188.718,4202.9490000000005,4174.231,4182.692,4200.128,0,0
3,81,0,2032,4200.769,4136.795,4193.333,4170.897,4157.9490000000005,4170.641,4163.718,4169.487,4194.231,4206.282,4224.231,4183.462,4194.872,4223.718,0,0
4,82,0,3152,4194.103,4118.333,4188.462,4158.077,4156.923,4167.564,4153.59,4173.462,4185.769,4197.0509999999995,4218.462,4180.641,4130.769,4215.385,0,0
5,83,0,3408,4179.231,4102.436,4180.255999999999,4145.513,4151.41,4179.615,4165.641,4183.333,4196.026,4197.0509999999995,4209.359,4176.667,4156.795,4201.538,0,0
6,84,0,3244,4190.897,4118.974,4186.41,4160.513,4162.308,4184.359,4175.255999999999,4186.667,4200.0,4211.538,4223.718,4184.103,4187.436,4215.385,0,0
7,85,0,2032,4202.179,4126.282,4196.282,4170.769,4170.641,4183.846,4173.718,4183.718,4196.923,4217.564,4231.41,4189.744000000001,4188.205,4230.513,0,0
8,86,0,3152,4200.128,4127.564,4200.0,4167.821,4176.282,4191.282,4185.255999999999,4188.205,4202.692,4219.615,4227.564,4188.974,4222.0509999999995,4232.436,0,0
9,87,0,3408,4202.179,4136.026,4200.769,4173.077,4183.59,4189.359,4191.538,4193.462,4201.282,4225.769,4228.974,4190.128,4240.513,4233.718,0,0
10,88,0,3244,4200.641,4131.41,4200.513,4173.846,4175.385,4180.897,4175.641,4185.0,4190.255999999999,4216.154,4230.0,4189.103,4191.667,4232.564,0,0
11,89,0,2032,4195.255999999999,4128.59,4199.615,4167.0509999999995,4168.077,4183.205,4170.0,4183.974,4196.923,4211.795,4231.538,4190.255999999999,4185.897,4231.41,0,0
12,90,0,3152,4202.308,4142.308,4202.308,4174.103,4178.333,4181.026,4173.333,4186.923,4208.59,4229.103,4230.513,4194.487,4267.821,4237.308,0,0
13,91,0,3408,4207.564,4145.255999999999,4210.385,4181.923,4182.564,4174.231,4169.231,4176.795,4188.974,4223.974,4222.436,4193.718,4251.795,4240.128,0,0
14,92,0,3244,4204.487,4140.255999999999,4212.0509999999995,4176.026,4176.282,4181.154,4175.513,4172.308,4168.59,4200.385,4220.769,4192.9490000000005,4119.359,4233.462,0,0
15,93,0,2032,4208.462,4149.872,4208.59,4178.077,4182.436,4188.205,4186.538,4184.615,4178.718,4207.308,4233.718,4198.333,4085.256,4228.974,0,0
16,94,0,3152,4215.385,4158.59,4213.077,4189.103,4199.487,4190.513,4191.795,4196.923,4191.026,4232.9490000000005,4240.513,4200.0,4172.821,4239.359,0,0
17,95,0,3408,4213.974,4157.179,4217.9490000000005,4187.179,4207.564,4189.487,4193.974,4198.718,4190.513,4243.205,4233.333,4196.154,4237.9490000000005,4244.615,0,0
18,96,0,3244,4211.923,4154.615,4213.333,4180.897,4199.872,4179.231,4190.0,4199.744000000001,4190.641,4249.744000000001,4233.333,4193.846,4255.769,4234.359,0,0
19,97,0,2032,4213.846,4152.308,4212.821,4182.179,4193.718,4173.205,4182.692,4197.0509999999995,4189.231,4247.436,4240.641,4195.513,4223.846,4232.0509999999995,0,0
20,98,0,3152,4216.667,4157.564,4219.615,4186.282,4200.513,4182.9490000000005,4183.462,4190.128,4189.872,4234.744000000001,4245.0,4202.179,4173.077,4244.744000000001,0,0
21,99,0,3408,4217.821,4164.231,4217.0509999999995,4187.179,4205.385,4189.359,4185.0,4187.308,4198.077,4240.128,4238.974,4205.0,4191.026,4248.462,0,0
22,100,0,3244,4213.59,4159.744000000001,4207.9490000000005,4184.231,4199.231,4186.41,4182.692,4189.103,4206.795,4252.9490000000005,4236.41,4202.179,4224.103,4237.308,0,0
23,101,0,2032,4210.128,4157.564,4206.538,4183.846,4201.026,4187.308,4179.872,4190.897,4203.718,4249.615,4241.795,4202.308,4215.513,4234.359,0,0
24,102,0,3152,4213.846,4166.923,4213.59,4186.154,4213.462,4194.744000000001,4182.9490000000005,4192.0509999999995,4192.0509999999995,4241.923,4240.0,4205.385,4212.692,4239.487,0,0
25,103,0,3408,4220.513,4172.692,4220.0,4190.255999999999,4220.513,4205.385,4200.255999999999,4200.385,4185.513,4258.205,4241.282,4204.744000000001,4232.9490000000005,4249.487,0,0
26,104,0,3244,4219.231,4167.308,4216.923,4192.308,4212.436,4201.538,4203.205,4198.59,4185.385,4271.41,4246.667,4204.103,4249.103,4258.333,0,0
27,105,0,2032,4217.179,4165.897,4211.923,4189.359,4200.385,4185.385,4184.231,4188.077,4188.59,4259.231,4249.487,4206.282,4253.205,4258.846,0,0
28,106,0,3152,4219.615,4163.718,4212.308,4185.128,4195.513,4182.308,4183.462,4190.641,4196.667,4247.692,4247.179,4205.641,4262.436,4253.974,0,0
29,107,0,3408,4211.026,4152.436,4206.795,4181.667,4192.9490000000005,4185.641,4192.692,4191.026,4199.872,4242.308,4237.821,4197.9490000000005,4272.179,4242.692,0,0
30,108,0,3244,4205.513,4153.59,4200.255999999999,4184.872,4188.846,4182.308,4181.923,4183.462,4194.103,4230.255999999999,4228.59,4193.718,4257.821,4234.231,0,0
31,109,0,2032,4212.0509999999995,4155.385,4205.641,4187.0509999999995,4185.513,4182.308,4180.0,4192.0509999999995,4199.615,4231.282,4230.385,4197.821,4258.59,4233.846,0,0
32,110,0,3152,4207.0509999999995,4142.308,4209.872,4176.538,4184.231,4187.692,4196.538,4202.564,4204.103,4239.744000000001,4230.769,4199.615,4258.333,4233.59,0,0
33,111,0,3408,4198.718,4150.641,4199.359,4171.923,4186.154,4187.179,4195.255999999999,4190.641,4187.308,4220.513,4215.513,4191.154,4180.385,4228.205,0,0
34,112,0,3244,4217.308,4195.769,4197.308,4191.667,4195.385,4188.333,4187.179,4181.154,4177.692,4198.077,4208.333,4187.9490000000005,4112.821,4229.744000000001,0,0
35,113,0,2032,4233.974,4226.667,4209.872,4208.077,4205.385,4191.282,4188.846,4186.41,4186.795,4202.692,4208.846,4193.718,4166.538,4237.692,0,0
36,114,0,3152,4221.538,4223.718,4212.436,4202.564,4204.615,4187.0509999999995,4187.0509999999995,4187.564,4190.513,4210.641,4202.436,4191.538,4229.744000000001,4232.179,0,0
37,115,0,3408,4214.359,4219.872,4208.462,4199.872,4201.667,4183.846,4184.872,4185.897,4183.846,4204.872,4197.564,4186.41,4202.308,4223.846,0,0
38,116,0,3244,4221.026,4220.513,4208.333,4203.846,4200.513,4190.769,4187.308,4180.128,4182.179,4198.205,4197.564,4188.077,4184.103,4226.795,0,0
39,117,0,2032,4218.974,4213.846,4206.667,4202.0509999999995,4195.385,4198.846,4185.897,4169.231,4183.718,4199.359,4200.128,4191.538,4223.333,4223.718,0,0
40,118,0,3152,4212.179,4208.462,4202.308,4198.205,4190.641,4193.077,4178.205,4168.59,4186.026,4200.0,4197.179,4191.154,4243.462,4212.436,0,0
41,119,0,3408,4212.9490000000005,4207.564,4199.615,4196.154,4187.9490000000005,4180.897,4171.026,4174.615,4187.692,4191.538,4188.974,4190.513,4201.154,4211.667,0,0
42,120,0,3244,4215.255999999999,4207.821,4195.513,4197.179,4189.103,4178.974,4167.692,4171.667,4186.154,4189.615,4189.359,4186.795,4167.821,4218.974,0,0
43,121,0,2032,4215.513,4211.282,4195.0,4201.282,4196.41,4185.255999999999,4170.513,4172.0509999999995,4183.974,4198.205,4202.179,4188.077,4181.923,4223.077,0,0
44,122,0,3152,4219.231,4219.231,4201.795,4205.0,4201.795,4183.974,4177.692,4183.59,4180.255999999999,4198.846,4212.0509999999995,4195.641,4179.487,4226.026,0,0
45,123,0,3408,4219.872,4218.846,4201.026,4203.077,4199.103,4182.9490000000005,4183.077,4188.462,4177.9490000000005,4195.897,4207.564,4190.769,4166.41,4223.974,0,0
46,124,0,3244,4215.513,4215.255999999999,4196.026,4199.872,4203.846,4195.513,4189.744000000001,4185.513,4181.026,4197.9490000000005,4204.487,4181.795,4187.821,4215.641,0,0
47,125,0,2032,4217.308,4224.615,4199.744000000001,4203.077,4213.333,4198.846,4196.41,4186.795,4184.487,4207.308,4210.385,4188.59,4209.359,4216.923,0,0
48,126,0,3152,4220.255999999999,4226.41,4198.718,4203.59,4206.282,4185.897,4190.255999999999,4185.769,4182.308,4213.846,4208.718,4192.9490000000005,4215.769,4219.744000000001,0,0
49,127,0,53,4217.9490000000005,4216.026,4187.821,4199.103,4198.718,4182.0509999999995,4184.744000000001,4183.077,4180.769,4208.718,4198.846,4182.436,4219.872,4211.923,0,0
50,0,0,2575,4211.923,4212.308,4182.564,4197.564,4200.385,4189.744000000001,4191.41,4186.795,4185.128,4197.179,4196.923,4178.59,4203.718,4203.846,0,0
51,1,0,2855,4205.897,4214.103,4186.154,4196.923,4200.255999999999,4187.436,4191.026,4185.769,4188.077,4197.821,4202.821,4181.41,4198.59,4201.154,0,0
52,2,0,3067,4206.538,4214.872,4194.487,4196.667,4199.359,4183.205,4181.667,4181.538,4185.641,4205.641,4199.231,4181.538,4206.026,4200.513,0,0
53,3,0,3073,4213.846,4218.462,4196.923,4199.103,4203.974,4187.179,4181.41,4180.897,4184.872,4199.872,4196.154,4181.923,4189.359,4199.744000000001,0,0
54,4,0,3548,4217.308,4217.692,4193.462,4200.769,4203.846,4185.897,4183.718,4175.255999999999,4186.41,4189.231,4200.255999999999,4182.9490000000005,4171.41,4201.41,0,0
55,5,0,2185,4214.744000000001,4214.744000000001,4193.974,4199.744000000001,4198.205,4186.026,4181.538,4170.128,4185.255999999999,4189.744000000001,4202.179,4182.821,4180.513,4208.59,0,0
56,6,0,2579,4215.769,4224.872,4199.359,4200.513,4201.026,4189.103,4186.026,4177.692,4186.026,4200.769,4201.538,4184.744000000001,4196.923,4213.333,0,0
57,7,0,1807,4224.487,4233.974,4203.846,4206.41,4210.255999999999,4188.333,4193.077,4184.231,4189.487,4211.026,4205.255999999999,4189.487,4207.9490000000005,4219.103,0,0
58,8,0,1422,4236.154,4232.436,4206.923,4217.436,4218.077,4195.255999999999,4200.0,4182.9490000000005,4188.846,4216.282,4215.255999999999,4196.41,4227.821,4232.821,0,0
59,9,0,3532,4234.231,4233.205,4205.641,4217.9490000000005,4219.231,4201.282,4199.231,4183.333,4185.385,4210.255999999999,4216.667,4196.538,4207.564,4234.487,0,0
60,10,0,3150,4220.385,4230.769,4198.333,4205.641,4212.9490000000005,4191.923,4188.205,4183.974,4182.564,4193.974,4203.974,4186.154,4157.9490000000005,4216.667,0,0
61,11,0,3412,4211.795,4220.641,4195.385,4200.385,4206.282,4190.641,4187.179,4184.487,4182.0509999999995,4187.436,4189.872,4181.923,4161.923,4205.255999999999,0,0
62,12,0,3244,4205.128,4211.667,4195.769,4195.641,4201.667,4196.538,4188.462,4183.59,4181.538,4184.615,4185.255999999999,4184.872,4183.718,4201.282,0,0
63,13,0,2030,4199.744000000001,4209.103,4196.282,4188.846,4197.821,4191.795,4186.154,4182.179,4184.359,4186.154,4193.077,4185.255999999999,4185.897,4195.0,0,0
64,14,0,3150,4208.59,4212.821,4199.487,4197.692,4200.255999999999,4191.923,4194.744000000001,4186.154,4190.385,4202.821,4206.026,4190.769,4215.513,4207.436,0,0
65,15,0,3412,4217.179,4218.59,4202.0509999999995,4204.744000000001,4204.744000000001,4196.795,4200.385,4190.0,4190.513,4206.41,4203.718,4196.154,4233.59,4219.744000000001,0,0
66,16,0,0,4208.333,4216.154,4199.872,4196.795,4200.769,4188.718,4188.333,4187.436,4190.513,4192.9490000000005,4189.103,4193.333,4200.513,4204.744000000001,0,0
67,17,0,0,4200.128,4213.333,4197.821,4196.154,4195.769,4183.718,4182.564,4184.744000000001,4199.103,4194.744000000001,4185.641,4191.667,4216.154,4200.255999999999,0,0
68,18,0,0,4205.513,4219.487,4198.59,4203.205,4200.0,4193.205,4191.538,4184.231,4198.718,4205.385,4190.255999999999,4191.795,4257.564,4221.026,0,0
69,19,0,0,4213.077,4229.744000000001,4200.897,4206.282,4208.846,4201.795,4196.026,4183.974,4186.282,4194.231,4189.615,4190.641,4217.0509999999995,4228.462,0,0
70,20,0,0,4215.385,4229.744000000001,4201.923,4206.538,4210.255999999999,4201.154,4194.744000000001,4184.615,4184.872,4182.564,4185.641,4190.255999999999,4168.846,4219.359,0,0
71,21,0,0,4211.154,4218.333,4201.154,4204.615,4204.487,4190.128,4190.769,4184.103,4190.769,4187.0509999999995,4180.255999999999,4189.615,4182.0509999999995,4215.897,0,0
72,22,0,0,4206.41,4222.308,4199.615,4208.846,4202.179,4185.128,4186.667,4182.436,4186.795,4186.154,4177.436,4187.564,4200.255999999999,4216.026,0,0
73,23,0,0,4205.255999999999,4230.0,4207.692,4213.077,4205.255999999999,4196.923,4192.692,4186.026,4186.667,4189.872,4184.615,4192.564,4206.41,4219.615,0,0
74,24,0,0,4202.9490000000005,4211.795,4219.872,4202.9490000000005,4207.436,4205.255999999999,4205.255999999999,4190.513,4193.333,4204.615,4192.9490000000005,4196.282,4220.513,4218.462,0,0
75,25,0,0,4198.974,4208.333,4216.667,4194.872,4207.692,4199.872,4203.205,4187.0509999999995,4191.41,4200.128,4186.923,4189.359,4221.41,4206.538,0,0
76,26,0,0,4194.744000000001,4237.9490000000005,4204.744000000001,4206.026,4210.255999999999,4188.205,4187.821,4182.436,4184.359,4181.538,4174.872,4181.538,4214.103,4201.282,0,0
77,27,0,0,4189.103,4253.462,4203.974,4216.538,4215.0,4181.538,4179.487,4182.9490000000005,4185.385,4175.897,4168.718,4178.846,4224.872,4198.333,0,0
78,28,0,0,4185.255999999999,4253.205,4208.59,4214.487,4218.333,4189.103,4185.513,4183.718,4189.744000000001,4181.41,4167.308,4180.641,4239.359,4186.538,0,0
79,29,0,0,4185.255999999999,4259.744000000001,4204.872,4210.897,4218.462,4198.077,4196.026,4185.0,4189.103,4183.205,4168.718,4182.9490000000005,4232.0509999999995,4182.0509999999995,0,0
80,30,0,0,4186.026,4255.128,4200.255999999999,4213.846,4216.538,4191.41,4195.897,4183.462,4183.974,4177.436,4170.255999999999,4181.154,4208.333,4187.436,0,0
81,31,0,0,4185.128,4246.923,4200.513,4216.154,4216.154,4186.795,4190.0,4175.641,4180.255999999999,4165.128,4164.872,4178.205,4197.179,4182.308,0,0
82,32,0,0,4178.846,4247.564,4196.667,4206.282,4212.821,4194.231,4185.128,4170.0,4182.0509999999995,4160.385,4155.513,4175.385,4195.897,4171.41,0,0
83,33,0,0,4176.41,4245.513,4195.897,4203.974,4212.436,4199.231,4184.615,4173.59,4186.795,4165.769,4159.231,4175.128,4185.385,4165.897,0,0
84,34,0,0,4185.641,4246.795,4206.41,4216.41,4217.436,4199.872,4190.641,4179.487,4182.9490000000005,4167.308,4169.231,4178.59,4178.205,4176.026,0,0
85,35,0,0,4186.795,4249.359,4207.564,4219.103,4216.538,4199.615,4191.282,4180.0,4183.846,4171.795,4167.692,4178.077,4205.897,4213.333,0,0
86,36,0,0,4180.255999999999,4245.897,4199.103,4212.821,4212.0509999999995,4199.231,4182.9490000000005,4179.487,4195.128,4184.103,4166.282,4178.333,4236.026,4251.923,0,0
87,37,0,0,4185.128,4246.41,4198.333,4215.897,4214.744000000001,4202.436,4184.872,4181.795,4195.641,4186.154,4171.538,4181.923,4215.897,4310.897,0,0
88,38,0,0,4188.462,4248.205,4193.333,4218.333,4216.795,4203.205,4197.9490000000005,4185.513,4185.641,4174.487,4170.385,4181.923,4189.103,4416.154,0,0
89,39,0,0,4186.538,4247.9490000000005,4185.255999999999,4214.872,4215.513,4198.205,4199.359,4185.769,4185.641,4173.846,4167.9490000000005,4179.744000000001,4210.641,4480.385,0,0
90,40,0,0,4189.487,4248.718,4192.692,4216.923,4217.9490000000005,4199.103,4197.821,4186.026,4189.744000000001,4186.154,4169.872,4183.718,4235.769,4457.179,0,0
91,41,0,0,4193.718,4252.0509999999995,4201.282,4219.231,4219.744000000001,4202.179,4199.359,4192.0509999999995,4188.846,4187.692,4171.795,4184.231,4223.077,4437.308,0,0
92,42,0,0,4193.718,4254.615,4200.0,4218.333,4220.0,4200.641,4202.179,4199.487,4192.564,4182.0509999999995,4173.974,4180.769,4209.103,4408.205,0,0
93,43,0,0,4191.795,4256.154,4197.436,4218.462,4228.718,4202.9490000000005,4214.872,4200.385,4202.0509999999995,4185.0,4177.308,4181.282,4214.359,4300.641,0,0
94,44,0,0,4187.9490000000005,4254.231,4191.795,4217.821,4232.436,4202.564,4215.641,4192.179,4200.897,4189.872,4174.487,4181.41,4224.744000000001,4208.718,0,0
95,45,0,0,4186.154,4251.667,4186.41,4215.897,4223.205,4195.897,4199.231,4186.538,4190.769,4186.667,4169.487,4182.0509999999995,4234.744000000001,4198.462,0,0
96,46,0,0,4188.462,4251.795,4188.462,4215.769,4218.077,4195.385,4194.487,4187.436,4188.974,4184.359,4177.436,4183.333,4232.9490000000005,4203.462,0,0
97,47,0,0,4187.9490000000005,4250.385,4187.308,4215.128,4219.872,4200.513,4201.538,4187.308,4195.0,4184.744000000001,4187.821,4182.308,4212.821,4195.0,0,0
98,48,0,0,4188.846,4248.462,4180.641,4214.487,4215.641,4200.255999999999,4200.385,4184.103,4190.897,4183.974,4182.821,4179.872,4192.9490000000005,4189.872,0,0
99,49,0,0,4191.795,4250.769,4180.769,4216.41,4207.821,4196.154,4194.744000000001,4183.333,4183.846,4183.59,4170.385,4175.0,4195.897,4186.026,0,0
100,50,0,0,4192.564,4252.692,4183.974,4215.769,4208.077,4193.718,4192.0509999999995,4186.667,4191.154,4183.462,4167.692,4171.41,4207.179,4183.974,0,0
101,51,0,0,4196.282,4252.564,4183.718,4217.692,4214.615,4195.897,4193.462,4189.487,4199.744000000001,4182.564,4175.128,4174.872,4216.282,4184.487,0,0
102,52,0,0,4202.692,4257.9490000000005,4187.308,4226.795,4221.795,4200.769,4200.255999999999,4188.462,4199.872,4193.205,4184.359,4179.615,4247.9490000000005,4190.255999999999,0,0
103,53,0,0,4204.487,4263.333,4191.538,4226.154,4221.667,4196.282,4197.564,4186.41,4200.385,4204.487,4189.487,4179.872,4268.718,4198.462,0,0
104,54,0,0,4200.0,4258.974,4186.538,4213.59,4215.769,4191.026,4192.179,4187.308,4199.231,4192.821,4185.0,4176.538,4227.0509999999995,4192.0509999999995,0,0
105,55,0,0,4200.385,4259.744000000001,4186.667,4217.436,4221.026,4195.385,4196.667,4187.564,4197.436,4179.487,4181.923,4177.0509999999995,4186.026,4182.308,0,0
106,56,0,0,4204.615,4265.255999999999,4199.359,4233.718,4234.103,4201.667,4203.205,4186.026,4199.103,4186.795,4186.282,4182.179,4199.615,4188.59,0,0
107,57,0,0,4204.744000000001,4263.205,4197.179,4230.641,4233.718,4202.564,4201.795,4183.974,4200.0,4190.0,4184.103,4182.692,4207.821,4190.255999999999,0,0
108,58,0,0,4200.255999999999,4261.538,4183.077,4217.9490000000005,4221.667,4194.872,4195.641,4185.128,4200.128,4184.487,4179.359,4176.282,4198.462,4180.128,0,0
109,59,0,0,4197.9490000000005,4261.667,4189.872,4216.667,4216.795,4189.103,4197.692,4189.744000000001,4202.308,4191.667,4183.077,4177.821,4219.103,4179.359,0,0
110,60,0,0,4200.641,4260.0,4201.538,4221.538,4218.077,4192.436,4204.231,4190.128,4198.974,4192.0509999999995,4181.923,4183.846,4218.974,4185.255999999999,0,0
111,61,0,0,4197.692,4264.615,4191.795,4221.282,4212.9490000000005,4192.564,4198.205,4186.795,4196.41,4182.821,4172.564,4177.9490000000005,4202.821,4178.974,0,0
112,62,0,0,4189.103,4264.744000000001,4180.897,4212.821,4206.154,4182.436,4184.103,4181.41,4197.564,4185.128,4171.795,4170.128,4257.9490000000005,4163.974,0,0
113,63,0,0,4182.0509999999995,4248.59,4186.795,4204.359,4201.923,4189.359,4184.744000000001,4175.128,4191.282,4177.179,4170.897,4167.436,4267.821,4155.385,0,0
114,64,0,2575,4171.154,4235.0,4185.897,4195.897,4194.615,4201.923,4190.0,4171.795,4183.974,4150.0,4160.128,4162.308,4155.128,4147.564,0,0
115,65,0,2855,4154.231,4227.0509999999995,4173.462,4185.513,4184.359,4189.744000000001,4180.0,4170.0,4184.103,4136.667,4148.205,4153.205,4105.385,4132.9490000000005,0,0
116,66,0,3067,4148.846,4216.538,4174.615,4180.255999999999,4175.128,4177.0509999999995,4168.205,4165.0,4184.872,4140.641,4141.667,4150.255999999999,4163.846,4122.821,0,0
117,67,0,3067,4158.333,4221.026,4181.795,4187.179,4170.0,4181.41,4167.692,4164.103,4185.255999999999,4145.0,4146.41,4155.641,4177.9490000000005,4128.077,0,0
118,68,0,3547,4159.231,4231.41,4175.897,4190.255999999999,4171.667,4185.128,4173.718,4169.487,4188.333,4152.308,4154.744000000001,4160.641,4155.513,4137.179,0,0
119,69,0,2180,4152.821,4225.769,4166.41,4184.103,4178.718,4181.282,4173.59,4170.128,4187.564,4157.179,4153.077,4158.974,4169.103,4136.538,0,0
120,70,0,2575,4159.231,4220.513,4170.128,4187.9490000000005,4182.9490000000005,4182.179,4172.821,4170.385,4185.0,4148.718,4149.231,4158.846,4173.333,4135.0,0,0
121,71,0,1807,4169.487,4229.231,4177.308,4199.872,4185.0,4186.41,4178.718,4173.205,4187.179,4144.231,4155.0,4160.769,4168.333,4138.205,0,0
122,72,0,1422,4169.872,4230.897,4175.641,4198.846,4185.641,4186.41,4183.974,4174.487,4187.9490000000005,4151.026,4158.205,4160.0,4172.564,4139.615,0,0
123,73,0,3539,4167.308,4220.513,4169.231,4188.333,4178.333,4186.026,4184.744000000001,4178.718,4189.359,4156.667,4160.769,4157.9490000000005,4171.538,4137.179,0,0
124,74,0,3154,4169.615,4217.308,4172.179,4188.333,4171.795,4183.974,4186.41,4185.641,4192.692,4158.718,4168.846,4161.282,4180.385,4146.154,0,0
125,75,0,3416,4169.231,4219.487,4178.846,4193.205,4171.538,4182.564,4185.385,4183.846,4191.026,4156.923,4164.359,4163.59,4181.41,4156.923,0,0
126,76,0,3244,4166.923,4218.846,4176.667,4189.615,4172.179,4182.564,4177.436,4173.718,4187.0509999999995,4151.923,4152.9490000000005,4160.255999999999,4163.333,4150.385,0,0
127,77,0,2032,4167.9490000000005,4217.692,4175.385,4186.795,4168.718,4180.128,4173.846,4170.0,4187.821,4143.59,4153.974,4156.667,4156.795,4138.462,0,0
128,78,0,3154,4167.564,4215.128,4176.667,4188.205,4166.026,4178.718,4175.641,4170.641,4185.641,4131.667,4156.154,4155.641,4152.308,4134.744000000001,0,0
129,79,0,3416,4167.0509999999995,4208.077,4174.615,4185.897,4167.692,4181.026,4178.846,4163.333,4179.487,4123.718,4149.359,4157.436,4131.154,4136.667,0,0
130,80,0,3244,4166.538,4199.359,4173.205,4181.667,4168.846,4187.436,4183.077,4160.769,4182.564,4130.0,4150.769,4159.359,4124.359,4140.255999999999,0,0
131,81,0,2032,4165.255999999999,4199.487,4172.436,4183.077,4163.846,4187.436,4176.923,4168.333,4189.615,4138.59,4160.385,4159.744000000001,4142.179,4140.128,0,0
132,82,0,3154,4165.769,4206.923,4170.769,4186.154,4159.615,4178.59,4168.462,4167.308,4184.744000000001,4134.103,4163.974,4158.718,4143.718,4136.538,0,0
133,83,0,3416,4167.179,4202.308,4178.077,4182.564,4166.154,4176.795,4176.667,4163.59,4184.359,4138.205,4165.128,4165.385,4134.872,4141.282,0,0
134,84,0,3244,4173.462,4201.795,4189.231,4183.333,4180.0,4187.0509999999995,4189.615,4173.077,4194.487,4153.462,4173.077,4177.436,4146.282,4154.103,0,0
135,85,0,2032,4191.154,4232.179,4187.692,4198.718,4188.077,4190.641,4187.821,4177.821,4193.333,4155.513,4183.205,4179.359,4155.769,4169.103,0,0
136,86,0,3154,4218.974,4271.538,4185.255999999999,4215.897,4190.769,4181.282,4180.897,4170.641,4184.615,4157.179,4190.128,4177.436,4151.026,4191.41,0,0
137,87,0,3416,4243.333,4291.667,4195.0,4225.769,4198.205,4189.231,4186.41,4170.897,4188.205,4169.744000000001,4193.974,4186.41,4164.872,4214.359,0,0
138,88,0,3244,4255.641,4301.026,4204.744000000001,4227.821,4207.692,4201.667,4193.333,4174.487,4192.0509999999995,4176.154,4196.923,4192.308,4179.872,4222.821,0,0
139,89,0,2032,4251.154,4297.436,4198.59,4224.103,4202.308,4191.282,4183.077,4170.769,4184.872,4166.282,4190.0,4182.9490000000005,4151.795,4216.026,0,0
140,90,0,3154,4232.821,4274.231,4184.744000000001,4215.769,4189.744000000001,4182.564,4174.359,4170.128,4183.462,4158.333,4173.462,4171.538,4140.897,4200.513,0,0
141,91,0,3416,4216.667,4258.846,4178.59,4205.897,4186.923,4188.205,4181.667,4174.231,4186.538,4153.846,4166.667,4165.769,4160.641,4187.436,0,0
142,92,0,3244,4214.615,4259.872,4181.41,4200.0,4188.846,4190.769,4187.692,4175.513,4185.255999999999,4142.564,4168.718,4165.513,4128.462,4183.333,0,0
143,93,0,2032,4222.0509999999995,4263.333,4186.923,4206.795,4189.103,4187.9490000000005,4183.974,4172.436,4185.769,4142.821,4171.41,4172.564,4090.1279999999997,4185.128,0,0
144,94,0,3154,4228.333,4263.974,4189.103,4216.282,4190.128,4188.462,4180.0,4169.487,4185.641,4155.641,4175.513,4177.436,4111.667,4192.179,0,0
145,95,0,3416,4229.744000000001,4263.205,4184.872,4216.282,4189.487,4185.641,4178.333,4168.846,4184.487,4158.59,4176.41,4171.795,4141.667,4198.333,0,0
146,96,0,3244,4230.255999999999,4263.846,4188.718,4215.641,4188.974,4182.564,4180.769,4171.282,4186.026,4155.128,4180.385,4173.462,4150.255999999999,4199.615,0,0
147,97,0,2032,4232.564,4265.255999999999,4203.333,4217.692,4194.487,4184.359,4188.077,4173.077,4186.923,4158.333,4185.0,4182.436,4152.179,4201.667,0,0
148,98,0,3154,4233.333,4265.513,4201.538,4217.821,4194.103,4185.385,4187.564,4171.41,4184.872,4157.179,4178.205,4180.255999999999,4141.795,4199.615,0,0
149,99,0,3416,4231.154,4263.974,4188.205,4214.744000000001,4186.795,4187.564,4190.513,4174.615,4187.436,4157.692,4173.974,4173.077,4142.564,4193.846,0,0
150,100,0,3244,4232.179,4264.487,4189.359,4217.308,4186.667,4189.615,4197.179,4179.615,4190.641,4166.538,4181.41,4177.436,4160.0,4198.462,0,0
151,101,0,2032,4235.128,4266.282,4192.0509999999995,4217.436,4190.385,4187.436,4191.282,4175.385,4185.897,4162.692,4178.462,4177.436,4159.231,4201.026,0,0
152,102,0,3154,4228.846,4265.128,4183.077,4206.282,4187.0509999999995,4183.462,4180.128,4171.026,4182.436,4151.795,4163.718,4167.179,4152.308,4190.385,0,0
153,103,0,3416,4220.0,4260.0,4182.0509999999995,4199.359,4177.436,4183.333,4173.205,4168.077,4184.359,4150.0,4156.538,4164.744000000001,4158.59,4185.513,0,0
154,104,0,3244,4214.487,4251.41,4187.9490000000005,4197.179,4170.641,4185.255999999999,4169.231,4161.538,4184.487,4144.103,4152.821,4167.821,4156.154,4182.436,0,0
155,105,0,2032,4206.538,4247.692,4182.9490000000005,4194.231,4167.9490000000005,4182.821,4168.333,4157.179,4181.41,4136.154,4150.385,4165.128,4132.9490000000005,4176.538,0,0
156,106,0,3154,4201.026,4246.41,4177.564,4196.026,4168.718,4181.538,4170.255999999999,4161.667,4182.0509999999995,4137.821,4153.205,4163.974,4119.359,4176.154,0,0
157,107,0,3416,4201.154,4241.026,4180.769,4199.744000000001,4169.103,4186.154,4168.718,4165.897,4184.487,4140.385,4150.769,4165.0,4135.255999999999,4177.9490000000005,0,0
158,108,0,3244,4200.255999999999,4238.846,4183.718,4195.255999999999,4168.718,4187.308,4168.077,4165.641,4184.359,4145.769,4154.744000000001,4166.154,4153.974,4179.487,0,0
159,109,0,2032,4201.795,4243.974,4186.282,4194.231,4170.641,4184.744000000001,4174.103,4166.667,4185.641,4158.846,4167.9490000000005,4172.179,4162.9490000000005,4187.9490000000005,0,0
160,110,0,3154,4207.308,4246.795,4187.308,4200.897,4177.308,4190.128,4179.872,4169.615,4187.821,4161.795,4171.41,4176.538,4166.667,4195.513,0,0
161,111,0,3416,4206.667,4245.897,4186.923,4202.564,4183.974,4201.795,4187.179,4171.538,4188.462,4155.128,4168.077,4175.641,4164.615,4192.692,0,0
162,112,0,3244,4203.846,4245.128,4187.564,4202.9490000000005,4185.513,4199.872,4191.41,4172.179,4188.333,4158.718,4168.077,4175.385,4170.513,4190.128,0,0
163,113,0,2032,4203.718,4237.179,4187.9490000000005,4200.897,4179.744000000001,4180.897,4180.255999999999,4169.231,4186.923,4159.487,4161.667,4174.744000000001,4176.154,4186.795,0,0
164,114,0,3154,4201.154,4232.9490000000005,4184.744000000001,4197.308,4175.385,4173.333,4170.385,4163.333,4183.462,4142.308,4149.487,4171.41,4157.308,4183.462,0,0
165,115,0,3416,4200.769,4242.0509999999995,4183.333,4200.897,4180.255999999999,4185.513,4178.462,4162.564,4182.0509999999995,4135.128,4148.333,4172.692,4150.0,4186.667,0,0
166,116,0,3244,4202.821,4246.795,4185.128,4201.282,4185.385,4191.154,4185.255999999999,4168.077,4181.795,4149.103,4155.897,4173.333,4168.333,4190.897,0,0
167,117,0,2032,4208.59,4244.103,4188.59,4198.205,4186.41,4186.538,4182.821,4171.154,4182.0509999999995,4159.872,4163.846,4175.0,4166.282,4193.846,0,0
168,118,0,3154,4214.744000000001,4245.255999999999,4190.897,4204.359,4190.128,4188.718,4186.026,4172.9490000000005,4185.897,4161.282,4169.487,4179.487,4156.154,4196.538,0,0
169,119,0,3416,4218.59,4250.255999999999,4193.718,4216.795,4198.077,4200.513,4193.333,4175.255999999999,4187.692,4167.9490000000005,4172.308,4181.923,4169.103,4202.564,0,0
170,120,0,3244,4216.923,4250.641,4195.255999999999,4216.923,4202.436,4202.9490000000005,4193.462,4174.359,4183.59,4173.205,4170.385,4179.103,4174.103,4201.026,0,0
171,121,0,2032,4208.718,4244.872,4191.026,4204.103,4194.744000000001,4189.359,4187.692,4171.41,4183.462,4163.333,4161.282,4172.179,4164.103,4189.615,0,0
172,122,0,3154,4207.179,4242.179,4186.795,4200.769,4187.436,4180.0,4184.359,4171.538,4189.872,4157.308,4160.0,4171.667,4177.436,4186.282,0,0
173,123,0,3416,4214.872,4247.308,4193.462,4211.538,4189.615,4184.231,4186.41,4171.026,4189.231,4166.795,4169.231,4178.077,4193.205,4193.974,0,0
174,124,0,3244,4217.308,4250.385,4198.462,4217.821,4193.59,4188.333,4186.282,4171.026,4184.103,4173.846,4170.128,4179.359,4175.641,4198.462,0,0
175,125,0,2032,4216.41,4248.59,4191.154,4214.744000000001,4193.846,4186.282,4181.795,4171.41,4186.026,4167.821,4166.667,4174.872,4162.308,4199.103,0,0
176,126,0,3154,4218.462,4249.744000000001,4185.128,4211.154,4194.359,4184.103,4181.026,4170.385,4186.282,4158.077,4166.795,4173.462,4170.385,4199.359,0,0
177,127,0,53,4211.41,4245.513,4182.692,4206.923,4195.513,4190.641,4184.615,4171.282,4185.0,4160.0,4161.282,4171.538,4173.205,4193.333,0,0
178,0,0,2569,4197.308,4234.744000000001,4175.641,4200.128,4196.795,4198.974,4185.769,4173.718,4187.9490000000005,4167.436,4156.282,4167.0509999999995,4165.641,4182.692,0,0
179,1,0,2849,4199.231,4237.564,4170.255999999999,4200.255999999999,4195.897,4193.846,4182.9490000000005,4172.179,4189.359,4173.205,4165.255999999999,4162.308,4171.795,4182.436,0,0
180,2,0,3063,4202.0509999999995,4237.821,4176.282,4201.667,4188.333,4183.974,4181.282,4170.0,4187.692,4177.179,4170.513,4162.692,4188.077,4185.769,0,0
181,3,0,3063,4190.769,4222.179,4188.333,4199.487,4189.359,4187.692,4187.436,4175.769,4189.872,4181.154,4167.179,4172.308,4188.718,4183.846,0,0
182,4,0,3540,4186.41,4215.0,4191.41,4199.359,4196.41,4190.513,4189.359,4178.974,4190.769,4176.538,4171.026,4175.769,4177.564,4181.795,0,0
183,5,0,2173,4188.077,4207.179,4182.564,4191.795,4189.872,4184.487,4180.897,4171.795,4186.923,4171.667,4173.333,4165.0,4173.077,4179.615,0,0
184,6,0,2569,4170.641,4167.308,4171.795,4170.128,4175.385,4182.692,4175.769,4168.462,4186.41,4178.846,4169.103,4159.487,4171.538,4169.103,0,0
185,7,0,1800,4150.255999999999,4124.744000000001,4166.154,4153.333,4169.231,4184.872,4174.487,4172.564,4188.974,4186.026,4175.769,4161.795,4168.846,4156.154,0,0
186,8,0,1416,4151.795,4117.692,4165.385,4154.872,4173.59,4184.744000000001,4171.41,4174.487,4188.462,4187.436,4184.487,4161.154,4180.128,4151.923,0,0
187,9,0,3524,4151.026,4118.846,4163.333,4157.692,4173.718,4185.385,4172.9490000000005,4170.641,4184.872,4183.974,4177.9490000000005,4158.846,4188.974,4152.179,0,0
188,10,0,3146,4140.769,4108.333,4163.077,4152.821,4169.359,4188.333,4180.128,4169.744000000001,4186.795,4185.513,4172.9490000000005,4157.821,4185.0,4150.0,0,0
189,11,0,3398,4143.205,4109.487,4164.615,4153.718,4169.615,4189.872,4184.359,4174.487,4190.385,4191.538,4179.615,4157.436,4189.615,4145.897,0,0
190,12,0,3236,4143.205,4114.103,4157.308,4154.615,4167.436,4186.538,4182.564,4174.359,4186.282,4184.103,4176.795,4152.9490000000005,4188.205,4138.462,0,0
191,13,0,2024,4136.154,4113.077,4154.615,4152.692,4161.41,4183.846,4182.436,4171.538,4183.59,4175.769,4171.41,4150.0,4174.231,4136.923,0,0
192,14,0,3146,4142.9490000000005,4119.231,4164.744000000001,4161.282,4170.128,4185.128,4185.641,4178.59,4188.462,4182.9490000000005,4177.821,4156.282,4173.718,4143.974,0,0
193,15,0,3398,4150.128,4123.077,4170.128,4167.821,4173.59,4185.0,4185.255999999999,4182.0509999999995,4188.333,4183.333,4177.692,4161.41,4180.255999999999,4144.231,0,0
194,16,0,0,4147.179,4115.385,4166.923,4161.026,4156.667,4183.462,4181.795,4172.308,4184.359,4174.615,4170.513,4158.333,4175.0,4139.872,0,0
195,17,0,0,4144.744000000001,4111.282,4167.308,4155.0,4148.718,4184.231,4182.564,4167.821,4186.282,4178.462,4169.231,4155.769,4167.564,4141.154,0,0
196,18,0,0,4142.179,4111.795,4163.974,4154.487,4155.128,4187.0509999999995,4184.103,4172.436,4186.41,4180.769,4169.359,4155.513,4172.308,4140.128,0,0
197,19,0,0,4142.0509999999995,4110.641,4162.308,4153.846,4155.385,4186.282,4182.821,4172.308,4183.462,4176.282,4170.255999999999,4156.41,4178.846,4138.974,0,0
198,20,0,0,4149.487,4115.897,4169.872,4154.487,4154.744000000001,4182.308,4183.462,4169.744000000001,4185.513,4182.308,4180.128,4160.128,4184.359,4146.282,0,0
199,21,0,0,4153.462,4122.436,4170.0,4156.154,4156.026,4182.692,4183.718,4172.821,4186.923,4184.359,4184.231,4162.9490000000005,4189.872,4151.41,0,0
200,22,0,0,4149.359,4120.0,4161.538,4153.205,4155.0,4182.564,4180.641,4179.231,4186.667,4177.821,4175.641,4159.872,4183.718,4148.59,0,0
201,23,0,0,4151.923,4120.0,4166.026,4155.128,4160.385,4180.769,4186.154,4186.41,4191.154,4180.641,4179.872,4164.231,4178.846,4153.718,0,0
202,24,0,0,4158.205,4128.077,4177.9490000000005,4162.821,4168.077,4186.282,4194.231,4188.974,4192.821,4191.538,4194.872,4174.359,4190.385,4166.41,0,0
203,25,0,0,4157.179,4131.41,4175.897,4168.462,4168.846,4191.154,4189.872,4185.128,4188.333,4196.154,4195.255999999999,4174.487,4198.462,4165.641,0,0
204,26,0,0,4154.359,4128.846,4173.846,4170.769,4171.41,4185.385,4187.821,4181.282,4187.179,4196.538,4188.333,4170.128,4188.59,4158.718,0,0
205,27,0,0,4154.103,4134.231,4181.667,4170.385,4175.769,4183.333,4194.359,4179.231,4188.077,4196.282,4187.692,4173.333,4177.692,4159.487,0,0
206,28,0,0,4156.41,4140.0,4183.333,4168.077,4174.359,4188.333,4190.513,4175.385,4186.538,4190.897,4189.231,4176.154,4176.795,4162.436,0,0
207,29,0,0,4163.333,4137.436,4182.0509999999995,4170.0,4172.692,4187.0509999999995,4181.026,4171.923,4186.923,4189.103,4195.641,4175.897,4187.692,4166.538,0,0
208,30,0,0,4168.462,4137.179,4187.821,4173.462,4172.821,4183.59,4182.308,4173.718,4185.0,4191.154,4197.821,4177.0509999999995,4197.308,4168.462,0,0
209,31,0,0,4161.41,4135.897,4183.974,4164.231,4168.974,4186.41,4184.487,4173.333,4179.744000000001,4186.026,4185.897,4171.923,4182.564,4159.231,0,0
210,32,0,0,4153.718,4127.308,4175.128,4155.128,4167.179,4190.255999999999,4183.077,4168.59,4180.897,4178.846,4177.0509999999995,4167.564,4161.154,4150.641,0,0
211,33,0,0,4158.59,4128.333,4180.769,4163.59,4169.615,4187.821,4185.769,4173.974,4184.872,4182.821,4183.205,4171.41,4162.692,4156.282,0,0
212,34,0,0,4160.0,4138.846,4185.897,4169.487,4170.513,4181.667,4186.282,4184.231,4184.231,4187.308,4183.462,4173.846,4176.026,4158.974,0,0
213,35,0,0,4156.923,4140.0,4183.59,4165.385,4174.487,4180.385,4184.487,4182.179,4185.255999999999,4184.487,4181.538,4172.308,4184.615,4158.59,0,0
214,36,0,0,4163.974,4139.744000000001,4183.59,4167.179,4182.564,4186.026,4186.795,4177.821,4187.9490000000005,4187.0509999999995,4194.615,4173.846,4185.255999999999,4168.462,0,0
215,37,0,0,4171.026,4147.0509999999995,4178.462,4170.641,4182.564,4186.923,4187.308,4179.359,4186.667,4188.974,4204.744000000001,4174.744000000001,4186.538,4174.359,0,0
216,38,0,0,4163.846,4148.077,4168.718,4168.462,4176.026,4182.9490000000005,4177.9490000000005,4176.923,4184.359,4188.333,4198.846,4170.897,4185.128,4167.9490000000005,0,0
217,39,0,0,4154.103,4144.487,4166.41,4168.846,4179.744000000001,4185.128,4175.897,4173.205,4186.538,4188.974,4191.154,4166.282,4172.9490000000005,4160.128,0,0
218,40,0,0,4156.282,4149.103,4169.359,4170.641,4184.744000000001,4187.179,4182.308,4174.359,4187.0509999999995,4188.974,4189.487,4166.282,4169.872,4158.974,0,0
219,41,0,0,4158.59,4153.846,4168.846,4169.359,4181.538,4184.615,4176.538,4173.205,4181.538,4185.0,4187.564,4166.026,4172.564,4156.667,0,0
220,42,0,0,4159.615,4153.077,4167.564,4170.897,4177.436,4179.487,4167.179,4171.154,4180.385,4183.974,4186.41,4162.436,4167.564,4154.615,0,0
221,43,0,0,4166.282,4152.9490000000005,4168.462,4172.692,4173.846,4177.436,4173.205,4172.436,4186.667,4187.179,4186.795,4163.333,4175.641,4156.282,0,0
222,44,0,0,4165.385,4153.077,4171.667,4170.513,4171.026,4179.231,4183.846,4171.154,4186.667,4184.872,4185.128,4163.846,4185.513,4157.179,0,0
223,45,0,0,4157.0509999999995,4152.308,4173.974,4171.154,4169.615,4184.359,4182.9490000000005,4170.513,4180.641,4183.077,4184.744000000001,4161.923,4173.974,4156.667,0,0
224,46,0,0,4161.667,4154.615,4174.744000000001,4173.718,4170.0,4185.769,4175.255999999999,4172.436,4182.308,4185.513,4184.231,4165.385,4166.667,4157.9490000000005,0,0
225,47,0,0,4171.282,4153.846,4180.0,4170.0,4168.59,4175.897,4167.821,4171.667,4185.641,4182.564,4183.718,4167.0509999999995,4175.897,4157.821,0,0
226,48,0,0,4167.821,4151.41,4185.897,4167.179,4168.974,4174.103,4167.0509999999995,4169.872,4182.821,4179.744000000001,4184.872,4162.308,4176.026,4156.282,0,0
227,49,0,0,4165.897,4151.154,4186.538,4169.872,4168.333,4179.359,4172.692,4171.923,4181.538,4179.872,4179.615,4162.564,4157.0509999999995,4156.795,0,0
228,50,0,0,4168.846,4150.385,4181.667,4169.231,4165.897,4175.128,4171.154,4171.923,4181.41,4177.308,4170.641,4164.231,4139.359,4156.026,0,0
229,51,0,0,4164.872,4150.769,4178.205,4167.179,4166.41,4172.436,4170.0,4169.487,4181.795,4178.077,4174.487,4162.564,4145.769,4155.0,0,0
230,52,0,0,4162.436,4151.41,4181.026,4170.385,4169.103,4181.667,4180.769,4171.026,4185.641,4185.769,4184.615,4162.821,4165.255999999999,4155.128,0,0
231,53,0,0,4163.846,4153.077,4185.0,4172.0509999999995,4171.282,4185.769,4185.255999999999,4170.897,4182.436,4183.846,4185.385,4161.795,4165.513,4152.436,0,0
232,54,0,0,4165.513,4154.615,4185.769,4171.795,4171.538,4182.0509999999995,4181.282,4169.231,4176.282,4178.846,4185.385,4159.487,4161.795,4153.077,0,0
233,55,0,0,4160.769,4143.462,4187.308,4170.513,4169.872,4183.59,4186.538,4173.205,4180.385,4183.462,4184.615,4164.615,4169.872,4152.692,0,0
234,56,0,0,4156.795,4142.0509999999995,4185.385,4170.255999999999,4169.103,4182.308,4186.41,4174.744000000001,4185.385,4189.103,4175.255999999999,4165.385,4173.718,4144.231,0,0
235,57,0,0,4160.0,4168.333,4173.59,4178.718,4173.846,4182.436,4172.821,4171.41,4183.718,4188.205,4171.41,4156.282,4171.795,4140.255999999999,0,0
236,58,0,0,4160.128,4189.103,4166.282,4188.718,4183.077,4182.821,4167.436,4169.103,4181.795,4178.718,4169.615,4153.974,4162.821,4142.436,0,0
237,59,0,0,4154.872,4184.744000000001,4170.897,4187.308,4184.872,4176.923,4172.308,4167.179,4179.615,4165.255999999999,4157.436,4158.846,4153.077,4136.538,0,0
238,60,0,0,4152.436,4183.974,4177.436,4184.231,4179.359,4174.615,4168.846,4167.179,4179.487,4166.41,4154.744000000001,4159.615,4156.41,4132.9490000000005,0,0
239,61,0,0,4155.128,4192.821,4176.282,4186.154,4179.359,4177.692,4159.231,4168.462,4179.103,4177.821,4167.0509999999995,4157.821,4157.179,4139.615,0,0
240,62,0,0,4155.128,4192.308,4170.385,4186.795,4186.667,4183.974,4159.487,4167.692,4172.0509999999995,4177.564,4170.255999999999,4161.282,4146.923,4141.538,0,0
241,63,0,0,4154.487,4188.59,4167.0509999999995,4186.026,4185.0,4185.0,4167.564,4166.923,4168.462,4173.205,4166.923,4161.538,4148.718,4138.718,0,0
242,64,0,2568,4156.154,4186.923,4168.59,4181.41,4174.359,4175.128,4166.923,4166.41,4171.026,4171.667,4164.872,4155.897,4151.923,4138.718,0,0
243,65,0,2849,4155.769,4186.154,4171.282,4179.103,4175.128,4170.513,4162.308,4165.769,4171.41,4167.564,4160.769,4155.0,4149.103,4138.077,0,0
244,66,0,3063,4155.128,4185.385,4172.0509999999995,4181.026,4182.564,4180.255999999999,4169.615,4169.231,4170.513,4163.333,4160.0,4160.0,4161.667,4137.692,0,0
245,67,0,3065,4153.462,4185.897,4171.795,4178.077,4182.436,4188.205,4174.744000000001,4172.692,4172.692,4164.487,4164.103,4160.641,4174.615,4139.744000000001,0,0
246,68,0,3540,4150.128,4183.077,4170.897,4172.821,4176.667,4181.795,4166.026,4169.103,4174.231,4168.59,4164.487,4158.333,4165.769,4139.615,0,0
247,69,0,2165,4144.231,4173.59,4171.41,4173.333,4170.641,4171.538,4163.974,4166.41,4173.205,4169.359,4165.513,4157.692,4154.744000000001,4137.564,0,0
248,70,0,2567,4137.179,4168.59,4170.513,4172.308,4164.744000000001,4172.9490000000005,4171.923,4168.59,4173.205,4169.744000000001,4163.205,4155.513,4167.308,4135.641,0,0
249,71,0,1797,4131.923,4168.333,4164.359,4166.154,4163.462,4185.0,4173.846,4171.154,4173.077,4168.846,4152.692,4152.692,4179.359,4133.077,0,0
250,72,0,1416,4131.667,4168.718,4162.9490000000005,4168.333,4169.231,4186.154,4171.282,4171.41,4170.897,4164.872,4150.128,4153.846,4162.692,4134.615,0,0
251,73,0,3522,4133.462,4169.231,4165.385,4173.333,4174.872,4173.846,4171.795,4171.538,4170.0,4155.897,4156.41,4155.513,4148.974,4139.487,0,0
252,74,0,3151,4128.59,4166.538,4159.615,4166.282,4169.103,4168.974,4172.179,4173.077,4173.333,4150.897,4155.255999999999,4153.205,4159.487,4138.846,0,0
253,75,0,3401,4123.846,4164.231,4153.59,4158.462,4155.897,4171.923,4169.231,4172.436,4173.974,4156.538,4152.9490000000005,4152.692,4163.974,4136.026,0,0
254,76,0,3237,4131.282,4167.0509999999995,4161.282,4164.103,4158.462,4174.103,4165.897,4170.128,4171.41,4165.255999999999,4157.436,4157.0509999999995,4153.59,4141.667,0,0
255,77,0,2030,4140.128,4171.795,4171.41,4170.513,4171.282,4178.462,4165.769,4170.255999999999,4172.436,4168.205,4163.077,4161.154,4148.462,4151.667,0,0
256,78,0,3151,4146.41,4176.923,4172.436,4169.103,4174.103,4183.974,4169.744000000001,4172.564,4174.487,4168.077,4167.821,4164.103,4151.667,4158.462,0,0
257,79,0,3401,4150.255999999999,4178.205,4170.641,4169.872,4169.487,4180.385,4170.385,4173.205,4173.718,4169.872,4166.795,4165.513,4155.255999999999,4157.308,0,0
258,80,0,3237,4141.41,4170.128,4168.974,4169.103,4162.821,4168.846,4159.487,4168.718,4170.769,4171.026,4157.308,4161.154,4157.564,4145.897,0,0
259,81,0,2030,4132.308,4165.385,4169.744000000001,4164.872,4157.0509999999995,4170.641,4154.615,4164.872,4168.077,4168.462,4148.846,4157.564,4155.0,4137.564,0,0
260,82,0,3151,4137.179,4171.026,4168.974,4167.179,4161.282,4177.692,4166.282,4165.385,4168.205,4165.128,4148.462,4158.846,4154.487,4143.846,0,0
261,83,0,3401,4143.59,4176.026,4163.974,4172.0509999999995,4170.641,4177.0509999999995,4166.026,4166.026,4170.513,4163.974,4153.333,4160.255999999999,4158.846,4152.308,0,0
262,84,0,3237,4139.487,4179.872,4163.846,4171.923,4171.538,4175.769,4154.487,4168.333,4171.538,4165.255999999999,4155.769,4158.205,4161.41,4152.308,0,0
263,85,0,2030,4136.923,4180.385,4170.769,4169.615,4169.487,4174.359,4158.077,4171.538,4170.513,4166.154,4153.974,4157.9490000000005,4151.667,4148.974,0,0
264,86,0,3151,4139.103,4175.641,4170.385,4169.231,4169.744000000001,4171.667,4164.744000000001,4168.205,4169.487,4168.59,4153.59,4157.308,4136.667,4144.744000000001,0,0
265,87,0,3401,4137.308,4170.897,4163.077,4168.718,4167.692,4170.513,4156.154,4164.487,4168.846,4163.974,4153.462,4150.513,4141.026,4136.41,0,0
266,88,0,3237,4135.513,4172.308,4164.872,4167.564,4163.974,4169.231,4154.359,4169.231,4169.231,4158.974,4152.436,4148.59,4155.385,4138.462,0,0
267,89,0,2030,4140.513,4178.718,4172.0509999999995,4169.103,4166.538,4175.0,4164.231,4172.179,4170.0,4164.359,4155.769,4156.923,4153.718,4150.897,0,0
268,90,0,3151,4143.846,4178.59,4174.615,4170.897,4172.179,4185.641,4163.333,4168.077,4168.205,4169.103,4156.923,4160.897,4142.692,4153.462,0,0
269,91,0,3401,4139.359,4173.077,4172.308,4169.487,4167.692,4178.974,4155.897,4166.41,4167.179,4163.59,4152.821,4151.026,4137.0509999999995,4145.255999999999,0,0
270,92,0,3237,4137.436,4171.667,4169.359,4168.974,4160.0,4165.385,4155.513,4167.692,4168.846,4159.487,4149.872,4148.333,4139.487,4142.179,0,0
271,93,0,2030,4141.41,4172.436,4169.103,4170.255999999999,4163.718,4170.128,4157.0509999999995,4167.179,4168.846,4164.744000000001,4151.795,4157.179,4147.9490000000005,4147.436,0,0
272,94,0,3151,4140.641,4169.231,4171.795,4170.513,4167.0509999999995,4174.359,4154.359,4166.41,4167.564,4164.103,4155.769,4159.872,4152.436,4151.667,0,0
273,95,0,3401,4138.59,4167.9490000000005,4171.026,4169.487,4163.846,4168.205,4156.41,4165.897,4169.487,4163.59,4156.154,4155.255999999999,4154.103,4153.974,0,0
274,96,0,3237,4139.359,4173.846,4167.179,4170.385,4166.923,4170.385,4166.154,4166.026,4170.513,4171.154,4159.615,4157.0509999999995,4157.9490000000005,4154.744000000001,0,0
275,97,0,2030,4142.179,4174.615,4169.103,4175.255999999999,4173.077,4176.154,4172.564,4168.205,4168.59,4173.205,4167.692,4161.538,4156.154,4154.744000000001,0,0
276,98,0,3151,4148.077,4171.923,4170.255999999999,4180.897,4173.718,4176.282,4172.308,4170.0,4168.846,4167.9490000000005,4166.026,4162.692,4151.538,4156.026,0,0
277,99,0,3401,4154.487,4176.923,4170.641,4182.9490000000005,4180.385,4181.795,4171.026,4169.359,4171.41,4167.436,4161.923,4163.462,4149.615,4154.615,0,0
278,100,0,3237,4158.974,4185.255999999999,4174.872,4183.974,4189.487,4185.513,4170.128,4169.487,4171.026,4173.205,4163.974,4165.255999999999,4151.923,4153.846,0,0
279,101,0,2030,4158.718,4184.103,4175.255999999999,4184.359,4187.179,4175.255999999999,4167.821,4170.385,4168.205,4171.41,4158.718,4165.255999999999,4154.359,4154.872,0,0
280,102,0,3151,4157.692,4178.718,4171.667,4180.128,4177.436,4167.692,4169.487,4171.026,4168.333,4171.154,4157.308,4164.872,4150.0,4154.231,0,0
281,103,0,3401,4161.795,4180.385,4169.615,4178.205,4172.564,4175.128,4172.179,4170.641,4168.846,4175.513,4169.231,4162.308,4144.231,4153.59,0,0
282,104,0,3237,4168.59,4182.0509999999995,4174.103,4181.154,4173.077,4183.462,4173.718,4169.231,4168.333,4173.077,4166.41,4161.282,4145.0,4159.872,0,0
283,105,0,2030,4170.513,4181.795,4183.333,4182.9490000000005,4175.513,4187.0509999999995,4172.9490000000005,4170.0,4171.923,4171.026,4158.462,4162.564,4155.255999999999,4166.795,0,0
284,106,0,3151,4168.333,4182.692,4186.667,4182.821,4175.0,4182.436,4170.0,4172.0509999999995,4173.846,4179.744000000001,4168.333,4164.872,4169.103,4168.462,0,0
285,107,0,3401,4170.897,4186.538,4183.846,4184.487,4175.641,4175.255999999999,4170.255999999999,4172.0509999999995,4169.487,4190.513,4176.026,4168.846,4169.231,4171.026,0,0
286,108,0,3237,4168.462,4187.436,4184.103,4187.308,4182.0509999999995,4175.255999999999,4173.077,4170.897,4167.564,4188.205,4171.923,4168.846,4155.255999999999,4171.795,0,0
287,109,0,2030,4158.462,4177.0509999999995,4185.255999999999,4183.846,4180.897,4173.077,4171.538,4169.103,4170.769,4176.538,4167.0509999999995,4164.744000000001,4151.795,4167.564,0,0
288,110,0,3151,4159.744000000001,4174.872,4183.205,4181.154,4179.615,4174.231,4169.231,4169.487,4172.179,4172.436,4168.846,4162.0509999999995,4159.359,4169.103,0,0
289,111,0,3401,4165.513,4181.923,4186.026,4183.846,4185.385,4182.821,4170.255999999999,4169.487,4169.872,4174.615,4169.231,4162.564,4158.718,4166.923,0,0
290,112,0,3237,4162.0509999999995,4180.641,4185.128,4181.667,4183.462,4181.282,4170.641,4169.872,4168.718,4170.385,4162.0509999999995,4161.026,4152.9490000000005,4155.897,0,0
291,113,0,2030,4157.436,4173.333,4174.872,4172.821,4170.385,4169.103,4167.692,4167.436,4164.872,4159.231,4155.0,4156.026,4139.872,4150.255999999999,0,0
292,114,0,3151,4151.538,4167.821,4167.179,4166.795,4163.205,4166.538,4161.667,4160.513,4161.667,4149.872,4151.538,4148.077,4129.103,4145.897,0,0
293,115,0,3401,4145.641,4165.769,4168.077,4167.9490000000005,4167.564,4170.769,4154.359,4161.41,4164.487,4153.333,4151.795,4148.718,4141.026,4145.255999999999,0,0
294,116,0,3237,4157.9490000000005,4169.744000000001,4171.667,4173.846,4169.872,4172.308,4157.308,4169.872,4169.744000000001,4166.282,4160.641,4159.231,4157.564,4160.513,0,0
295,117,0,2030,4168.974,4172.308,4172.179,4175.769,4170.513,4171.154,4166.41,4173.077,4170.513,4172.436,4166.538,4164.359,4155.641,4167.564,0,0
296,118,0,3151,4157.0509999999995,4169.231,4170.0,4171.41,4168.974,4169.615,4167.0509999999995,4170.513,4168.462,4172.179,4165.385,4161.923,4148.333,4161.41,0,0
297,119,0,3401,4151.923,4171.923,4173.077,4169.744000000001,4166.667,4178.718,4165.385,4171.282,4168.077,4171.923,4165.897,4160.0,4151.282,4163.974,0,0
298,120,0,3237,4156.282,4164.359,4177.436,4162.0509999999995,4168.205,4183.974,4169.872,4170.255999999999,4168.333,4160.128,4154.487,4158.846,4147.9490000000005,4156.026,0,0
299,121,0,2030,4149.615,4146.795,4174.103,4150.641,4165.385,4173.205,4171.667,4166.667,4167.564,4147.0509999999995,4139.103,4157.9490000000005,4134.231,4136.923,0,0
300,122,0,3151,4154.615,4151.282,4174.615,4162.0509999999995,4160.769,4167.564,4167.821,4169.231,4165.128,4156.923,4155.641,4159.103,4133.462,4151.923,0,0
301,123,0,3401,4175.255999999999,4158.462,4181.538,4170.385,4158.462,4172.821,4166.41,4170.513,4166.282,4171.538,4180.513,4161.795,4142.0509999999995,4181.795,0,0
302,124,0,3237,4184.487,4141.154,4185.769,4155.769,4156.667,4173.462,4171.538,4171.282,4170.385,4173.846,4185.0,4167.564,4141.282,4187.821,0,0
303,125,0,2030,4188.077,4131.667,4192.308,4155.513,4162.821,4171.026,4177.692,4173.846,4171.41,4181.795,4195.769,4175.513,4144.103,4196.538,0,0
304,126,0,3151,4192.692,4137.9490000000005,4197.308,4164.872,4169.487,4175.513,4177.308,4174.615,4170.769,4191.282,4204.872,4180.385,4154.231,4206.282,0,0
305,127,0,53,4186.923,4127.821,4187.436,4155.128,4160.255999999999,4175.385,4171.282,4170.128,4170.0,4182.9490000000005,4194.872,4174.744000000001,4152.9490000000005,4194.103,0,0
306,0,0,2577,4181.282,4116.667,4181.923,4147.179,4150.513,4170.128,4168.718,4169.359,4168.205,4178.846,4192.179,4172.0509999999995,4151.026,4188.718,0,0
307,1,0,2852,4188.59,4128.974,4193.333,4158.333,4162.179,4175.255999999999,4176.026,4175.0,4173.462,4195.897,4203.462,4181.282,4156.667,4205.641,0,0
308,2,0,3066,4192.436,4135.255999999999,4195.255999999999,4165.128,4172.308,4184.103,4180.641,4174.359,4180.897,4201.026,4202.308,4184.487,4153.846,4206.923,0,0
309,3,0,3072,4184.359,4127.0509999999995,4184.615,4164.231,4166.923,4183.077,4175.513,4169.487,4175.897,4188.077,4192.179,4174.872,4146.795,4187.821,0,0
310,4,0,3541,4181.154,4131.41,4183.333,4166.795,4167.9490000000005,4183.077,4175.897,4170.513,4169.103,4193.333,4197.179,4173.077,4149.872,4187.0509999999995,0,0
311,5,0,2167,4187.692,4141.795,4189.744000000001,4171.026,4172.564,4183.846,4185.255999999999,4173.077,4171.923,4208.205,4208.333,4180.0,4157.692,4198.462,0,0
312,6,0,2567,4185.641,4138.846,4187.692,4170.897,4171.026,4173.462,4183.077,4171.667,4173.333,4199.231,4200.897,4178.59,4154.103,4190.128,0,0
313,7,0,1797,4173.59,4133.333,4177.308,4163.205,4168.333,4165.513,4171.667,4171.026,4170.769,4185.0,4185.769,4171.154,4149.231,4175.0,0,0
314,8,0,1416,4167.821,4132.436,4169.359,4157.179,4169.103,4172.564,4175.128,4172.564,4169.872,4178.846,4180.385,4165.897,4145.897,4175.897,0,0
315,9,0,3531,4165.128,4127.179,4164.615,4152.821,4167.308,4175.385,4184.744000000001,4172.179,4170.0,4173.333,4175.641,4163.205,4141.538,4176.667,0,0
316,10,0,3155,4162.179,4121.41,4168.59,4151.667,4160.897,4172.179,4184.487,4172.308,4169.744000000001,4173.846,4175.255999999999,4163.59,4143.846,4165.897,0,0
317,11,0,3405,4166.667,4124.744000000001,4175.385,4156.667,4158.077,4179.231,4181.026,4168.846,4170.255999999999,4176.026,4185.641,4167.0509999999995,4136.41,4166.667,0,0
318,12,0,3241,4171.41,4133.205,4177.436,4158.718,4165.128,4184.487,4183.846,4169.359,4171.154,4178.974,4189.615,4168.974,4122.692,4178.846,0,0
319,13,0,2031,4168.59,4133.846,4178.462,4157.0509999999995,4170.513,4175.641,4188.205,4179.615,4172.308,4181.795,4182.0509999999995,4170.641,4131.41,4180.769,0,0
320,14,0,3155,4167.0509999999995,4125.385,4175.769,4156.282,4161.667,4167.436,4181.41,4180.769,4171.154,4175.641,4182.821,4167.564,4146.667,4171.026,0,0
321,15,0,3405,4167.0509999999995,4123.205,4172.564,4155.128,4152.436,4169.231,4170.641,4170.128,4168.846,4167.821,4189.103,4163.846,4137.0509999999995,4167.692,0,0
322,16,0,0,4169.359,4132.179,4179.615,4158.205,4160.641,4169.872,4167.179,4168.205,4167.821,4177.308,4185.128,4167.0509999999995,4136.923,4178.333,0,0
323,17,0,0,4179.615,4139.487,4187.9490000000005,4164.487,4169.744000000001,4172.9490000000005,4173.205,4172.0509999999995,4165.897,4187.436,4182.0509999999995,4175.513,4152.692,4188.333,0,0
324,18,0,0,4186.538,4138.077,4185.897,4163.462,4167.0509999999995,4185.385,4180.0,4172.564,4167.692,4186.41,4191.795,4178.974,4148.333,4187.9490000000005,0,0
325,19,0,0,4184.231,4133.718,4181.795,4156.154,4161.282,4183.205,4181.154,4176.026,4173.718,4185.897,4197.692,4173.846,4142.436,4185.0,0,0
326,20,0,0,4182.436,4136.154,4183.077,4159.359,4165.385,4173.718,4180.641,4182.179,4173.974,4186.667,4189.615,4170.897,4153.59,4187.9490000000005,0,0
327,21,0,0,4184.615,4140.769,4185.0,4164.103,4172.9490000000005,4177.564,4184.231,4183.59,4169.615,4189.103,4186.41,4174.744000000001,4157.308,4191.282,0,0
328,22,0,0,4183.077,4133.333,4180.641,4154.872,4163.59,4179.359,4185.641,4181.795,4166.282,4180.897,4188.077,4173.462,4139.744000000001,4183.205,0,0
329,23,0,0,4180.897,4127.308,4174.231,4152.564,4152.9490000000005,4175.513,4184.744000000001,4181.282,4170.128,4167.179,4181.41,4168.205,4126.795,4178.718,0,0
330,24,0,0,4184.359,4136.795,4186.154,4166.154,4163.077,4181.026,4194.359,4184.615,4178.59,4175.255999999999,4183.846,4175.128,4139.103,4193.974,0,0
331,25,0,0,4187.436,4144.359,4203.333,4172.9490000000005,4175.513,4184.872,4202.179,4186.282,4178.59,4196.282,4195.255999999999,4184.872,4159.615,4205.769,0,0
332,26,0,0,4188.974,4139.615,4196.923,4166.538,4170.513,4182.179,4200.513,4182.821,4170.769,4191.026,4190.513,4180.513,4152.436,4194.615,0,0
333,27,0,0,4187.436,4141.026,4184.231,4166.026,4168.077,4186.923,4197.692,4181.41,4169.103,4174.231,4179.872,4174.103,4134.615,4182.308,0,0
334,28,0,0,4185.385,4146.026,4183.462,4170.769,4170.897,4183.205,4191.667,4183.59,4175.513,4190.385,4185.513,4176.41,4155.897,4186.795,0,0
335,29,0,0,4191.538,4144.359,4187.0509999999995,4170.769,4168.462,4175.385,4189.359,4184.103,4176.923,4205.385,4192.692,4178.846,4174.487,4195.769,0,0
336,30,0,0,4200.513,4145.641,4190.769,4171.795,4170.769,4180.513,4197.0509999999995,4183.59,4172.308,4189.231,4187.692,4180.0,4146.795,4198.333,0,0
337,31,0,0,4202.179,4147.821,4191.154,4173.462,4173.462,4179.615,4200.769,4183.333,4170.513,4186.026,4183.333,4179.487,4129.615,4198.974,0,0
338,32,0,0,4195.255999999999,4143.333,4192.179,4173.077,4167.436,4174.231,4196.41,4186.026,4171.282,4199.487,4185.897,4178.462,4149.103,4200.0,0,0
339,33,0,0,4193.333,4141.41,4197.564,4170.385,4164.103,4180.513,4200.0,4190.255999999999,4170.641,4192.821,4187.9490000000005,4179.615,4160.128,4201.795,0,0
340,34,0,0,4197.0509999999995,4145.385,4201.282,4168.974,4168.205,4185.385,4203.718,4188.718,4171.538,4179.615,4186.41,4182.0509999999995,4159.744000000001,4202.179,0,0
341,35,0,0,4195.769,4147.436,4197.9490000000005,4171.795,4170.385,4181.795,4194.744000000001,4183.59,4174.487,4186.667,4185.641,4181.026,4165.769,4198.59,0,0
342,36,0,0,4192.179,4144.487,4193.205,4172.179,4170.128,4185.128,4185.0,4183.462,4172.179,4192.308,4188.205,4178.974,4164.103,4196.282,0,0
343,37,0,0,4195.255999999999,4146.154,4191.154,4168.718,4171.795,4189.231,4185.769,4184.744000000001,4171.41,4189.231,4188.846,4179.487,4167.436,4199.744000000001,0,0
344,38,0,0,4199.231,4150.641,4195.385,4169.744000000001,4170.128,4185.385,4190.385,4184.231,4175.385,4191.41,4187.9490000000005,4181.41,4180.513,4204.615,0,0
345,39,0,0,4190.769,4145.641,4198.205,4171.41,4164.359,4178.333,4181.41,4183.333,4174.359,4190.385,4185.513,4182.436,4173.59,4203.205,0,0
346,40,0,0,4183.205,4136.923,4187.436,4167.436,4157.821,4176.282,4170.255999999999,4176.667,4169.103,4180.641,4185.255999999999,4181.282,4153.462,4201.41,0,0
347,41,0,0,4187.0509999999995,4142.436,4182.436,4168.974,4158.846,4181.667,4175.769,4170.641,4167.0509999999995,4175.897,4188.846,4180.128,4146.026,4207.821,0,0
348,42,0,0,4187.692,4143.333,4195.641,4168.846,4167.692,4185.0,4186.538,4178.974,4170.128,4184.615,4190.255999999999,4183.333,4152.308,4212.0509999999995,0,0
349,43,0,0,4180.897,4129.487,4201.282,4160.255999999999,4170.255999999999,4182.564,4184.872,4182.179,4172.308,4182.9490000000005,4185.255999999999,4186.154,4156.154,4206.026,0,0
350,44,0,0,4181.41,4142.564,4189.231,4166.282,4166.282,4184.615,4182.564,4172.692,4169.231,4174.487,4183.205,4183.205,4156.282,4204.744000000001,0,0
351,45,0,0,4188.333,4182.564,4183.462,4185.0,4171.282,4182.692,4182.308,4168.846,4166.154,4175.385,4182.9490000000005,4180.385,4155.0,4206.026,0,0
352,46,0,0,4180.769,4198.205,4186.154,4186.282,4173.59,4170.769,4173.846,4172.0509999999995,4167.9490000000005,4166.282,4167.179,4176.923,4146.795,4192.0509999999995,0,0
353,47,0,0,4169.744000000001,4188.718,4185.255999999999,4174.615,4169.872,4176.282,4173.205,4176.538,4170.255999999999,4157.564,4153.974,4173.718,4150.255999999999,4177.308,0,0
354,48,0,0,4169.487,4187.9490000000005,4185.385,4176.795,4175.255999999999,4187.692,4183.462,4180.513,4170.769,4168.462,4159.359,4176.538,4168.333,4182.0509999999995,0,0
355,49,0,0,4172.692,4193.59,4190.255999999999,4185.513,4179.103,4176.667,4183.718,4177.9490000000005,4169.231,4169.231,4161.923,4180.385,4163.333,4185.897,0,0
356,50,0,0,4170.897,4188.462,4188.718,4184.615,4170.513,4165.128,4176.154,4171.538,4166.154,4150.513,4153.462,4175.641,4136.538,4174.103,0,0
357,51,0,0,4168.59,4180.513,4184.231,4179.872,4166.154,4171.154,4170.513,4170.255999999999,4166.795,4151.154,4150.769,4172.0509999999995,4133.205,4167.821,0,0
358,52,0,0,4176.026,4187.9490000000005,4190.513,4182.692,4177.179,4174.744000000001,4172.179,4171.667,4170.641,4170.513,4162.692,4179.359,4153.205,4178.462,0,0
359,53,0,0,4190.0,4202.436,4201.795,4190.897,4184.359,4176.923,4183.205,4173.846,4172.692,4173.718,4172.9490000000005,4186.538,4167.564,4191.538,0,0
360,54,0,0,4187.564,4196.795,4201.154,4189.231,4178.974,4187.564,4183.077,4173.59,4169.872,4160.385,4162.564,4181.923,4170.641,4184.487,0,0
361,55,0,0,4170.385,4183.462,4188.59,4181.795,4174.487,4184.487,4171.41,4169.359,4165.385,4149.103,4140.897,4173.333,4156.667,4168.462,0,0
362,56,0,0,4166.667,4184.103,4182.821,4181.667,4174.744000000001,4171.41,4175.385,4174.231,4164.615,4148.205,4140.0,4173.59,4138.59,4168.205,0,0
363,57,0,0,4172.9490000000005,4187.821,4185.513,4183.077,4173.333,4170.513,4185.0,4183.462,4166.923,4149.744000000001,4153.846,4172.308,4141.282,4174.615,0,0
364,58,0,0,4167.821,4186.026,4182.564,4176.795,4172.0509999999995,4173.718,4183.205,4184.231,4166.538,4148.205,4150.513,4166.795,4148.462,4167.9490000000005,0,0
365,59,0,0,4158.718,4181.923,4173.718,4170.0,4170.641,4170.0,4180.513,4178.462,4164.487,4148.205,4143.462,4162.692,4140.897,4157.692,0,0
366,60,0,0,4153.462,4172.692,4164.744000000001,4168.974,4160.769,4168.718,4177.564,4174.231,4166.026,4152.179,4149.103,4160.255999999999,4140.385,4156.538,0,0
367,61,0,0,4152.9490000000005,4169.615,4159.487,4168.077,4152.692,4170.255999999999,4171.41,4172.564,4168.077,4153.718,4154.615,4156.667,4151.282,4154.744000000001,0,0
368,62,0,0,4160.385,4179.487,4161.795,4168.462,4155.128,4167.308,4170.513,4172.308,4169.487,4153.974,4150.641,4156.538,4156.282,4155.0,0,0
369,63,0,0,4169.487,4184.487,4168.846,4172.9490000000005,4162.821,4173.205,4171.41,4173.205,4168.846,4162.308,4151.667,4160.0,4163.333,4164.744000000001,0,0
370,64,0,2573,4171.923,4181.154,4171.667,4176.795,4171.795,4180.769,4171.282,4173.974,4169.487,4172.436,4161.026,4165.641,4175.255999999999,4173.205,0,0
371,65,0,2852,4171.923,4183.333,4172.9490000000005,4178.974,4173.077,4173.718,4171.282,4172.308,4172.564,4174.615,4161.667,4167.692,4167.436,4174.615,0,0
372,66,0,3066,4168.462,4182.821,4172.9490000000005,4175.385,4163.846,4170.769,4167.436,4169.615,4165.641,4165.769,4148.59,4162.821,4143.462,4169.231,0,0
373,67,0,3070,4160.128,4174.872,4168.077,4168.846,4162.0509999999995,4177.821,4165.385,4170.769,4155.513,4155.513,4144.359,4160.897,4132.436,4162.179,0,0
374,68,0,3539,4155.513,4171.282,4166.795,4168.333,4165.897,4173.846,4166.154,4172.179,4160.128,4159.103,4152.308,4162.692,4145.128,4161.923,0,0
375,69,0,2170,4162.179,4177.9490000000005,4171.282,4170.385,4166.026,4166.282,4166.538,4172.179,4170.513,4170.255999999999,4157.9490000000005,4163.59,4175.0,4167.179,0,0
376,70,0,2566,4168.077,4184.615,4169.359,4170.128,4166.282,4168.974,4168.462,4172.179,4169.103,4173.077,4160.513,4165.128,4176.41,4170.385,0,0
377,71,0,1797,4165.513,4181.538,4167.564,4169.487,4165.641,4168.846,4169.872,4170.769,4166.026,4165.385,4160.769,4164.359,4133.205,4166.41,0,0
378,72,0,1416,4161.154,4173.333,4170.0,4168.333,4158.974,4166.41,4169.359,4169.231,4167.692,4156.923,4155.513,4159.744000000001,4113.077,4158.205,0,0
379,73,0,3537,4158.59,4169.744000000001,4163.718,4166.667,4157.564,4170.641,4171.026,4172.179,4168.205,4156.154,4150.385,4156.667,4140.513,4151.41,0,0
380,74,0,3156,4154.744000000001,4173.974,4157.564,4169.615,4163.462,4171.026,4172.0509999999995,4175.0,4166.282,4163.59,4152.308,4153.205,4159.872,4152.9490000000005,0,0
381,75,0,3410,4152.436,4176.41,4164.872,4171.41,4163.846,4166.667,4168.59,4173.077,4163.333,4170.769,4155.897,4152.0509999999995,4150.0,4157.436,0,0
382,76,0,3243,4159.231,4170.385,4165.641,4166.538,4159.872,4166.026,4166.41,4170.513,4160.0,4167.692,4152.179,4155.897,4140.769,4154.359,0,0
383,77,0,2031,4166.667,4167.9490000000005,4160.897,4166.282,4157.0509999999995,4167.9490000000005,4168.59,4169.872,4158.077,4157.821,4151.538,4158.59,4138.205,4153.077,0,0
384,78,0,3156,4168.974,4177.564,4166.923,4172.564,4161.154,4168.974,4171.667,4170.255999999999,4158.077,4157.692,4164.744000000001,4158.333,4141.795,4162.821,0,0
385,79,0,3410,4169.231,4182.821,4170.513,4173.333,4168.077,4170.128,4171.41,4170.513,4156.923,4164.744000000001,4169.872,4158.718,4148.846,4169.872,0,0
386,80,0,3243,4168.077,4178.333,4165.0,4172.0509999999995,4168.59,4170.513,4168.59,4168.59,4154.744000000001,4163.718,4158.846,4157.821,4151.41,4167.564,0,0
387,81,0,2031,4171.667,4181.282,4167.9490000000005,4179.231,4168.718,4172.308,4168.846,4166.41,4154.872,4163.718,4162.179,4160.769,4148.333,4172.0509999999995,0,0
388,82,0,3156,4173.077,4185.641,4172.179,4185.128,4171.41,4179.231,4172.821,4167.564,4156.667,4169.487,4172.436,4164.231,4140.897,4176.923,0,0
389,83,0,3410,4167.436,4183.462,4167.821,4183.59,4172.436,4183.205,4172.564,4169.872,4156.41,4165.255999999999,4161.923,4160.897,4138.205,4167.0509999999995,0,0
390,84,0,3243,4166.923,4178.205,4168.077,4180.255999999999,4170.255999999999,4177.9490000000005,4170.769,4170.0,4160.0,4161.154,4153.974,4157.308,4144.231,4162.179,0,0
391,85,0,2031,4171.41,4169.359,4173.462,4175.385,4167.9490000000005,4171.538,4175.897,4169.872,4166.41,4172.0509999999995,4163.205,4161.026,4155.897,4164.872,0,0
392,86,0,3156,4168.462,4169.487,4172.436,4175.128,4167.821,4169.872,4176.154,4169.872,4160.897,4174.231,4163.333,4161.41,4156.282,4160.897,0,0
393,87,0,3410,4166.154,4185.255999999999,4168.333,4185.128,4173.718,4168.718,4170.641,4169.359,4154.103,4163.974,4153.718,4157.179,4144.615,4158.462,0,0
394,88,0,3243,4171.667,4192.0509999999995,4171.667,4190.128,4179.231,4167.308,4172.179,4171.026,4161.026,4167.692,4158.462,4158.846,4150.769,4160.513,0,0
395,89,0,2031,4172.564,4187.436,4174.231,4185.513,4178.077,4167.692,4174.744000000001,4174.103,4165.897,4177.9490000000005,4167.692,4160.0,4164.487,4158.462,0,0
396,90,0,3156,4169.615,4188.59,4169.487,4183.718,4176.41,4171.026,4172.436,4171.795,4158.077,4169.359,4162.692,4157.436,4143.462,4154.615,0,0
397,91,0,3410,4168.974,4188.718,4166.538,4184.872,4180.897,4172.436,4170.385,4169.103,4153.846,4157.308,4154.487,4154.231,4116.154,4154.487,0,0
398,92,0,3243,4170.0,4183.846,4167.9490000000005,4185.641,4184.615,4169.744000000001,4172.179,4175.513,4161.154,4165.128,4155.255999999999,4155.128,4133.59,4153.077,0,0
399,93,0,2031,4175.769,4186.41,4169.615,4188.718,4184.872,4174.872,4177.0509999999995,4183.205,4169.359,4182.436,4164.231,4158.974,4170.0,4156.923,0,0
400,94,0,3156,4183.846,4190.513,4174.103,4192.564,4186.282,4183.462,4177.821,4183.462,4169.487,4186.41,4172.821,4162.179,4168.846,4166.923,0,0
401,95,0,3410,4185.0,4188.59,4173.333,4187.564,4187.436,4177.821,4170.513,4178.974,4166.538,4175.255999999999,4170.897,4160.513,4146.795,4170.128,0,0
402,96,0,3243,4181.538,4186.282,4168.846,4179.872,4184.744000000001,4165.0,4167.564,4175.385,4167.179,4168.59,4166.667,4160.769,4146.667,4167.692,0,0
403,97,0,2031,4183.59,4187.179,4172.436,4187.821,4183.59,4170.128,4173.59,4171.795,4168.077,4180.0,4170.897,4164.615,4156.41,4168.974,0,0
404,98,0,3156,4185.385,4189.359,4177.179,4196.795,4186.667,4183.974,4177.564,4170.385,4165.0,4183.462,4169.487,4163.718,4153.333,4169.231,0,0
405,99,0,3410,4178.205,4187.179,4174.359,4189.231,4183.974,4182.692,4175.513,4175.385,4165.0,4168.718,4162.821,4160.769,4149.231,4158.718,0,0
406,100,0,3243,4172.179,4184.615,4176.538,4183.333,4181.795,4170.769,4176.923,4182.9490000000005,4169.231,4167.0509999999995,4166.795,4163.333,4156.795,4151.795,0,0
407,101,0,2031,4175.513,4186.795,4179.487,4188.462,4183.846,4166.282,4182.9490000000005,4185.897,4168.59,4175.513,4170.641,4164.359,4162.0509999999995,4160.897,0,0
408,102,0,3156,4180.0,4187.308,4177.0509999999995,4188.462,4183.974,4177.692,4185.641,4183.205,4164.103,4172.564,4168.462,4163.462,4158.974,4167.436,0,0
409,103,0,3410,4179.615,4185.641,4174.744000000001,4184.872,4184.359,4182.564,4181.923,4181.795,4165.641,4170.255999999999,4165.0,4164.487,4159.744000000001,4162.692,0,0
410,104,0,3243,4177.308,4185.0,4176.282,4186.795,4180.385,4173.59,4184.615,4184.231,4172.821,4179.487,4161.154,4163.974,4167.179,4158.974,0,0
411,105,0,2031,4172.9490000000005,4182.436,4178.59,4186.41,4174.872,4167.436,4185.897,4182.692,4170.769,4179.103,4159.359,4161.538,4166.154,4157.692,0,0
412,106,0,3156,4170.128,4178.462,4174.103,4184.744000000001,4178.205,4167.564,4174.231,4175.385,4160.641,4169.744000000001,4161.026,4158.205,4153.077,4154.359,0,0
413,107,0,3410,4170.385,4176.538,4165.385,4183.077,4179.744000000001,4167.692,4166.795,4169.231,4157.692,4166.154,4157.0509999999995,4157.692,4146.538,4152.692,0,0
414,108,0,3243,4168.462,4178.205,4164.231,4181.538,4175.641,4167.436,4171.538,4171.282,4157.9490000000005,4160.255999999999,4151.154,4157.9490000000005,4139.744000000001,4151.154,0,0
415,109,0,2031,4168.077,4182.9490000000005,4168.718,4184.487,4178.59,4174.103,4179.359,4177.436,4158.59,4154.231,4152.308,4157.0509999999995,4128.462,4152.308,0,0
416,110,0,3156,4176.41,4186.154,4172.692,4186.667,4186.154,4183.718,4184.744000000001,4178.59,4166.026,4160.769,4155.0,4156.41,4136.154,4161.538,0,0
417,111,0,3410,4185.0,4183.205,4176.026,4185.0,4186.923,4188.462,4186.667,4179.359,4170.897,4170.769,4158.846,4160.513,4160.385,4163.205,0,0
418,112,0,3243,4186.795,4184.615,4175.769,4185.0,4186.282,4182.0509999999995,4182.564,4181.538,4168.077,4177.692,4172.692,4167.564,4171.538,4163.333,0,0
419,113,0,2031,4188.59,4190.769,4172.308,4186.923,4187.564,4171.667,4172.564,4179.231,4167.436,4184.103,4185.897,4168.846,4165.641,4174.359,0,0
420,114,0,3156,4187.692,4186.923,4168.077,4183.974,4183.974,4168.718,4165.897,4173.462,4167.9490000000005,4179.359,4178.205,4163.59,4155.513,4176.41,0,0
421,115,0,3410,4182.692,4179.872,4163.462,4180.641,4183.077,4170.0,4165.255999999999,4170.513,4165.385,4171.154,4166.538,4162.692,4150.641,4165.128,0,0
422,116,0,3243,4183.462,4182.179,4160.128,4183.333,4185.0,4170.769,4166.282,4170.513,4166.923,4177.9490000000005,4175.385,4165.513,4155.769,4164.487,0,0
423,117,0,2031,4187.564,4185.255999999999,4157.436,4186.538,4185.641,4172.0509999999995,4165.897,4171.41,4170.128,4182.821,4182.308,4163.462,4167.308,4173.974,0,0
424,118,0,3156,4182.564,4177.9490000000005,4155.769,4184.359,4183.718,4175.128,4165.385,4171.41,4167.564,4173.077,4171.41,4159.103,4168.974,4168.59,0,0
425,119,0,3410,4177.9490000000005,4173.718,4158.846,4180.128,4181.282,4172.308,4166.667,4167.179,4163.974,4166.282,4165.513,4156.026,4157.821,4154.487,0,0
426,120,0,3243,4182.9490000000005,4182.179,4159.103,4182.436,4182.9490000000005,4167.821,4169.487,4171.154,4165.0,4169.872,4169.744000000001,4155.641,4155.897,4154.872,0,0
427,121,0,2031,4186.538,4187.308,4157.0509999999995,4187.692,4184.231,4176.538,4173.077,4178.974,4168.974,4175.128,4172.308,4156.667,4161.923,4162.564,0,0
428,122,0,3156,4185.128,4181.026,4163.846,4186.282,4181.667,4188.718,4173.974,4175.0,4169.872,4173.846,4171.154,4155.769,4159.615,4160.0,0,0
429,123,0,3410,4185.255999999999,4178.462,4172.0509999999995,4182.436,4181.026,4182.821,4172.564,4173.974,4168.846,4173.462,4167.179,4155.0,4154.872,4159.744000000001,0,0
430,124,0,3243,4185.255999999999,4181.282,4176.923,4184.231,4181.923,4171.41,4175.897,4183.59,4171.026,4183.077,4170.385,4159.231,4155.0,4168.462,0,0
431,125,0,2031,4185.769,4181.667,4180.897,4186.538,4180.385,4177.821,4183.718,4187.564,4173.205,4193.846,4183.974,4163.462,4160.897,4169.103,0,0
432,126,0,3156,4187.308,4178.974,4179.872,4185.641,4180.128,4182.9490000000005,4190.128,4185.641,4172.179,4193.59,4187.0509999999995,4165.128,4172.0509999999995,4166.154,0,0
433,127,0,53,4185.0,4178.462,4175.255999999999,4185.769,4185.128,4173.333,4186.41,4187.308,4171.41,4186.538,4178.205,4164.103,4175.0,4167.692,0,0
434,0,0,2573,4188.205,4181.795,4176.538,4186.282,4186.795,4172.564,4178.205,4188.462,4171.026,4186.154,4180.0,4163.205,4168.462,4169.615,0,0
435,1,0,2856,4198.974,4186.923,4183.846,4189.231,4187.179,4184.231,4182.179,4186.538,4170.897,4195.769,4189.359,4167.564,4172.179,4177.9490000000005,0,0
436,2,0,3067,4203.333,4191.282,4185.128,4195.0,4190.769,4183.205,4183.59,4182.692,4170.513,4197.436,4190.128,4170.513,4175.255999999999,4185.128,0,0
437,3,0,3073,4201.154,4192.9490000000005,4185.128,4200.255999999999,4195.897,4179.231,4174.872,4175.897,4168.462,4188.077,4186.667,4167.308,4160.128,4178.59,0,0
438,4,0,3539,4198.205,4191.282,4186.795,4200.0,4197.821,4183.205,4172.692,4171.538,4165.513,4182.308,4181.282,4166.923,4150.641,4172.0509999999995,0,0
439,5,0,2171,4191.667,4186.795,4182.9490000000005,4192.0509999999995,4190.769,4181.795,4177.9490000000005,4170.128,4165.769,4180.128,4174.359,4165.255999999999,4162.0509999999995,4172.308,0,0
440,6,0,2566,4183.205,4186.026,4179.487,4185.255999999999,4184.615,4180.897,4176.667,4169.872,4165.128,4178.846,4172.436,4160.128,4176.795,4165.897,0,0
441,7,0,1801,4175.128,4183.077,4179.744000000001,4185.128,4185.897,4180.769,4172.436,4169.872,4160.0,4174.744000000001,4171.282,4158.205,4172.821,4155.385,0,0
442,8,0,1416,4168.846,4175.0,4173.718,4180.641,4182.308,4173.718,4171.795,4167.0509999999995,4154.231,4168.718,4167.821,4153.846,4158.077,4154.231,0,0
443,9,0,3536,4166.667,4170.897,4164.744000000001,4171.154,4173.333,4174.231,4169.487,4166.41,4157.564,4167.436,4167.564,4147.821,4156.667,4156.154,0,0
444,10,0,3154,4162.436,4170.255999999999,4160.385,4170.255999999999,4168.974,4180.385,4171.282,4169.744000000001,4164.487,4171.026,4169.103,4146.667,4169.872,4154.872,0,0
445,11,0,3410,4157.308,4168.077,4157.692,4171.538,4167.179,4174.744000000001,4167.436,4163.718,4161.923,4169.231,4167.436,4150.255999999999,4175.255999999999,4153.462,0,0
446,12,0,3243,4154.487,4165.128,4154.744000000001,4164.615,4164.487,4167.821,4153.846,4156.282,4154.231,4167.308,4165.641,4149.103,4169.231,4155.255999999999,0,0
447,13,0,2031,4153.333,4167.0509999999995,4161.282,4164.615,4163.462,4170.513,4156.41,4163.846,4157.692,4172.0509999999995,4168.974,4149.872,4167.564,4162.9490000000005,0,0
448,14,0,3154,4160.769,4170.641,4171.795,4172.436,4166.026,4170.0,4170.513,4173.333,4167.9490000000005,4174.103,4172.821,4155.769,4169.359,4171.795,0,0
449,15,0,3410,4166.41,4171.154,4173.718,4172.179,4168.59,4167.692,4173.333,4170.128,4168.333,4170.897,4168.974,4156.41,4172.821,4166.667,0,0
450,16,0,0,4158.974,4169.487,4169.744000000001,4170.385,4168.205,4170.385,4169.103,4166.795,4158.718,4166.795,4164.744000000001,4151.282,4173.846,4156.923,0,0
451,17,0,0,4154.103,4168.846,4170.513,4174.103,4167.692,4170.385,4171.026,4168.333,4153.077,4164.231,4164.359,4154.487,4161.667,4159.231,0,0
452,18,0,0,4159.103,4168.205,4168.59,4172.821,4168.077,4166.923,4172.308,4168.846,4161.282,4167.692,4162.308,4162.308,4155.385,4165.0,0,0
453,19,0,0,4165.385,4168.462,4161.538,4169.103,4168.846,4175.513,4170.897,4168.205,4168.846,4174.231,4164.359,4156.795,4166.026,4167.564,0,0
454,20,0,0,4169.231,4169.359,4158.846,4172.308,4170.385,4186.026,4172.564,4167.564,4162.179,4176.41,4171.41,4152.308,4172.436,4172.179,0,0
455,21,0,0,4165.255999999999,4167.821,4158.462,4172.308,4168.974,4176.795,4171.923,4168.077,4154.615,4170.385,4172.564,4154.744000000001,4168.59,4169.487,0,0
456,22,0,0,4156.282,4166.154,4161.538,4166.538,4163.846,4164.231,4168.59,4165.513,4156.282,4164.103,4167.436,4154.103,4169.359,4160.0,0,0
457,23,0,0,4158.974,4167.436,4167.821,4166.026,4165.897,4168.462,4166.41,4160.897,4159.231,4163.718,4165.385,4155.385,4172.564,4162.564,0,0
458,24,0,0,4168.205,4170.513,4169.231,4168.718,4168.846,4173.59,4163.462,4163.846,4157.692,4167.821,4165.641,4160.128,4170.385,4170.128,0,0
459,25,0,0,4171.154,4173.205,4164.231,4170.0,4166.538,4170.255999999999,4158.846,4169.872,4157.179,4168.718,4167.692,4160.641,4166.538,4170.128,0,0
460,26,0,0,4170.769,4172.308,4158.462,4169.872,4166.667,4169.359,4156.41,4164.872,4157.308,4163.462,4168.333,4158.205,4162.9490000000005,4170.128,0,0
461,27,0,0,4170.255999999999,4170.0,4154.487,4168.846,4168.59,4170.769,4156.026,4159.359,4157.9490000000005,4161.41,4164.487,4157.436,4164.231,4171.795,0,0
462,28,0,0,4167.436,4169.103,4153.974,4166.795,4166.795,4167.564,4154.615,4164.615,4162.436,4167.692,4164.487,4156.923,4169.231,4169.872,0,0
463,29,0,0,4172.436,4172.179,4158.333,4167.436,4167.821,4171.41,4160.769,4170.769,4167.9490000000005,4179.359,4174.872,4160.641,4180.128,4174.744000000001,0,0
464,30,0,0,4180.0,4175.641,4163.846,4171.154,4172.436,4180.641,4172.692,4170.255999999999,4169.487,4186.154,4185.128,4164.615,4186.795,4185.0,0,0
465,31,0,0,4178.718,4174.103,4163.333,4170.385,4171.026,4176.795,4174.359,4169.615,4167.436,4182.564,4184.487,4159.872,4181.795,4185.128,0,0
466,32,0,0,4177.9490000000005,4171.923,4163.846,4168.462,4169.872,4168.974,4170.641,4175.128,4168.974,4186.026,4182.692,4159.744000000001,4192.0509999999995,4182.0509999999995,0,0
467,33,0,0,4177.821,4172.308,4165.897,4168.333,4169.615,4171.41,4172.179,4174.744000000001,4171.41,4190.769,4183.205,4158.974,4200.513,4180.897,0,0
468,34,0,0,4170.0,4169.744000000001,4157.821,4164.231,4161.795,4172.692,4165.255999999999,4166.667,4168.333,4176.026,4171.41,4153.718,4177.179,4172.308,0,0
469,35,0,0,4168.462,4167.436,4155.0,4161.795,4158.462,4166.795,4153.333,4165.897,4166.282,4162.692,4164.487,4157.179,4157.9490000000005,4167.9490000000005,0,0
470,36,0,0,4181.282,4172.564,4170.255999999999,4169.487,4168.846,4169.103,4159.487,4172.564,4168.333,4179.615,4180.897,4166.282,4171.923,4182.308,0,0
471,37,0,0,4185.128,4174.487,4174.615,4174.487,4176.41,4173.333,4172.436,4172.692,4167.821,4190.255999999999,4188.846,4164.487,4180.255999999999,4190.897,0,0
472,38,0,0,4173.974,4168.974,4159.872,4168.974,4166.282,4169.103,4166.026,4168.974,4159.872,4174.487,4172.436,4158.59,4165.385,4175.513,0,0
473,39,0,0,4168.333,4166.538,4159.615,4164.744000000001,4156.795,4165.641,4156.667,4169.744000000001,4152.0509999999995,4166.795,4166.538,4159.231,4158.846,4163.462,0,0
474,40,0,0,4175.0,4169.744000000001,4170.0,4168.333,4163.462,4166.923,4163.846,4169.744000000001,4157.821,4173.462,4176.667,4159.872,4165.769,4173.846,0,0
475,41,0,0,4183.205,4173.462,4171.923,4175.513,4169.487,4170.128,4171.282,4170.255999999999,4169.231,4170.255999999999,4176.667,4162.436,4170.769,4185.897,0,0
476,42,0,0,4183.077,4171.667,4170.897,4178.59,4167.9490000000005,4168.462,4168.462,4172.436,4169.615,4163.59,4170.641,4162.9490000000005,4168.462,4185.0,0,0
477,43,0,0,4182.308,4167.692,4170.897,4171.282,4169.872,4165.513,4167.179,4172.179,4161.795,4162.692,4173.205,4158.846,4168.205,4180.385,0,0
478,44,0,0,4183.846,4171.923,4170.513,4169.487,4171.41,4171.667,4170.385,4169.615,4161.667,4162.436,4172.692,4156.282,4173.077,4178.205,0,0
479,45,0,0,4183.59,4182.179,4171.41,4176.282,4170.385,4176.026,4171.026,4169.744000000001,4166.154,4165.128,4170.128,4159.872,4170.897,4178.462,0,0
480,46,0,0,4182.9490000000005,4182.436,4170.641,4175.255999999999,4178.846,4172.692,4170.513,4174.615,4168.974,4171.154,4177.0509999999995,4162.179,4175.128,4181.282,0,0
481,47,0,0,4185.641,4179.231,4157.0509999999995,4174.231,4180.385,4171.795,4169.103,4170.0,4165.769,4165.641,4178.077,4155.0,4179.615,4183.077,0,0
482,48,0,0,4198.333,4200.385,4149.231,4180.128,4173.077,4174.872,4166.795,4157.9490000000005,4157.308,4160.385,4174.872,4149.744000000001,4164.872,4196.026,0,0
483,49,0,0,4225.897,4236.667,4160.897,4187.308,4179.487,4171.538,4166.41,4158.846,4156.41,4163.077,4184.487,4155.255999999999,4146.538,4229.103,0,0
484,50,0,0,4253.59,4258.718,4171.667,4192.436,4185.0,4167.692,4169.359,4167.692,4163.846,4162.0509999999995,4196.282,4165.255999999999,4151.795,4264.487,0,0
485,51,0,0,4275.128,4277.0509999999995,4177.436,4200.513,4181.538,4177.179,4176.154,4169.103,4168.846,4165.0,4205.641,4175.385,4166.923,4291.795,0,0
486,52,0,0,4298.718,4304.744000000001,4183.077,4211.026,4184.103,4185.513,4178.846,4162.821,4168.974,4172.179,4214.231,4182.692,4161.026,4313.077,0,0
487,53,0,0,4318.462,4321.41,4186.026,4215.385,4184.231,4176.41,4171.795,4158.59,4167.564,4169.615,4215.385,4183.077,4152.436,4327.0509999999995,0,0
488,54,0,0,4331.795,4328.462,4193.462,4217.821,4181.41,4167.308,4164.744000000001,4162.179,4166.154,4167.564,4219.103,4186.538,4161.923,4340.641,0,0
489,55,0,0,4346.026,4343.718,4203.333,4226.538,4187.0509999999995,4176.282,4170.255999999999,4169.359,4167.821,4179.359,4232.564,4194.744000000001,4171.41,4359.103,0,0
490,56,0,0,4353.333,4355.769,4203.718,4235.641,4192.436,4187.9490000000005,4183.205,4172.436,4170.897,4188.333,4237.308,4197.692,4169.615,4364.359,0,0
491,57,0,0,4346.026,4355.255999999999,4199.103,4235.0,4197.179,4187.436,4186.154,4172.9490000000005,4168.974,4188.718,4232.179,4193.462,4170.513,4351.282,0,0
492,58,0,0,4336.923,4349.615,4195.385,4233.718,4199.359,4182.821,4175.128,4172.9490000000005,4163.59,4185.513,4223.462,4186.795,4170.513,4338.974,0,0
493,59,0,0,4325.897,4338.077,4187.436,4230.641,4190.769,4174.359,4166.026,4166.282,4156.538,4171.41,4207.564,4178.077,4155.128,4326.154,0,0
494,60,0,0,4314.359,4323.846,4185.0,4219.615,4184.103,4166.154,4169.872,4164.615,4152.9490000000005,4163.718,4200.0,4176.923,4146.41,4308.846,0,0
495,61,0,0,4308.59,4317.308,4185.0,4218.59,4187.9490000000005,4176.41,4174.103,4171.538,4159.231,4171.41,4206.41,4183.462,4161.282,4299.744000000001,0,0
496,62,0,0,4292.9490000000005,4306.667,4178.718,4222.821,4187.179,4184.487,4170.769,4171.667,4167.179,4167.436,4206.154,4186.154,4170.513,4291.282,0,0
497,63,0,0,4268.974,4282.821,4175.128,4212.692,4180.769,4172.308,4171.41,4169.359,4169.103,4155.513,4197.692,4180.641,4163.333,4269.872,0,0
498,64,0,2573,4258.974,4261.923,4179.872,4199.359,4179.103,4170.513,4180.897,4176.795,4166.667,4166.538,4199.359,4179.615,4173.462,4251.282,0,0
499,65,0,2853,4254.231,4250.255999999999,4183.462,4200.897,4182.9490000000005,4185.385,4188.59,4186.538,4171.538,4193.462,4209.487,4183.974,4196.154,4246.154,0,0
500,66,0,3062,4236.923,4232.564,4179.872,4201.282,4183.59,4186.667,4190.769,4187.821,4181.026,4201.026,4203.974,4179.615,4187.564,4234.744000000001,0,0
501,67,0,3061,4219.359,4207.9490000000005,4173.205,4186.923,4180.128,4179.103,4189.487,4184.103,4178.077,4190.255999999999,4185.128,4168.333,4169.487,4211.538,0,0
502,68,0,3539,4212.436,4199.103,4169.359,4177.692,4178.718,4184.487,4185.385,4183.077,4170.641,4191.795,4181.667,4165.128,4182.308,4198.59,0,0
503,69,0,2171,4207.0509999999995,4198.462,4169.231,4184.231,4175.513,4183.077,4182.179,4183.846,4171.667,4196.026,4188.205,4168.974,4187.564,4196.667,0,0
504,70,0,2566,4202.436,4189.103,4169.231,4184.744000000001,4169.487,4171.538,4183.59,4183.718,4173.205,4179.103,4180.513,4168.59,4167.564,4190.128,0,0
505,71,0,1801,4197.9490000000005,4182.179,4170.128,4173.462,4168.846,4172.179,4184.872,4183.333,4168.205,4162.308,4168.205,4164.231,4160.385,4185.255999999999,0,0
506,72,0,1416,4192.308,4180.897,4171.41,4170.385,4165.513,4173.333,4182.436,4183.333,4166.538,4165.385,4167.692,4161.923,4169.359,4185.385,0,0
507,73,0,3536,4188.59,4169.359,4168.59,4168.077,4155.385,4173.462,4181.667,4183.077,4168.846,4168.974,4171.923,4162.692,4172.9490000000005,4177.564,0,0
508,74,0,3151,4182.436,4156.154,4161.538,4158.333,4158.846,4177.179,4182.821,4183.205,4169.359,4165.897,4169.872,4159.487,4168.462,4167.564,0,0
509,75,0,3406,4172.564,4155.897,4154.487,4154.615,4170.255999999999,4176.667,4183.462,4184.615,4171.282,4166.795,4160.513,4152.436,4166.795,4163.462,0,0
510,76,0,3238,4166.667,4155.255999999999,4154.872,4157.564,4171.026,4175.128,4188.974,4184.231,4171.795,4171.41,4154.103,4148.205,4171.923,4157.821,0,0
511,77,0,2031,4169.615,4150.513,4162.0509999999995,4160.385,4169.487,4181.026,4196.923,4186.154,4170.769,4180.385,4158.462,4149.103,4173.205,4152.9490000000005,0,0
512,78,0,3151,4170.385,4151.538,4167.179,4166.282,4174.359,4187.564,4201.538,4195.641,4171.538,4187.179,4166.154,4151.667,4169.231,4154.359,0,0
513,79,0,3406,4167.9490000000005,4153.59,4167.564,4167.0509999999995,4176.41,4187.692,4197.692,4199.872,4174.615,4182.0509999999995,4166.667,4152.821,4174.231,4153.974,0,0
514,80,0,3238,4168.077,4151.667,4165.0,4157.308,4171.41,4179.872,4188.718,4191.538,4173.974,4173.718,4166.795,4152.9490000000005,4178.718,4150.128,0,0
515,81,0,2031,4164.744000000001,4149.103,4162.692,4152.179,4166.923,4175.0,4188.974,4185.769,4171.41,4170.641,4167.692,4154.359,4167.179,4149.359,0,0
516,82,0,3151,4161.154,4150.769,4163.846,4155.641,4167.308,4183.333,4198.462,4189.744000000001,4179.231,4178.462,4168.846,4157.9490000000005,4171.154,4153.333,0,0
517,83,0,3406,4166.154,4154.872,4168.333,4161.154,4171.282,4184.487,4198.846,4191.41,4183.846,4189.615,4175.255999999999,4157.9490000000005,4186.923,4157.692,0,0
518,84,0,3238,4173.846,4157.436,4168.462,4167.179,4175.769,4169.744000000001,4188.333,4188.59,4177.692,4191.667,4178.846,4156.41,4178.59,4157.9490000000005,0,0
519,85,0,2031,4172.692,4158.462,4163.077,4164.487,4175.897,4165.641,4183.333,4187.0509999999995,4176.41,4189.487,4172.308,4157.9490000000005,4167.308,4156.026,0,0
520,86,0,3151,4169.744000000001,4156.154,4164.744000000001,4157.179,4174.103,4172.436,4193.205,4186.154,4177.692,4186.538,4166.282,4156.154,4172.308,4150.513,0,0
521,87,0,3406,4169.615,4151.026,4167.564,4155.385,4176.923,4172.179,4200.255999999999,4183.59,4172.179,4181.538,4167.179,4148.462,4172.821,4145.641,0,0
522,88,0,3238,4169.231,4154.487,4167.692,4155.513,4183.462,4168.077,4194.231,4179.359,4171.154,4183.205,4168.846,4147.179,4175.513,4150.255999999999,0,0
523,89,0,2031,4177.308,4167.179,4171.41,4161.282,4186.154,4168.333,4189.231,4177.821,4173.077,4188.974,4174.744000000001,4153.205,4183.205,4161.538,0,0
524,90,0,3151,4185.385,4171.154,4172.564,4170.385,4180.513,4171.026,4189.615,4180.897,4170.641,4188.59,4179.615,4152.9490000000005,4176.154,4167.0509999999995,0,0
525,91,0,3406,4184.615,4167.179,4169.103,4169.872,4175.513,4167.821,4189.615,4182.179,4176.41,4190.255999999999,4178.59,4147.436,4171.923,4167.9490000000005,0,0
526,92,0,3238,4187.9490000000005,4170.769,4176.282,4173.846,4182.9490000000005,4165.0,4193.333,4182.692,4185.0,4199.744000000001,4182.179,4150.255999999999,4186.667,4172.436,0,0
527,93,0,2031,4194.744000000001,4175.128,4183.718,4187.0509999999995,4197.821,4171.538,4194.872,4184.744000000001,4178.974,4207.564,4189.359,4155.128,4191.795,4175.255999999999,0,0
528,94,0,3151,4190.0,4171.923,4174.487,4183.718,4199.103,4171.538,4187.821,4183.077,4170.385,4204.487,4188.974,4150.513,4180.641,4171.667,0,0
529,95,0,3406,4185.769,4170.385,4171.538,4174.615,4187.564,4166.667,4186.41,4181.41,4171.154,4193.462,4184.744000000001,4146.41,4173.205,4167.436,0,0
530,96,0,3238,4193.077,4172.821,4183.205,4179.359,4186.026,4173.333,4192.9490000000005,4184.359,4173.59,4186.667,4181.282,4157.821,4172.9490000000005,4170.0,0,0
531,97,0,2031,4196.026,4171.282,4187.9490000000005,4180.385,4189.359,4177.692,4197.692,4187.179,4171.538,4186.282,4179.744000000001,4178.59,4173.718,4171.923,0,0
532,98,0,3151,4188.718,4168.462,4187.692,4171.795,4186.282,4170.128,4196.282,4187.9490000000005,4171.154,4183.974,4176.667,4187.308,4170.128,4163.718,0,0
533,99,0,3406,4186.026,4169.872,4195.385,4170.897,4185.0,4167.0509999999995,4190.0,4187.692,4171.282,4185.255999999999,4175.255999999999,4186.667,4168.077,4161.026,0,0
534,100,0,3238,4189.872,4166.538,4201.795,4174.103,4182.564,4168.974,4186.026,4186.667,4172.821,4189.359,4177.0509999999995,4209.615,4171.154,4166.538,0,0
535,101,0,2031,4185.128,4156.41,4202.564,4166.667,4168.462,4167.692,4185.641,4190.385,4175.769,4180.128,4172.821,4254.872,4166.282,4162.436,0,0
536,102,0,3151,4173.718,4150.897,4205.255999999999,4158.974,4156.923,4169.103,4184.872,4194.615,4175.385,4167.692,4165.897,4281.667,4160.641,4152.564,0,0
537,103,0,3406,4166.41,4147.9490000000005,4207.308,4157.308,4154.744000000001,4170.385,4181.154,4193.205,4171.154,4162.436,4161.538,4286.154,4154.487,4146.923,0,0
538,104,0,3238,4158.974,4139.615,4200.513,4154.872,4152.308,4167.308,4175.385,4194.103,4171.667,4151.667,4154.744000000001,4286.667,4151.923,4141.41,0,0
539,105,0,2031,4146.41,4133.205,4193.333,4152.436,4148.462,4166.923,4169.744000000001,4198.974,4175.0,4138.462,4148.205,4286.538,4167.436,4134.744000000001,0,0
540,106,0,3151,4138.974,4129.487,4196.795,4152.179,4140.641,4169.231,4165.641,4201.282,4173.974,4134.872,4150.897,4302.436,4169.231,4128.59,0,0
541,107,0,3406,4136.282,4118.846,4202.308,4145.769,4126.282,4164.615,4157.0509999999995,4202.821,4172.179,4128.462,4151.282,4339.359,4142.564,4120.128,0,0
542,108,0,3238,4133.59,4111.667,4203.077,4139.359,4120.769,4154.359,4152.308,4203.974,4176.667,4123.718,4151.154,4356.282,4131.154,4124.103,0,0
543,109,0,2031,4136.923,4118.333,4202.9490000000005,4148.718,4133.077,4151.923,4161.282,4202.308,4183.974,4138.462,4163.333,4332.564,4139.487,4141.026,0,0
544,110,0,3151,4143.333,4130.385,4199.231,4162.821,4147.692,4161.154,4170.513,4198.205,4183.974,4156.41,4174.359,4285.385,4143.846,4151.538,0,0
545,111,0,3406,4143.077,4135.897,4187.436,4165.255999999999,4152.821,4166.923,4171.923,4191.026,4175.513,4163.59,4169.744000000001,4232.692,4152.436,4149.744000000001,0,0
546,112,0,3238,4137.564,4139.487,4172.821,4160.641,4159.872,4165.128,4171.795,4183.846,4170.385,4165.641,4157.821,4184.872,4165.513,4140.128,0,0
547,113,0,2031,4142.564,4148.462,4167.564,4166.41,4180.385,4170.513,4179.487,4184.744000000001,4174.487,4170.255999999999,4161.41,4149.103,4173.59,4141.282,0,0
548,114,0,3151,4153.846,4156.667,4165.0,4181.154,4192.821,4173.718,4185.897,4186.026,4175.385,4178.077,4175.513,4119.487,4185.897,4153.59,0,0
549,115,0,3406,4156.154,4161.538,4160.769,4184.359,4186.41,4167.179,4184.103,4181.923,4169.744000000001,4184.487,4171.923,4096.282,4190.385,4157.9490000000005,0,0
550,116,0,3238,4154.872,4168.333,4159.359,4182.179,4185.0,4167.564,4186.667,4182.179,4175.128,4186.923,4161.282,4091.795,4185.385,4155.897,0,0
551,117,0,2031,4158.846,4171.41,4161.41,4187.308,4192.9490000000005,4174.615,4190.255999999999,4187.436,4184.231,4187.9490000000005,4164.487,4105.897,4193.59,4157.9490000000005,0,0
552,118,0,3151,4157.821,4160.385,4163.718,4181.667,4185.255999999999,4172.692,4187.0509999999995,4186.538,4178.333,4182.308,4162.564,4120.128,4198.462,4151.282,0,0
553,119,0,3406,4147.436,4150.513,4166.41,4166.282,4169.487,4166.538,4181.538,4183.718,4170.128,4165.255999999999,4153.205,4127.821,4179.872,4138.077,0,0
554,120,0,3238,4142.308,4149.744000000001,4169.872,4166.41,4166.026,4167.0509999999995,4177.436,4185.385,4171.795,4155.0,4154.744000000001,4148.846,4164.359,4136.795,0,0
555,121,0,2031,4141.154,4145.641,4166.026,4168.846,4169.231,4169.231,4176.154,4187.179,4172.692,4156.795,4153.974,4171.538,4174.103,4140.769,0,0
556,122,0,3151,4139.359,4140.641,4163.718,4160.385,4166.538,4169.615,4181.923,4187.9490000000005,4170.641,4157.308,4149.103,4178.846,4176.026,4138.718,0,0
557,123,0,3406,4137.821,4139.487,4167.692,4155.255999999999,4158.333,4170.769,4182.564,4187.692,4170.128,4151.026,4151.795,4182.821,4155.385,4133.974,0,0
558,124,0,3238,4140.128,4139.487,4172.9490000000005,4157.436,4153.846,4171.795,4174.359,4186.795,4172.0509999999995,4149.744000000001,4156.538,4190.0,4164.615,4135.897,0,0
559,125,0,2031,4140.255999999999,4137.0509999999995,4168.333,4157.692,4155.255999999999,4168.974,4173.205,4185.769,4172.821,4159.359,4155.641,4184.231,4190.897,4140.255999999999,0,0
560,126,0,3151,4136.667,4135.128,4158.077,4155.255999999999,4160.0,4164.487,4172.9490000000005,4183.462,4168.077,4161.154,4154.615,4165.255999999999,4175.769,4138.59,0,0
561,127,0,53,4142.821,4141.154,4161.795,4158.59,4168.846,4166.795,4170.897,4182.436,4173.205,4162.692,4160.0,4151.538,4161.154,4141.026,0,0
562,0,0,2574,4152.821,4151.282,4171.41,4167.308,4176.282,4170.0,4179.359,4186.41,4183.718,4174.872,4166.026,4142.564,4182.179,4149.744000000001,0,0
563,1,0,2860,4155.897,4154.359,4171.795,4171.154,4178.846,4167.564,4186.923,4181.667,4176.282,4180.128,4164.487,4134.231,4187.0509999999995,4152.0509999999995,0,0
564,2,0,3067,4155.385,4153.59,4168.333,4171.026,4183.205,4170.128,4184.872,4171.923,4166.667,4174.487,4163.59,4128.333,4171.795,4150.128,0,0
565,3,0,3071,4157.0509999999995,4156.795,4169.872,4174.744000000001,4188.59,4173.205,4185.385,4177.179,4175.0,4176.282,4169.872,4128.718,4178.846,4154.103,0,0
566,4,0,3537,4159.487,4159.359,4170.255999999999,4175.769,4184.872,4165.255999999999,4186.538,4182.179,4178.846,4183.974,4172.436,4132.436,4198.59,4156.538,0,0
567,5,0,2173,4164.103,4163.462,4172.821,4171.154,4182.692,4161.538,4184.487,4174.231,4172.179,4187.179,4176.795,4133.333,4204.615,4160.0,0,0
568,6,0,2567,4170.513,4169.231,4175.897,4171.538,4187.692,4167.308,4186.667,4173.333,4170.513,4188.333,4182.308,4133.077,4191.538,4165.385,0,0
569,7,0,1797,4169.231,4168.974,4170.385,4173.718,4188.333,4168.59,4187.692,4177.436,4170.255999999999,4184.615,4177.564,4130.513,4175.255999999999,4158.59,0,0
570,8,0,1420,4166.026,4167.179,4168.974,4175.897,4186.667,4168.718,4185.513,4173.974,4170.769,4185.641,4173.59,4128.077,4187.9490000000005,4152.821,0,0
571,9,0,3537,4166.154,4168.077,4176.026,4176.667,4187.692,4171.923,4186.538,4175.255999999999,4171.795,4191.667,4175.769,4131.026,4205.255999999999,4156.026,0,0
572,10,0,3148,4167.308,4168.718,4175.513,4173.59,4191.154,4171.282,4187.179,4182.821,4169.359,4187.692,4172.564,4131.923,4187.9490000000005,4155.0,0,0
573,11,0,3411,4168.59,4166.538,4171.923,4175.769,4195.255999999999,4170.385,4187.0509999999995,4183.974,4170.385,4183.205,4168.59,4132.308,4178.205,4157.308,0,0
574,12,0,3241,4172.564,4167.821,4177.436,4183.718,4194.359,4171.154,4187.436,4181.923,4175.128,4185.641,4176.41,4134.487,4200.513,4168.718,0,0
575,13,0,2033,4178.205,4176.41,4180.897,4183.59,4188.462,4168.974,4187.821,4182.9490000000005,4175.641,4188.462,4183.974,4137.821,4205.385,4175.128,0,0
576,14,0,3148,4175.513,4174.231,4171.41,4176.923,4185.897,4169.487,4188.077,4180.769,4173.205,4190.255999999999,4181.154,4136.282,4185.641,4170.897,0,0
577,15,0,3411,4163.846,4157.308,4159.231,4169.744000000001,4181.282,4171.538,4187.436,4173.846,4172.692,4184.615,4171.795,4126.538,4183.333,4159.615,0,0
578,16,0,0,4153.205,4149.359,4155.513,4160.255999999999,4169.615,4168.205,4185.385,4170.255999999999,4170.641,4169.872,4164.359,4118.462,4186.667,4147.692,0,0
579,17,0,0,4151.538,4153.974,4160.255999999999,4159.872,4166.667,4167.692,4181.538,4170.385,4169.872,4163.59,4165.513,4123.333,4172.821,4146.41,0,0
580,18,0,0,4161.154,4156.026,4168.846,4168.846,4171.154,4173.974,4176.154,4170.255999999999,4171.282,4169.744000000001,4171.667,4131.282,4169.872,4155.0,0,0
581,19,0,0,4169.615,4156.154,4173.462,4170.255999999999,4170.385,4174.872,4171.923,4170.128,4171.538,4171.923,4176.538,4131.667,4184.487,4163.205,0,0
582,20,0,0,4164.744000000001,4156.923,4171.667,4166.026,4168.462,4168.333,4170.128,4172.179,4171.026,4167.0509999999995,4174.359,4133.846,4183.462,4164.487,0,0
583,21,0,0,4160.513,4157.0509999999995,4167.0509999999995,4168.077,4171.795,4164.872,4168.846,4171.538,4171.154,4165.513,4170.128,4134.487,4172.179,4156.795,0,0
584,22,0,0,4165.513,4158.462,4167.179,4170.641,4172.0509999999995,4166.923,4166.795,4170.769,4171.795,4166.667,4166.154,4132.179,4172.564,4150.128,0,0
585,23,0,0,4166.795,4161.795,4170.0,4168.462,4170.385,4169.359,4169.744000000001,4173.205,4171.41,4167.564,4167.9490000000005,4136.282,4170.0,4156.538,0,0
586,24,0,0,4165.255999999999,4166.026,4170.513,4168.462,4175.0,4173.333,4177.0509999999995,4172.308,4170.641,4168.718,4181.026,4143.333,4164.359,4166.026,0,0
587,25,0,0,4169.872,4168.846,4170.128,4171.538,4181.41,4175.769,4182.0509999999995,4173.846,4173.205,4172.821,4187.821,4145.0,4175.385,4170.255999999999,0,0
588,26,0,0,4171.282,4167.821,4170.897,4172.436,4183.59,4172.308,4184.487,4179.231,4175.513,4173.333,4176.667,4141.538,4182.821,4171.795,0,0
589,27,0,0,4166.282,4167.821,4172.0509999999995,4170.128,4184.103,4176.923,4187.179,4181.154,4174.872,4167.308,4165.128,4133.846,4176.667,4169.359,0,0
590,28,0,0,4166.923,4168.974,4170.0,4168.333,4181.41,4187.179,4188.333,4182.692,4171.41,4171.154,4168.974,4130.769,4177.692,4167.692,0,0
591,29,0,0,4171.026,4167.9490000000005,4167.308,4169.872,4175.897,4180.897,4185.897,4183.077,4172.436,4181.026,4173.846,4132.179,4188.205,4170.641,0,0
592,30,0,0,4167.9490000000005,4164.231,4168.846,4168.59,4172.564,4166.538,4178.333,4176.154,4180.255999999999,4178.718,4170.641,4132.308,4189.487,4167.692,0,0
593,31,0,0,4158.718,4157.308,4165.385,4160.897,4172.179,4166.795,4170.769,4168.333,4182.0509999999995,4168.333,4166.538,4129.872,4177.308,4156.795,0,0
594,32,0,0,4153.333,4153.333,4157.9490000000005,4155.255999999999,4170.128,4172.179,4168.718,4168.718,4175.255999999999,4167.308,4167.179,4126.538,4171.667,4154.615,0,0
595,33,0,0,4156.41,4157.0509999999995,4155.897,4157.0509999999995,4172.821,4174.744000000001,4172.308,4170.769,4173.333,4173.333,4170.385,4125.0,4185.128,4160.128,0,0
596,34,0,0,4160.769,4157.436,4158.846,4156.667,4178.205,4179.744000000001,4177.436,4169.744000000001,4173.205,4170.897,4169.231,4122.308,4191.154,4155.0,0,0
597,35,0,0,4164.487,4158.974,4159.231,4156.795,4181.154,4182.308,4182.692,4174.487,4170.0,4170.0,4166.923,4121.026,4178.718,4153.333,0,0
598,36,0,0,4168.333,4166.923,4157.564,4166.667,4184.615,4183.846,4187.436,4182.308,4177.564,4179.103,4167.436,4125.0,4180.513,4162.564,0,0
599,37,0,0,4168.333,4166.282,4159.231,4171.154,4180.641,4184.359,4187.436,4186.667,4185.769,4184.487,4164.487,4127.9490000000005,4184.103,4162.0509999999995,0,0
600,38,0,0,4168.718,4163.205,4167.308,4166.795,4175.513,4180.641,4186.538,4185.641,4177.564,4184.103,4165.769,4125.641,4169.872,4158.718,0,0
601,39,0,0,4172.821,4168.333,4169.872,4169.615,4181.154,4183.205,4187.308,4177.9490000000005,4170.128,4185.128,4171.667,4127.179,4172.436,4165.769,0,0
602,40,0,0,4172.9490000000005,4169.231,4160.255999999999,4172.564,4186.026,4186.923,4185.897,4170.641,4173.846,4181.154,4169.103,4130.385,4187.436,4169.231,0,0
603,41,0,0,4169.615,4166.795,4154.615,4170.897,4180.897,4181.538,4184.487,4170.641,4176.538,4172.308,4165.897,4128.462,4182.179,4167.308,0,0
604,42,0,0,4170.385,4166.667,4157.821,4172.0509999999995,4181.154,4180.641,4185.0,4173.59,4173.718,4172.821,4171.41,4125.769,4174.872,4168.974,0,0
605,43,0,0,4166.667,4158.59,4154.103,4166.026,4178.718,4183.077,4180.385,4170.385,4169.487,4169.231,4165.0,4124.231,4168.718,4163.333,0,0
606,44,0,0,4159.615,4153.59,4145.641,4156.923,4169.103,4177.179,4175.0,4166.667,4167.0509999999995,4158.846,4153.846,4124.872,4155.128,4156.41,0,0
607,45,0,0,4165.0,4165.255999999999,4145.513,4162.179,4174.103,4177.692,4183.59,4170.385,4169.744000000001,4166.282,4164.872,4134.103,4161.923,4165.513,0,0
608,46,0,0,4174.103,4170.128,4152.564,4166.795,4178.59,4187.436,4192.9490000000005,4174.487,4172.9490000000005,4178.333,4179.359,4143.974,4181.154,4173.59,0,0
609,47,0,0,4167.308,4162.0509999999995,4154.359,4158.462,4170.385,4190.255999999999,4187.821,4174.103,4171.538,4174.615,4173.718,4145.769,4175.128,4170.128,0,0
610,48,0,0,4156.667,4157.179,4151.667,4153.333,4166.154,4184.872,4180.128,4172.179,4175.128,4173.974,4163.205,4143.846,4166.41,4164.231,0,0
611,49,0,0,4156.923,4154.231,4151.41,4155.0,4168.846,4183.077,4183.077,4171.795,4182.179,4183.846,4164.744000000001,4142.564,4185.513,4158.974,0,0
612,50,0,0,4156.795,4151.154,4152.821,4155.385,4167.0509999999995,4181.538,4186.667,4172.692,4178.077,4178.462,4168.718,4146.923,4190.128,4153.59,0,0
613,51,0,0,4155.0,4153.205,4155.0,4154.487,4167.9490000000005,4176.923,4180.255999999999,4177.179,4171.282,4165.897,4168.59,4156.795,4162.692,4155.128,0,0
614,52,0,0,4158.59,4156.795,4159.487,4155.641,4172.564,4176.154,4177.0509999999995,4179.744000000001,4174.359,4168.59,4168.974,4164.487,4149.872,4158.718,0,0
615,53,0,0,4159.231,4156.026,4160.513,4156.667,4170.385,4182.821,4179.487,4174.103,4173.59,4167.821,4168.718,4161.667,4159.615,4156.795,0,0
616,54,0,0,4152.179,4152.436,4156.282,4153.59,4166.41,4185.0,4177.308,4169.231,4169.615,4155.513,4167.436,4156.41,4162.564,4153.59,0,0
617,55,0,0,4154.615,4155.897,4155.513,4156.667,4166.154,4175.128,4176.41,4175.385,4172.564,4160.385,4169.359,4158.205,4161.795,4152.692,0,0
618,56,0,0,4166.538,4160.897,4161.923,4168.205,4169.744000000001,4167.0509999999995,4182.179,4179.231,4173.333,4180.385,4171.795,4162.436,4166.41,4156.795,0,0
619,57,0,0,4170.255999999999,4162.179,4169.615,4171.026,4173.59,4172.9490000000005,4184.487,4176.538,4176.667,4189.744000000001,4175.641,4161.538,4167.0509999999995,4163.974,0,0
620,58,0,0,4169.359,4164.872,4170.255999999999,4166.667,4175.0,4183.846,4181.667,4175.385,4185.769,4184.615,4178.974,4160.641,4169.231,4168.846,0,0
621,59,0,0,4168.974,4167.436,4165.0,4167.179,4172.692,4185.385,4176.795,4174.103,4181.538,4171.41,4173.718,4160.769,4170.128,4165.385,0,0
622,60,0,0,4169.872,4168.462,4166.282,4170.897,4176.154,4182.179,4172.436,4177.0509999999995,4176.282,4168.846,4170.385,4160.897,4170.255999999999,4167.564,0,0
623,61,0,0,4170.897,4169.744000000001,4166.282,4171.282,4185.0,4182.436,4175.897,4179.744000000001,4184.872,4180.769,4173.077,4157.564,4181.795,4173.846,0,0
624,62,0,0,4170.897,4170.513,4161.538,4170.385,4182.692,4181.026,4181.282,4178.205,4188.077,4179.487,4168.462,4150.641,4182.9490000000005,4167.0509999999995,0,0
625,63,0,0,4169.231,4169.231,4164.487,4170.641,4174.231,4182.692,4185.128,4179.231,4184.615,4166.41,4165.255999999999,4150.0,4162.436,4160.0,0,0
626,64,0,2574,4167.0509999999995,4168.205,4170.0,4171.795,4172.9490000000005,4182.9490000000005,4187.564,4183.077,4184.744000000001,4167.179,4174.103,4156.538,4150.641,4163.462,0,0
627,65,0,2860,4168.077,4166.795,4169.744000000001,4172.0509999999995,4172.9490000000005,4175.128,4183.462,4182.179,4184.487,4173.974,4176.923,4158.59,4160.385,4166.538,0,0
628,66,0,3067,4170.641,4165.513,4168.59,4171.282,4169.359,4175.0,4183.077,4181.41,4191.667,4172.821,4167.821,4155.0,4177.9490000000005,4166.667,0,0
629,67,0,3070,4172.9490000000005,4167.0509999999995,4171.154,4170.255999999999,4174.231,4184.231,4190.128,4187.0509999999995,4201.282,4172.821,4170.385,4157.821,4182.821,4171.538,0,0
630,68,0,3544,4172.308,4167.9490000000005,4171.026,4170.513,4180.897,4183.718,4188.462,4185.255999999999,4194.615,4171.923,4181.026,4162.179,4173.846,4174.872,0,0
631,69,0,2174,4170.641,4168.462,4172.0509999999995,4172.821,4176.538,4182.692,4181.154,4181.154,4186.282,4170.897,4179.103,4163.59,4170.385,4171.667,0,0
632,70,0,2567,4169.744000000001,4166.923,4172.436,4171.538,4168.59,4184.487,4183.718,4184.103,4189.231,4175.128,4170.385,4164.359,4172.821,4170.0,0,0
633,71,0,1801,4167.179,4163.59,4169.872,4167.564,4166.795,4176.282,4187.436,4185.513,4188.077,4175.385,4171.923,4163.846,4169.487,4168.846,0,0
634,72,0,1416,4167.564,4165.897,4171.923,4169.872,4169.359,4174.615,4185.897,4181.538,4184.615,4173.718,4176.154,4164.103,4174.487,4169.103,0,0
635,73,0,3531,4169.872,4169.231,4173.974,4172.564,4170.0,4184.487,4186.154,4180.769,4187.436,4177.179,4168.462,4164.487,4188.205,4170.897,0,0
636,74,0,3144,4169.103,4169.359,4169.359,4169.872,4175.385,4184.231,4185.513,4183.59,4189.615,4181.667,4165.769,4163.333,4190.0,4171.154,0,0
637,75,0,3411,4163.846,4169.359,4162.179,4168.846,4181.026,4179.359,4179.744000000001,4178.59,4189.103,4175.128,4163.462,4161.538,4179.103,4164.231,0,0
638,76,0,3241,4158.205,4167.0509999999995,4157.0509999999995,4170.513,4174.231,4182.821,4177.436,4169.103,4188.718,4165.513,4154.487,4158.077,4169.359,4155.513,0,0
639,77,0,2031,4153.846,4164.487,4152.821,4168.205,4164.615,4184.231,4181.154,4171.282,4187.179,4167.692,4158.205,4156.538,4174.487,4156.41,0,0
640,78,0,3144,4155.385,4168.077,4154.359,4170.385,4173.462,4181.795,4183.205,4181.538,4188.077,4174.872,4169.103,4158.462,4187.821,4159.487,0,0
641,79,0,3411,4161.667,4172.0509999999995,4159.487,4178.846,4182.692,4182.179,4182.436,4182.308,4190.385,4174.615,4164.872,4157.692,4188.846,4159.359,0,0
642,80,0,3241,4160.255999999999,4170.128,4157.308,4180.0,4173.718,4182.692,4183.846,4173.718,4188.462,4167.692,4151.923,4155.255999999999,4182.821,4157.0509999999995,0,0
643,81,0,2031,4154.359,4169.744000000001,4156.538,4173.333,4171.795,4185.0,4181.41,4170.128,4187.179,4167.564,4151.282,4154.231,4183.718,4153.077,0,0
644,82,0,3144,4153.718,4171.538,4160.255999999999,4172.821,4183.077,4187.564,4174.744000000001,4175.128,4187.179,4169.872,4156.795,4149.359,4181.667,4151.41,0,0
645,83,0,3411,4153.718,4171.41,4159.872,4175.385,4185.513,4186.282,4177.9490000000005,4181.667,4185.255999999999,4171.026,4157.308,4147.179,4183.846,4154.103,0,0
646,84,0,3241,4151.282,4170.769,4157.436,4170.385,4179.359,4184.615,4185.641,4184.872,4185.128,4172.179,4159.615,4156.795,4197.9490000000005,4155.513,0,0
647,85,0,2031,4155.255999999999,4170.897,4162.564,4173.718,4179.359,4186.923,4186.41,4180.0,4185.641,4172.821,4165.385,4165.0,4200.769,4156.282,0,0
648,86,0,3144,4160.769,4171.923,4165.0,4184.231,4178.462,4187.692,4185.641,4174.231,4185.0,4171.923,4168.205,4165.255999999999,4178.974,4161.667,0,0
649,87,0,3411,4153.462,4168.59,4157.9490000000005,4177.179,4170.255999999999,4183.846,4185.513,4174.103,4187.0509999999995,4169.487,4163.718,4161.026,4165.0,4159.872,0,0
650,88,0,3241,4150.0,4164.744000000001,4160.0,4166.154,4166.667,4183.846,4181.795,4173.59,4186.667,4167.9490000000005,4160.897,4160.0,4176.667,4154.615,0,0
651,89,0,2031,4164.872,4174.615,4173.077,4175.769,4173.205,4185.769,4182.308,4177.0509999999995,4183.59,4168.974,4163.462,4162.436,4183.974,4163.59,0,0
652,90,0,3144,4177.308,4185.385,4176.667,4189.744000000001,4181.282,4186.667,4187.0509999999995,4185.769,4185.385,4172.179,4168.718,4166.282,4183.59,4176.282,0,0
653,91,0,3411,4173.846,4179.359,4169.231,4183.462,4182.821,4186.923,4183.077,4186.923,4186.41,4174.359,4174.231,4167.9490000000005,4188.462,4173.974,0,0
654,92,0,3241,4168.974,4169.487,4167.308,4173.462,4177.436,4182.0509999999995,4173.974,4181.154,4185.0,4173.718,4166.282,4168.974,4182.436,4166.026,0,0
655,93,0,2031,4167.821,4168.333,4169.359,4170.769,4169.872,4178.333,4170.769,4181.795,4186.026,4169.615,4157.179,4170.385,4169.487,4168.333,0,0
656,94,0,3144,4167.9490000000005,4170.128,4168.333,4170.897,4167.308,4182.179,4177.564,4186.026,4186.282,4166.026,4162.9490000000005,4171.667,4177.436,4168.974,0,0
657,95,0,3411,4167.564,4172.179,4167.179,4172.692,4173.205,4185.385,4187.179,4186.795,4186.41,4170.385,4163.462,4172.179,4189.231,4161.282,0,0
658,96,0,3241,4157.436,4171.538,4162.436,4170.641,4175.769,4185.641,4181.41,4181.538,4186.538,4172.9490000000005,4151.41,4166.538,4174.359,4153.59,0,0
659,97,0,2031,4150.255999999999,4167.564,4162.179,4168.462,4172.821,4188.205,4170.128,4172.179,4184.103,4167.692,4154.359,4161.538,4162.308,4154.359,0,0
660,98,0,3144,4160.769,4168.974,4165.0,4168.974,4179.103,4188.077,4176.282,4170.128,4184.103,4168.59,4169.744000000001,4161.026,4179.103,4163.462,0,0
661,99,0,3411,4170.255999999999,4175.641,4170.769,4172.0509999999995,4188.333,4184.359,4187.179,4179.103,4186.154,4182.308,4174.103,4166.538,4197.179,4168.462,0,0
662,100,0,3241,4170.255999999999,4182.564,4182.308,4178.718,4187.821,4185.897,4186.282,4187.9490000000005,4183.462,4193.462,4175.128,4172.9490000000005,4183.846,4169.872,0,0
663,101,0,2031,4170.641,4183.718,4184.359,4179.872,4182.308,4188.974,4182.436,4188.077,4183.59,4183.974,4175.769,4170.641,4168.333,4172.308,0,0
664,102,0,3144,4172.0509999999995,4178.718,4172.9490000000005,4174.872,4184.487,4188.205,4184.359,4184.231,4187.179,4169.103,4171.538,4165.0,4180.769,4167.436,0,0
665,103,0,3411,4167.821,4173.974,4169.103,4172.821,4185.128,4186.923,4186.026,4181.154,4180.385,4164.103,4164.615,4166.154,4183.846,4156.282,0,0
666,104,0,3241,4157.179,4170.769,4170.513,4172.308,4173.462,4188.718,4185.255999999999,4180.128,4172.821,4158.974,4156.923,4163.974,4166.923,4149.615,0,0
667,105,0,2031,4155.0,4168.59,4164.872,4167.821,4166.154,4188.718,4181.538,4180.641,4179.744000000001,4151.026,4158.077,4162.0509999999995,4163.974,4152.179,0,0
668,106,0,3144,4166.41,4171.282,4171.923,4170.897,4175.385,4186.667,4178.59,4182.564,4187.564,4160.513,4174.744000000001,4172.692,4172.9490000000005,4162.9490000000005,0,0
669,107,0,3411,4174.487,4173.718,4187.179,4176.026,4180.769,4185.255999999999,4181.795,4182.821,4180.385,4178.333,4183.462,4180.897,4171.154,4173.333,0,0
670,108,0,3241,4169.872,4171.795,4181.026,4172.436,4173.846,4184.487,4184.359,4180.769,4174.487,4177.0509999999995,4174.615,4172.9490000000005,4165.897,4169.359,0,0
671,109,0,2031,4168.077,4172.9490000000005,4173.205,4176.538,4177.0509999999995,4191.41,4186.923,4182.0509999999995,4182.564,4167.692,4172.436,4171.667,4169.615,4164.872,0,0
672,110,0,3144,4171.282,4178.59,4178.974,4184.872,4188.59,4202.821,4192.821,4187.436,4189.744000000001,4172.308,4172.821,4179.231,4177.821,4168.974,0,0
673,111,0,3411,4172.308,4180.641,4179.231,4184.744000000001,4182.9490000000005,4199.487,4193.205,4190.513,4188.462,4182.692,4168.974,4178.59,4179.744000000001,4168.718,0,0
674,112,0,3241,4173.333,4177.436,4172.9490000000005,4180.385,4171.667,4185.128,4181.026,4187.308,4186.026,4186.026,4168.59,4174.872,4171.923,4166.795,0,0
675,113,0,2031,4170.128,4171.282,4170.769,4175.255999999999,4174.359,4182.0509999999995,4168.974,4183.974,4181.154,4181.154,4169.231,4175.897,4166.41,4165.255999999999,0,0
676,114,0,3144,4166.795,4167.308,4168.59,4168.974,4177.564,4183.846,4168.59,4179.872,4174.744000000001,4176.41,4171.795,4178.077,4171.795,4162.692,0,0
677,115,0,3411,4168.59,4170.769,4170.128,4168.205,4171.923,4180.255999999999,4171.667,4173.462,4175.128,4177.564,4176.795,4177.308,4179.231,4167.564,0,0
678,116,0,3241,4170.128,4173.462,4169.872,4170.897,4170.513,4188.846,4173.462,4171.41,4180.769,4178.333,4174.872,4174.615,4178.974,4172.9490000000005,0,0
679,117,0,2031,4167.436,4170.769,4159.359,4170.0,4173.59,4198.974,4173.846,4172.564,4181.923,4170.255999999999,4169.487,4170.513,4170.641,4166.795,0,0
680,118,0,3144,4169.359,4171.282,4159.872,4170.128,4172.308,4191.026,4173.077,4170.897,4181.667,4166.154,4172.9490000000005,4172.0509999999995,4166.026,4164.487,0,0
681,119,0,3411,4172.0509999999995,4173.846,4166.795,4170.897,4172.179,4181.026,4171.41,4171.538,4185.255999999999,4178.974,4175.513,4175.769,4177.0509999999995,4170.897,0,0
682,120,0,3241,4164.231,4170.641,4157.0509999999995,4168.462,4174.103,4183.077,4168.205,4173.205,4181.282,4183.333,4170.769,4174.103,4181.667,4166.026,0,0
683,121,0,2031,4160.641,4166.795,4152.564,4165.897,4170.0,4184.872,4172.0509999999995,4173.718,4174.359,4170.385,4169.359,4174.103,4172.821,4156.41,0,0
684,122,0,3144,4163.718,4167.564,4164.615,4165.641,4166.923,4184.103,4185.0,4176.667,4176.154,4166.667,4172.308,4180.255999999999,4168.205,4155.769,0,0
685,123,0,3411,4160.0,4170.385,4163.846,4167.308,4167.564,4187.564,4190.513,4176.154,4179.103,4171.923,4171.026,4180.0,4168.974,4157.821,0,0
686,124,0,3241,4158.333,4169.744000000001,4157.564,4164.615,4165.128,4187.436,4181.795,4172.0509999999995,4178.333,4167.9490000000005,4167.436,4174.487,4169.359,4159.744000000001,0,0
687,125,0,2031,4172.436,4179.231,4164.103,4164.103,4165.641,4184.615,4178.077,4173.462,4182.564,4163.333,4172.564,4177.308,4170.385,4171.795,0,0
688,126,0,3144,4192.9490000000005,4203.205,4172.179,4173.59,4170.385,4186.41,4180.255999999999,4176.795,4184.615,4170.769,4183.077,4183.205,4172.308,4188.462,0,0
689,127,0,53,4208.077,4220.769,4176.41,4181.923,4171.923,4186.923,4173.205,4173.333,4175.385,4174.615,4184.487,4180.769,4170.769,4197.564,0,0
690,0,0,2574,4230.385,4242.0509999999995,4180.641,4186.667,4176.026,4183.974,4165.0,4171.795,4170.513,4170.255999999999,4186.282,4178.974,4165.385,4219.744000000001,0,0
691,1,0,2859,4267.564,4283.205,4188.077,4198.59,4180.641,4181.795,4167.308,4173.59,4171.795,4167.308,4204.231,4188.846,4159.103,4266.795,0,0
692,2,0,3060,4308.333,4318.462,4195.641,4209.615,4177.692,4187.692,4172.179,4172.436,4172.9490000000005,4172.308,4223.462,4201.923,4166.41,4311.026,0,0
693,3,0,3063,4337.179,4336.282,4199.359,4215.385,4179.744000000001,4195.513,4175.0,4175.128,4177.692,4184.872,4232.436,4209.487,4178.718,4336.923,0,0
694,4,0,3544,4358.462,4361.026,4204.231,4229.103,4192.692,4199.231,4183.205,4182.436,4182.821,4193.462,4240.769,4210.513,4171.667,4358.077,0,0
695,5,0,2174,4371.795,4380.513,4211.795,4239.231,4196.154,4197.9490000000005,4188.846,4186.795,4186.282,4192.179,4242.436,4210.385,4163.462,4370.641,0,0
696,6,0,2567,4369.872,4378.077,4209.103,4234.103,4188.974,4193.205,4187.564,4187.436,4187.179,4188.718,4236.41,4211.538,4166.667,4368.462,0,0
697,7,0,1801,4362.564,4375.128,4203.59,4230.897,4186.667,4186.282,4185.385,4188.462,4181.282,4183.462,4233.718,4210.769,4161.795,4362.436,0,0
698,8,0,1414,4364.231,4380.385,4212.308,4235.641,4193.974,4185.769,4183.205,4187.564,4177.564,4180.769,4236.41,4208.59,4163.846,4359.615,0,0
699,9,0,3533,4361.795,4377.436,4219.615,4239.872,4202.564,4192.692,4183.718,4185.897,4179.359,4186.795,4234.359,4213.205,4178.59,4351.667,0,0
700,10,0,3152,4343.59,4357.9490000000005,4215.128,4235.513,4204.103,4201.795,4187.821,4188.333,4179.744000000001,4191.538,4227.179,4218.077,4179.103,4332.436,0,0
701,11,0,3401,4320.897,4336.795,4214.359,4226.538,4198.974,4201.538,4186.538,4188.462,4180.513,4183.974,4219.744000000001,4215.897,4165.128,4306.667,0,0
702,12,0,3242,4298.205,4315.255999999999,4214.359,4216.282,4188.462,4188.462,4180.769,4185.0,4182.821,4177.564,4208.718,4210.897,4166.026,4278.846,0,0
703,13,0,2031,4271.923,4285.641,4207.0509999999995,4199.872,4182.0509999999995,4187.564,4183.462,4184.359,4182.821,4180.641,4199.872,4209.744000000001,4178.333,4254.359,0,0
704,14,0,3152,4248.077,4257.308,4197.564,4186.41,4184.359,4201.026,4189.103,4187.9490000000005,4181.923,4179.359,4197.9490000000005,4209.615,4172.0509999999995,4235.128,0,0
705,15,0,3401,4233.205,4240.0,4189.359,4186.923,4182.564,4195.897,4186.667,4189.231,4182.0509999999995,4174.359,4195.385,4204.103,4161.026,4221.026,0,0
706,16,0,0,4220.128,4223.205,4184.231,4183.077,4173.718,4185.513,4183.974,4186.795,4179.615,4176.923,4191.667,4199.103,4167.308,4210.255999999999,0,0
707,17,0,0,4207.0509999999995,4206.282,4178.205,4170.641,4168.846,4197.308,4184.103,4184.744000000001,4178.077,4182.564,4190.897,4197.308,4173.974,4199.615,0,0
708,18,0,0,4199.615,4200.255999999999,4170.513,4167.436,4168.974,4203.333,4182.821,4185.769,4180.0,4182.564,4188.974,4194.615,4171.795,4188.462,0,0
709,19,0,0,4191.41,4195.385,4169.744000000001,4170.513,4173.205,4191.026,4182.564,4188.205,4183.077,4183.59,4188.718,4190.897,4176.282,4181.41,0,0
710,20,0,0,4187.564,4187.564,4182.9490000000005,4169.615,4182.9490000000005,4186.795,4185.255999999999,4189.103,4185.128,4197.692,4200.0,4195.255999999999,4188.59,4186.026,0,0
711,21,0,0,4188.59,4184.103,4188.462,4170.0,4186.026,4191.154,4186.923,4189.359,4185.513,4204.487,4204.744000000001,4198.974,4190.385,4188.462,0,0
712,22,0,0,4179.359,4178.718,4176.923,4171.538,4179.231,4194.103,4186.795,4187.821,4184.615,4188.333,4191.923,4188.462,4177.179,4175.641,0,0
713,23,0,0,4168.462,4170.769,4170.385,4171.41,4175.897,4199.103,4189.744000000001,4190.385,4183.59,4185.897,4185.769,4176.923,4178.974,4167.9490000000005,0,0
714,24,0,0,4170.513,4167.564,4171.282,4166.538,4176.41,4203.59,4193.205,4195.897,4184.872,4198.718,4190.128,4174.103,4197.692,4170.128,0,0
715,25,0,0,4169.872,4164.103,4169.231,4157.564,4177.564,4198.846,4194.359,4191.923,4183.59,4192.436,4182.9490000000005,4169.744000000001,4189.359,4161.538,0,0
716,26,0,0,4159.359,4157.179,4167.436,4157.0509999999995,4177.821,4188.077,4195.128,4187.179,4175.0,4177.308,4172.821,4164.359,4165.128,4149.103,0,0
717,27,0,0,4152.692,4153.718,4168.59,4160.385,4172.179,4185.897,4190.769,4186.795,4172.9490000000005,4172.821,4169.744000000001,4166.154,4164.615,4148.718,0,0
718,28,0,0,4156.923,4151.923,4166.923,4158.205,4167.436,4194.359,4184.359,4186.154,4181.667,4176.282,4168.333,4173.333,4172.692,4152.821,0,0
719,29,0,0,4162.9490000000005,4152.179,4169.872,4160.128,4168.462,4199.615,4191.923,4192.9490000000005,4185.513,4185.513,4175.128,4180.255999999999,4173.205,4155.128,0,0
720,30,0,0,4160.255999999999,4155.0,4175.255999999999,4161.667,4170.513,4198.974,4200.255999999999,4198.462,4182.692,4185.641,4182.0509999999995,4182.821,4176.026,4157.179,0,0
721,31,0,0,4151.667,4148.718,4163.974,4154.744000000001,4166.795,4194.231,4189.487,4191.154,4181.41,4172.9490000000005,4176.795,4177.692,4172.692,4152.436,0,0
722,32,0,0,4148.205,4144.231,4153.077,4151.41,4165.897,4185.769,4182.0509999999995,4192.436,4182.9490000000005,4179.487,4176.667,4169.744000000001,4169.359,4149.359,0,0
723,33,0,0,4152.564,4153.462,4162.436,4157.692,4170.513,4188.718,4189.744000000001,4202.564,4187.564,4195.0,4189.744000000001,4168.205,4176.282,4154.872,0,0
724,34,0,0,4153.974,4156.41,4169.872,4161.154,4170.0,4196.282,4191.154,4194.103,4184.744000000001,4190.0,4188.718,4166.282,4173.205,4157.0509999999995,0,0
725,35,0,0,4147.0509999999995,4146.41,4161.667,4157.179,4165.769,4197.308,4186.154,4182.9490000000005,4175.0,4181.923,4172.9490000000005,4159.744000000001,4167.0509999999995,4151.795,0,0
726,36,0,0,4138.462,4144.872,4155.128,4153.333,4166.795,4199.103,4187.179,4185.897,4172.308,4184.615,4167.179,4155.255999999999,4175.897,4150.641,0,0
727,37,0,0,4137.179,4151.538,4156.923,4154.359,4169.231,4197.308,4188.974,4187.564,4176.41,4182.179,4170.385,4157.308,4181.538,4151.026,0,0
728,38,0,0,4137.821,4146.538,4155.897,4157.179,4163.974,4186.538,4188.333,4181.538,4172.0509999999995,4170.385,4171.795,4157.9490000000005,4176.282,4145.255999999999,0,0
729,39,0,0,4131.667,4135.255999999999,4150.641,4153.718,4157.308,4181.282,4184.615,4174.103,4168.077,4167.564,4165.641,4158.462,4175.255999999999,4141.923,0,0
730,40,0,0,4132.564,4140.0,4152.308,4151.026,4161.026,4186.538,4181.667,4175.0,4176.795,4181.026,4166.538,4165.0,4182.436,4149.872,0,0
731,41,0,0,4146.41,4153.59,4166.026,4161.923,4169.359,4186.41,4186.154,4183.462,4181.154,4192.9490000000005,4181.923,4169.872,4186.026,4164.103,0,0
732,42,0,0,4153.846,4155.128,4170.769,4170.385,4171.41,4182.821,4183.462,4182.692,4174.231,4188.59,4189.231,4166.667,4184.359,4171.795,0,0
733,43,0,0,4150.385,4150.641,4162.0509999999995,4163.333,4168.077,4186.154,4171.923,4174.231,4166.667,4181.795,4178.846,4163.205,4180.0,4165.385,0,0
734,44,0,0,4151.795,4153.59,4160.897,4162.179,4169.744000000001,4188.846,4172.821,4171.41,4169.103,4183.59,4175.641,4163.846,4178.718,4162.179,0,0
735,45,0,0,4157.308,4159.359,4163.718,4168.462,4173.59,4186.154,4183.077,4174.872,4177.308,4188.718,4183.59,4167.0509999999995,4183.846,4170.385,0,0
736,46,0,0,4153.333,4156.154,4156.282,4162.436,4171.795,4182.436,4184.744000000001,4176.41,4175.513,4186.923,4182.821,4165.513,4186.026,4170.0,0,0
737,47,0,0,4148.333,4151.282,4151.923,4154.359,4169.487,4184.231,4181.154,4175.128,4168.59,4181.41,4174.872,4159.615,4181.282,4158.846,0,0
738,48,0,0,4151.538,4152.308,4158.59,4158.077,4168.59,4185.769,4182.821,4173.205,4168.077,4181.538,4176.026,4158.846,4174.615,4158.974,0,0
739,49,0,0,4152.0509999999995,4152.821,4162.9490000000005,4161.795,4165.769,4185.0,4185.385,4172.821,4170.513,4183.846,4178.718,4159.872,4174.487,4164.615,0,0
740,50,0,0,4151.538,4152.308,4166.667,4163.205,4168.205,4187.9490000000005,4187.308,4179.231,4170.128,4183.974,4174.103,4159.231,4182.9490000000005,4167.564,0,0
741,51,0,0,4155.769,4154.359,4172.436,4168.59,4176.667,4187.308,4185.0,4183.59,4172.9490000000005,4183.718,4176.923,4161.667,4188.205,4175.255999999999,0,0
742,52,0,0,4155.769,4155.769,4173.462,4171.026,4179.359,4185.513,4183.205,4179.103,4174.359,4186.41,4187.564,4161.795,4185.385,4175.769,0,0
743,53,0,0,4146.41,4153.718,4165.128,4166.538,4177.564,4190.128,4183.077,4171.026,4170.0,4187.692,4184.744000000001,4150.641,4180.897,4162.564,0,0
744,54,0,0,4136.795,4147.308,4153.846,4157.308,4175.0,4186.41,4173.205,4165.385,4166.923,4180.0,4165.641,4141.282,4174.103,4148.718,0,0
745,55,0,0,4140.128,4142.9490000000005,4149.744000000001,4154.487,4170.769,4181.795,4169.359,4166.795,4167.821,4178.974,4160.128,4140.769,4167.821,4151.795,0,0
746,56,0,0,4148.718,4148.59,4156.538,4159.231,4169.359,4192.692,4183.205,4172.179,4169.103,4184.231,4170.769,4145.769,4171.795,4164.231,0,0
747,57,0,0,4152.179,4157.308,4164.744000000001,4160.897,4171.026,4195.897,4189.231,4174.103,4168.205,4171.538,4171.667,4154.231,4175.513,4163.333,0,0
748,58,0,0,4152.821,4152.692,4165.0,4158.077,4171.154,4182.821,4181.795,4171.41,4167.308,4152.436,4166.795,4158.718,4164.872,4156.41,0,0
749,59,0,0,4149.103,4144.872,4160.769,4155.385,4168.462,4181.538,4182.0509999999995,4170.769,4166.026,4155.385,4166.795,4157.179,4153.077,4156.538,0,0
750,60,0,0,4145.641,4149.615,4157.436,4159.744000000001,4170.513,4188.333,4187.0509999999995,4174.744000000001,4166.282,4167.9490000000005,4171.538,4157.9490000000005,4160.0,4161.154,0,0
751,61,0,0,4149.872,4157.179,4155.255999999999,4168.974,4178.333,4186.538,4187.9490000000005,4180.385,4170.641,4175.385,4174.487,4159.103,4173.846,4166.154,0,0
752,62,0,0,4151.154,4153.718,4152.821,4168.333,4179.231,4186.923,4189.359,4184.872,4173.205,4184.359,4173.846,4155.897,4177.564,4166.154,0,0
753,63,0,0,4143.077,4147.179,4152.179,4157.436,4169.615,4187.179,4185.897,4180.255999999999,4169.487,4187.564,4170.897,4156.538,4179.231,4158.462,0,0
754,64,0,2571,4139.872,4149.231,4154.615,4153.333,4166.538,4181.538,4181.41,4173.077,4168.462,4182.692,4174.231,4157.179,4182.821,4154.744000000001,0,0
755,65,0,2857,4142.821,4150.769,4155.897,4155.255999999999,4167.821,4180.641,4182.821,4173.846,4171.538,4181.538,4185.0,4155.513,4184.744000000001,4159.487,0,0
756,66,0,3061,4143.974,4148.846,4156.282,4153.205,4165.255999999999,4182.564,4183.718,4179.615,4170.641,4180.0,4185.0,4155.769,4183.974,4156.538,0,0
757,67,0,3065,4149.487,4151.795,4161.282,4152.564,4168.333,4182.436,4184.487,4183.077,4168.205,4176.923,4176.795,4160.255999999999,4182.0509999999995,4157.436,0,0
758,68,0,3538,4156.282,4156.795,4162.692,4156.026,4172.692,4182.692,4185.128,4184.872,4170.385,4179.615,4175.513,4161.923,4180.513,4167.821,0,0
759,69,0,2172,4151.667,4154.103,4154.103,4156.667,4167.308,4184.872,4179.615,4185.255999999999,4172.0509999999995,4179.744000000001,4168.205,4156.282,4176.282,4161.667,0,0
760,70,0,2565,4138.077,4145.385,4151.026,4151.923,4166.154,4184.872,4178.59,4180.128,4168.974,4175.513,4149.872,4146.41,4171.026,4141.923,0,0
761,71,0,1801,4128.59,4139.744000000001,4153.205,4148.59,4167.308,4184.487,4184.872,4174.744000000001,4167.564,4167.692,4138.205,4141.026,4171.154,4129.872,0,0
762,72,0,1414,4129.615,4135.385,4151.154,4150.255999999999,4164.231,4184.615,4188.333,4172.9490000000005,4169.744000000001,4161.923,4140.641,4141.154,4173.077,4129.487,0,0
763,73,0,3532,4137.308,4135.641,4157.692,4153.59,4165.769,4184.615,4190.897,4177.0509999999995,4168.718,4160.128,4147.9490000000005,4144.615,4169.231,4135.769,0,0
764,74,0,3152,4140.641,4145.641,4166.41,4156.282,4170.641,4187.436,4194.359,4182.821,4166.667,4160.255999999999,4153.462,4150.641,4169.103,4142.308,0,0
765,75,0,3401,4139.872,4150.0,4158.59,4155.641,4169.744000000001,4188.718,4190.385,4178.846,4167.692,4158.846,4150.0,4151.41,4174.359,4139.103,0,0
766,76,0,3239,4139.487,4144.359,4149.744000000001,4153.846,4166.154,4184.231,4183.462,4171.923,4166.667,4152.9490000000005,4145.0,4145.641,4165.513,4135.641,0,0
767,77,0,2025,4139.744000000001,4146.923,4154.231,4155.128,4166.538,4181.154,4184.103,4171.923,4167.179,4154.872,4157.564,4146.538,4154.359,4147.436,0,0
768,78,0,3152,4140.128,4153.846,4155.385,4157.564,4168.974,4184.103,4185.769,4174.103,4171.538,4166.667,4173.59,4150.255999999999,4156.282,4155.0,0,0
769,79,0,3401,4139.744000000001,4150.255999999999,4149.744000000001,4155.255999999999,4168.718,4183.718,4183.59,4172.308,4170.0,4170.769,4168.077,4147.436,4157.308,4151.667,0,0
770,80,0,3239,4138.333,4147.821,4150.897,4153.59,4166.282,4181.923,4180.385,4168.974,4165.385,4159.231,4154.615,4145.769,4157.179,4150.128,0,0
771,81,0,2025,4145.769,4158.718,4154.615,4161.795,4173.462,4184.872,4183.718,4170.641,4167.564,4158.59,4159.872,4149.487,4171.41,4155.255999999999,0,0
772,82,0,3152,4162.564,4167.821,4160.641,4171.667,4185.897,4187.0509999999995,4195.128,4179.487,4170.769,4173.59,4170.641,4155.128,4183.333,4163.974,0,0
773,83,0,3401,4170.641,4169.359,4167.821,4174.103,4186.41,4186.026,4201.795,4187.436,4170.513,4180.513,4169.103,4159.359,4177.564,4168.333,0,0
