,COUNTER, INTERPOLATED, RAW_CQ, AF3, F7, F3, FC5, T7, P7, O1, O2, P8, T8, FC6, F4, F8, AF4, MARKER_HARDWARE, MARKER
0,8,0,1343,4422.9490000000005,4355.128,4383.205,4358.462,4373.59,4356.154,4376.538,4353.462,4341.538,4413.077,4418.846,4353.462,4209.744000000001,4498.718,0,0
1,9,0,3505,4418.846,4356.41,4380.0,4365.128,4371.154,4358.718,4378.846,4352.692,4337.9490000000005,4402.0509999999995,4411.154,4352.179,4185.769,4496.41,0,0
2,10,0,3139,4422.692,4360.128,4386.41,4368.846,4377.0509999999995,4361.154,4383.077,4350.897,4340.513,4404.744000000001,4421.667,4352.436,4198.333,4505.128,0,0
3,11,0,3382,4427.0509999999995,4367.821,4392.821,4372.564,4381.667,4366.667,4384.487,4351.154,4343.974,4408.59,4430.513,4355.897,4216.41,4508.846,0,0
4,12,0,3220,4424.231,4366.538,4385.897,4370.513,4373.846,4362.821,4377.692,4347.0509999999995,4341.41,4398.718,4420.769,4356.154,4192.308,4501.538,0,0
5,13,0,1963,4423.846,4358.205,4380.897,4362.692,4367.436,4352.564,4370.0,4342.436,4339.231,4392.821,4412.0509999999995,4351.538,4195.897,4501.41,0,0
6,14,0,3139,4424.615,4358.077,4383.077,4358.462,4367.9490000000005,4355.769,4372.436,4344.103,4340.0,4398.205,4414.872,4348.462,4220.897,4512.0509999999995,0,0
7,15,0,3382,4426.282,4365.769,4380.128,4358.718,4361.923,4360.641,4375.513,4343.59,4335.513,4392.9490000000005,4414.103,4348.846,4185.513,4520.897,0,0
8,16,0,0,4437.436,4372.308,4384.359,4364.744000000001,4357.692,4350.513,4371.41,4340.385,4332.436,4384.615,4412.9490000000005,4353.462,4146.538,4533.077,0,0
9,17,0,0,4450.0,4383.462,4395.513,4375.0,4367.179,4345.769,4369.487,4343.077,4337.0509999999995,4393.846,4420.897,4360.0,4182.9490000000005,4544.615,0,0
10,18,0,0,4452.9490000000005,4394.103,4388.846,4375.641,4370.769,4352.0509999999995,4368.077,4342.0509999999995,4336.026,4394.487,4422.0509999999995,4357.179,4208.462,4540.641,0,0
11,19,0,0,4455.385,4396.538,4382.564,4373.59,4363.846,4352.692,4365.513,4340.128,4330.897,4381.154,4418.974,4353.718,4185.128,4536.795,0,0
12,20,0,0,4471.154,4410.0,4394.872,4386.538,4371.026,4350.385,4368.718,4345.385,4335.0,4386.154,4422.692,4359.744000000001,4186.026,4548.077,0,0
13,21,0,0,4480.0,4431.795,4396.795,4395.641,4381.538,4351.282,4371.026,4347.179,4341.667,4396.923,4419.103,4362.0509999999995,4205.641,4551.795,0,0
14,22,0,0,4469.744000000001,4433.077,4381.026,4385.641,4370.255999999999,4349.744000000001,4361.026,4340.0,4340.0,4385.128,4403.462,4352.436,4202.692,4539.744000000001,0,0
15,23,0,0,4457.9490000000005,4420.128,4374.487,4378.333,4357.9490000000005,4351.667,4356.026,4335.897,4336.154,4375.385,4395.513,4348.077,4198.846,4532.436,0,0
16,24,0,0,4452.821,4416.538,4376.795,4381.282,4361.923,4356.667,4358.462,4335.769,4333.718,4376.282,4393.077,4350.513,4190.385,4532.179,0,0
17,25,0,0,4442.564,4411.667,4370.769,4376.282,4360.769,4347.179,4347.0509999999995,4330.0,4326.667,4363.205,4384.359,4344.103,4162.0509999999995,4526.282,0,0
18,26,0,0,4428.59,4396.282,4361.795,4364.872,4354.359,4336.923,4339.744000000001,4325.641,4324.231,4356.154,4381.923,4334.872,4152.9490000000005,4516.667,0,0
19,27,0,0,4419.744000000001,4385.128,4360.641,4361.41,4355.513,4345.769,4349.103,4331.026,4332.179,4366.026,4382.9490000000005,4335.897,4168.333,4504.487,0,0
20,28,0,0,4410.128,4378.462,4367.308,4360.513,4353.205,4352.436,4352.436,4333.333,4334.872,4367.564,4379.487,4340.385,4177.564,4493.974,0,0
21,29,0,0,4404.615,4373.974,4370.769,4357.436,4352.0509999999995,4343.205,4351.026,4331.026,4327.9490000000005,4367.0509999999995,4381.667,4341.282,4183.59,4490.128,0,0
22,30,0,0,4401.795,4372.564,4365.513,4359.231,4355.385,4336.41,4350.769,4331.154,4326.282,4369.872,4384.103,4340.385,4192.0509999999995,4480.255999999999,0,0
23,31,0,0,4391.538,4367.179,4360.641,4357.821,4351.026,4338.333,4343.205,4329.615,4329.359,4361.667,4375.897,4336.282,4190.0,4462.692,0,0
24,32,0,0,4378.59,4350.255999999999,4356.795,4347.436,4341.154,4341.538,4340.0,4325.641,4328.205,4347.436,4361.282,4330.128,4172.564,4444.103,0,0
25,33,0,0,4369.487,4340.641,4347.0509999999995,4340.513,4337.0509999999995,4342.179,4343.333,4325.641,4326.154,4340.513,4354.487,4323.205,4164.615,4426.538,0,0
26,34,0,0,4362.9490000000005,4343.333,4340.513,4341.026,4333.718,4335.897,4335.641,4327.0509999999995,4326.923,4342.0509999999995,4357.564,4321.154,4182.821,4414.231,0,0
27,35,0,0,4358.205,4342.9490000000005,4340.385,4341.41,4335.255999999999,4329.487,4335.897,4327.179,4325.128,4349.872,4356.154,4321.538,4186.282,4407.821,0,0
28,36,0,0,4355.128,4340.641,4340.769,4339.103,4342.0509999999995,4334.744000000001,4340.641,4327.179,4325.385,4349.231,4344.231,4320.513,4167.821,4397.821,0,0
29,37,0,0,4352.564,4340.128,4341.282,4337.179,4340.769,4338.077,4333.462,4325.513,4330.128,4341.923,4340.897,4321.667,4177.308,4390.641,0,0
30,38,0,0,4351.667,4334.487,4342.692,4335.385,4333.974,4333.205,4331.667,4326.795,4331.282,4342.9490000000005,4346.795,4325.513,4184.103,4391.923,0,0
31,39,0,0,4342.564,4327.821,4339.231,4330.897,4330.385,4337.308,4335.641,4329.872,4327.179,4342.821,4345.255999999999,4322.436,4172.821,4381.795,0,0
32,40,0,0,4328.077,4324.231,4333.59,4326.026,4324.872,4338.205,4324.487,4325.897,4327.564,4345.255999999999,4341.026,4316.795,4217.436,4362.821,0,0
33,41,0,0,4325.897,4316.795,4330.897,4325.385,4321.795,4328.333,4317.436,4323.974,4328.718,4348.333,4339.231,4316.026,4233.846,4354.359,0,0
34,42,0,0,4327.821,4312.436,4328.974,4327.179,4324.103,4324.487,4326.667,4327.179,4320.513,4329.872,4329.359,4313.205,4133.59,4349.103,0,0
35,43,0,0,4314.231,4311.41,4322.692,4325.128,4320.641,4324.103,4321.538,4318.974,4314.615,4306.923,4313.718,4307.692,4082.692,4332.0509999999995,0,0
36,44,0,0,4304.231,4303.333,4316.667,4322.9490000000005,4315.128,4321.923,4307.692,4310.128,4322.0509999999995,4308.974,4306.41,4302.436,4145.0,4313.205,0,0
37,45,0,0,4308.077,4295.769,4316.795,4318.077,4314.103,4315.513,4307.308,4316.026,4326.154,4314.231,4305.897,4296.923,4168.974,4308.718,0,0
38,46,0,0,4304.359,4295.255999999999,4316.923,4310.897,4312.564,4313.205,4314.615,4322.821,4320.255999999999,4305.0,4306.154,4297.179,4142.821,4311.154,0,0
39,47,0,0,4293.846,4293.846,4311.538,4309.487,4307.9490000000005,4319.231,4320.385,4317.9490000000005,4317.564,4302.821,4304.359,4300.769,4152.179,4301.923,0,0
40,48,0,0,4294.487,4296.154,4310.128,4310.769,4309.487,4322.821,4318.846,4311.282,4319.231,4311.538,4306.41,4301.026,4170.897,4291.538,0,0
41,49,0,0,4298.718,4303.59,4315.255999999999,4311.795,4319.615,4323.077,4320.0,4310.641,4319.359,4314.359,4313.718,4301.154,4167.179,4292.308,0,0
42,50,0,0,4291.41,4295.769,4314.487,4309.872,4320.128,4324.872,4323.333,4311.538,4321.026,4311.667,4310.385,4299.103,4173.333,4285.128,0,0
43,51,0,0,4285.513,4285.769,4309.359,4306.538,4311.538,4326.667,4317.692,4311.795,4320.897,4313.205,4302.0509999999995,4293.718,4194.744000000001,4270.0,0,0
44,52,0,0,4291.923,4295.641,4315.385,4311.026,4312.0509999999995,4327.436,4315.128,4311.538,4314.487,4309.744000000001,4304.872,4297.0509999999995,4165.128,4271.795,0,0
45,53,0,0,4298.333,4304.744000000001,4325.769,4317.179,4318.205,4326.026,4325.0,4312.564,4315.897,4306.923,4312.0509999999995,4304.103,4135.255999999999,4281.795,0,0
46,54,0,0,4296.154,4298.205,4321.795,4313.205,4313.718,4312.9490000000005,4320.255999999999,4312.692,4327.308,4322.821,4312.564,4302.692,4206.795,4281.41,0,0
47,55,0,0,4291.923,4293.59,4314.872,4308.846,4307.436,4305.128,4307.564,4310.255999999999,4322.308,4317.9490000000005,4310.128,4302.436,4222.9490000000005,4274.103,0,0
48,56,0,0,4292.0509999999995,4297.179,4318.974,4310.255999999999,4309.744000000001,4316.795,4311.026,4311.026,4306.923,4285.128,4307.308,4304.872,4109.231,4266.795,0,0
49,57,0,0,4291.41,4295.769,4313.462,4309.872,4306.154,4319.359,4305.255999999999,4308.718,4306.026,4276.026,4299.615,4298.333,4074.8720000000003,4262.308,0,0
50,58,0,0,4291.795,4293.974,4305.897,4309.744000000001,4302.436,4309.103,4292.308,4300.769,4312.9490000000005,4293.333,4297.564,4292.9490000000005,4152.9490000000005,4262.308,0,0
51,59,0,0,4294.103,4297.436,4314.103,4311.923,4306.923,4305.128,4297.436,4296.282,4310.641,4298.846,4299.231,4296.154,4169.615,4264.231,0,0
52,60,0,0,4294.744000000001,4298.077,4320.0,4311.026,4310.255999999999,4307.0509999999995,4302.0509999999995,4297.692,4307.179,4295.769,4296.667,4299.615,4145.385,4264.359,0,0
53,61,0,0,4291.026,4297.436,4312.0509999999995,4309.744000000001,4309.231,4308.846,4293.59,4296.795,4310.385,4298.077,4298.846,4297.308,4161.923,4259.744000000001,0,0
54,62,0,0,4282.436,4295.769,4306.795,4308.333,4307.821,4310.513,4292.692,4295.0,4311.026,4294.487,4300.128,4293.205,4169.103,4251.026,0,0
55,63,0,0,4281.154,4295.385,4309.487,4305.897,4306.282,4312.436,4301.538,4300.897,4309.744000000001,4295.128,4296.282,4292.692,4172.436,4249.487,0,0
56,64,0,2486,4288.846,4294.103,4310.641,4303.846,4299.744000000001,4311.41,4301.41,4302.308,4309.487,4298.333,4294.231,4298.59,4179.487,4252.564,0,0
57,65,0,2844,4293.205,4294.487,4308.59,4301.538,4295.0,4312.0509999999995,4294.872,4296.538,4310.641,4293.974,4294.487,4298.846,4166.923,4250.513,0,0
58,66,0,3017,4287.436,4295.769,4308.718,4299.487,4297.436,4310.769,4295.128,4297.564,4309.744000000001,4290.769,4292.9490000000005,4295.385,4146.154,4249.103,0,0
59,67,0,3053,4280.641,4286.41,4308.846,4295.641,4296.026,4305.255999999999,4296.795,4304.103,4306.41,4291.154,4293.846,4296.282,4143.333,4249.231,0,0
60,68,0,3523,4280.0,4278.846,4306.923,4294.615,4292.564,4301.667,4295.769,4306.282,4308.333,4291.538,4294.872,4298.974,4157.179,4247.0509999999995,0,0
61,69,0,2128,4282.9490000000005,4284.231,4308.462,4299.872,4301.282,4307.179,4302.9490000000005,4305.128,4311.282,4293.205,4294.231,4299.103,4164.359,4249.744000000001,0,0
62,70,0,2550,4284.872,4288.205,4311.538,4303.333,4308.846,4317.9490000000005,4309.615,4304.103,4310.0,4293.077,4296.923,4296.026,4163.333,4251.795,0,0
63,71,0,1816,4275.0,4277.564,4305.128,4294.359,4297.821,4313.077,4298.077,4298.077,4308.077,4285.255999999999,4289.872,4285.255999999999,4171.026,4238.462,0,0
64,72,0,1343,4265.641,4269.487,4296.026,4284.744000000001,4291.026,4299.872,4286.538,4293.718,4303.205,4278.077,4281.795,4277.9490000000005,4178.462,4225.897,0,0
65,73,0,3523,4265.255999999999,4267.179,4292.308,4283.846,4295.0,4302.179,4291.026,4293.974,4294.872,4269.359,4279.487,4278.333,4149.872,4222.308,0,0
66,74,0,3156,4262.9490000000005,4261.026,4294.487,4285.897,4293.462,4307.9490000000005,4296.154,4292.692,4295.128,4261.154,4273.333,4277.308,4122.9490000000005,4218.333,0,0
67,75,0,3401,4267.308,4264.487,4300.385,4288.846,4291.282,4303.077,4293.846,4293.077,4302.564,4272.821,4281.41,4281.41,4147.821,4231.923,0,0
68,76,0,3236,4290.513,4272.436,4304.615,4290.897,4289.487,4304.231,4295.255999999999,4297.0509999999995,4305.128,4291.282,4310.0,4293.077,4173.462,4265.769,0,0
69,77,0,1965,4314.103,4267.564,4308.718,4288.077,4283.974,4305.769,4292.9490000000005,4298.718,4307.821,4300.128,4333.077,4297.564,4172.436,4292.308,0,0
70,78,0,3156,4316.154,4248.974,4311.154,4281.026,4274.359,4293.462,4283.59,4299.103,4309.872,4304.103,4338.974,4295.769,4169.231,4298.462,0,0
71,79,0,3401,4316.154,4228.718,4311.154,4274.615,4265.0,4290.897,4286.41,4304.103,4308.077,4309.487,4345.641,4303.333,4161.282,4301.282,0,0
72,80,0,3236,4320.255999999999,4220.255999999999,4313.718,4272.436,4264.359,4299.231,4295.641,4307.436,4308.718,4317.308,4351.154,4312.564,4158.846,4304.359,0,0
73,81,0,1965,4315.255999999999,4219.615,4316.282,4273.974,4270.128,4296.795,4295.513,4304.744000000001,4308.718,4318.59,4347.308,4306.923,4167.692,4301.282,0,0
74,82,0,3156,4309.487,4217.436,4313.846,4275.255999999999,4271.41,4298.077,4295.385,4304.744000000001,4306.923,4313.077,4342.308,4300.128,4157.308,4293.718,0,0
75,83,0,3401,4304.359,4210.128,4310.769,4268.462,4265.513,4309.231,4298.462,4301.923,4309.231,4309.744000000001,4336.41,4305.769,4151.795,4284.487,0,0
76,84,0,3236,4295.385,4208.205,4305.769,4260.255999999999,4260.769,4304.231,4294.231,4295.897,4310.641,4302.179,4327.821,4306.923,4170.513,4275.897,0,0
77,85,0,1965,4295.128,4211.667,4305.513,4261.026,4260.641,4292.308,4291.923,4301.538,4309.103,4296.667,4327.821,4302.564,4175.255999999999,4279.359,0,0
78,86,0,3156,4305.385,4213.077,4313.205,4264.487,4261.923,4291.667,4293.718,4307.436,4310.128,4310.128,4337.564,4306.667,4173.974,4292.308,0,0
79,87,0,3401,4303.846,4211.41,4315.513,4263.718,4257.179,4292.436,4288.205,4298.333,4307.692,4313.846,4335.769,4310.385,4183.718,4290.255999999999,0,0
80,88,0,3236,4297.564,4213.974,4313.333,4263.462,4253.462,4296.026,4287.821,4293.462,4305.385,4297.692,4327.179,4309.103,4181.795,4281.282,0,0
81,89,0,1965,4298.59,4214.744000000001,4313.718,4264.103,4259.359,4301.538,4297.9490000000005,4305.385,4307.308,4290.513,4323.846,4309.231,4164.487,4279.103,0,0
82,90,0,3156,4300.128,4208.974,4312.692,4263.974,4263.077,4297.308,4306.154,4310.0,4303.846,4292.0509999999995,4320.385,4304.487,4158.462,4273.077,0,0
83,91,0,3401,4297.179,4205.641,4307.564,4259.231,4257.308,4291.154,4302.821,4300.0,4296.795,4289.872,4317.821,4296.026,4165.641,4267.821,0,0
84,92,0,3236,4286.282,4202.9490000000005,4300.255999999999,4249.872,4248.718,4293.846,4292.308,4292.821,4295.513,4283.077,4312.692,4291.282,4160.0,4263.205,0,0
85,93,0,1965,4275.513,4198.718,4294.615,4245.513,4245.255999999999,4296.795,4292.564,4293.333,4299.103,4276.026,4301.154,4287.308,4156.282,4252.9490000000005,0,0
86,94,0,3156,4273.59,4197.308,4289.103,4246.41,4240.897,4292.9490000000005,4293.59,4295.641,4300.897,4278.333,4295.255999999999,4284.231,4179.744000000001,4245.255999999999,0,0
87,95,0,3401,4277.0509999999995,4198.974,4283.846,4244.744000000001,4238.077,4289.103,4285.897,4295.641,4301.41,4282.179,4297.0509999999995,4280.769,4192.692,4246.538,0,0
88,96,0,3236,4272.179,4199.103,4279.487,4242.436,4243.974,4292.564,4284.359,4296.282,4298.718,4271.667,4294.615,4277.0509999999995,4158.846,4244.744000000001,0,0
89,97,0,1965,4266.41,4197.9490000000005,4282.9490000000005,4244.744000000001,4246.41,4296.667,4292.179,4296.667,4295.769,4268.462,4298.205,4280.0,4129.487,4244.359,0,0
90,98,0,3156,4268.59,4197.436,4286.923,4245.513,4237.0509999999995,4290.641,4290.255999999999,4295.255999999999,4295.385,4277.821,4306.538,4281.667,4141.667,4248.077,0,0
91,99,0,3401,4278.077,4205.128,4285.128,4249.103,4236.154,4284.872,4281.795,4294.231,4296.282,4279.872,4308.205,4280.255999999999,4166.41,4253.718,0,0
92,100,0,3236,4291.538,4219.487,4289.744000000001,4261.282,4252.564,4292.0509999999995,4282.564,4296.282,4298.333,4280.769,4310.513,4288.205,4178.974,4269.359,0,0
93,101,0,1965,4291.538,4221.026,4296.667,4265.255999999999,4258.718,4297.692,4280.513,4295.769,4297.821,4281.795,4313.718,4292.0509999999995,4174.872,4274.872,0,0
94,102,0,3156,4280.255999999999,4214.231,4296.026,4258.205,4251.667,4292.564,4276.795,4292.308,4296.026,4277.9490000000005,4312.821,4286.538,4163.846,4262.564,0,0
95,103,0,3401,4282.436,4216.41,4294.615,4259.231,4250.385,4289.103,4287.179,4293.974,4296.667,4279.359,4312.436,4287.179,4161.282,4258.59,0,0
96,104,0,3236,4292.692,4221.41,4298.846,4264.615,4250.897,4290.769,4294.615,4297.179,4298.205,4282.179,4313.59,4288.974,4172.436,4265.513,0,0
97,105,0,1965,4284.615,4218.718,4298.077,4260.385,4245.513,4295.255999999999,4288.333,4295.0,4295.769,4274.359,4307.564,4283.718,4175.513,4264.103,0,0
98,106,0,3156,4277.179,4217.308,4296.41,4257.821,4244.615,4297.9490000000005,4285.897,4294.231,4294.487,4268.462,4305.255999999999,4287.179,4167.821,4260.0,0,0
99,107,0,3401,4290.513,4220.385,4301.41,4261.923,4248.718,4288.077,4288.846,4294.744000000001,4297.179,4270.641,4312.436,4293.59,4177.179,4263.974,0,0
100,108,0,3236,4293.59,4219.744000000001,4300.897,4265.0,4250.897,4280.769,4284.744000000001,4286.667,4298.846,4270.641,4309.744000000001,4287.0509999999995,4193.974,4268.077,0,0
101,109,0,1965,4284.615,4219.359,4294.231,4265.513,4250.0,4288.205,4278.333,4278.462,4294.744000000001,4270.128,4297.9490000000005,4280.255999999999,4183.974,4264.231,0,0
102,110,0,3156,4277.436,4218.462,4285.897,4256.282,4241.795,4286.026,4269.744000000001,4275.0,4285.255999999999,4260.897,4286.795,4275.513,4158.462,4250.255999999999,0,0
103,111,0,3401,4268.846,4213.846,4276.667,4244.615,4231.667,4275.0,4262.179,4274.103,4278.846,4248.205,4278.846,4270.128,4149.615,4242.436,0,0
104,112,0,3236,4264.744000000001,4213.59,4270.255999999999,4247.436,4233.205,4276.923,4262.436,4276.538,4279.744000000001,4247.436,4277.436,4266.282,4151.795,4245.513,0,0
105,113,0,1965,4261.41,4212.564,4265.0,4246.282,4233.846,4275.897,4261.667,4277.436,4281.795,4246.923,4278.462,4263.59,4151.923,4237.308,0,0
106,114,0,3156,4256.026,4208.718,4264.103,4237.692,4229.231,4274.231,4264.103,4275.641,4281.538,4244.872,4276.538,4263.205,4156.795,4226.795,0,0
107,115,0,3401,4258.077,4210.385,4272.0509999999995,4242.821,4233.59,4282.308,4273.205,4277.821,4282.9490000000005,4252.692,4278.205,4265.897,4165.513,4238.333,0,0
108,116,0,3236,4262.179,4214.487,4278.59,4248.974,4235.897,4273.846,4266.795,4280.128,4285.255999999999,4253.077,4280.641,4265.641,4175.641,4250.641,0,0
109,117,0,1965,4257.692,4215.385,4275.513,4245.641,4228.333,4261.41,4257.436,4278.462,4286.667,4246.667,4279.103,4266.026,4186.154,4242.564,0,0
110,118,0,3156,4256.923,4214.615,4276.795,4246.667,4235.769,4273.077,4270.0,4279.872,4291.538,4254.744000000001,4282.564,4271.154,4189.103,4237.692,0,0
111,119,0,3401,4263.718,4218.205,4280.385,4250.897,4248.974,4283.59,4282.564,4283.077,4294.487,4263.205,4288.077,4274.359,4185.641,4248.846,0,0
112,120,0,3236,4262.436,4222.564,4273.077,4250.513,4241.795,4279.744000000001,4279.744000000001,4282.692,4289.359,4255.255999999999,4283.077,4271.282,4177.179,4253.846,0,0
113,121,0,1965,4248.077,4208.718,4261.795,4243.077,4228.077,4278.462,4275.641,4280.897,4280.0,4240.897,4266.667,4265.0,4162.179,4237.564,0,0
114,122,0,3156,4240.385,4194.231,4263.846,4233.333,4229.744000000001,4279.103,4278.974,4279.744000000001,4279.359,4239.872,4265.897,4264.872,4171.795,4228.462,0,0
115,123,0,3401,4245.897,4195.255999999999,4270.385,4230.513,4233.846,4280.897,4279.231,4279.615,4286.923,4256.667,4284.487,4268.59,4202.564,4238.846,0,0
116,124,0,3236,4238.205,4177.308,4262.564,4228.333,4227.0509999999995,4277.692,4268.59,4276.923,4286.923,4270.0,4293.333,4265.641,4199.103,4240.897,0,0
117,125,0,1965,4217.564,4128.462,4248.59,4209.487,4212.564,4265.897,4257.308,4272.0509999999995,4280.0,4264.359,4285.769,4259.103,4172.436,4225.255999999999,0,0
118,126,0,3156,4211.41,4099.744000000001,4248.974,4195.897,4205.897,4271.282,4257.564,4272.692,4279.872,4262.9490000000005,4287.692,4261.667,4179.231,4214.359,0,0
119,127,0,53,4217.0509999999995,4110.128,4259.744000000001,4206.026,4213.974,4283.718,4262.308,4280.0,4284.487,4274.872,4297.9490000000005,4265.255999999999,4197.436,4219.103,0,0
120,0,0,2490,4216.538,4116.538,4262.179,4210.385,4217.564,4273.333,4263.974,4279.615,4281.538,4271.795,4290.128,4264.487,4184.359,4218.974,0,0
121,1,0,2854,4213.718,4107.692,4255.513,4200.897,4212.0509999999995,4260.128,4266.667,4270.641,4277.821,4259.744000000001,4282.0509999999995,4263.333,4172.179,4211.282,0,0
122,2,0,3019,4214.103,4105.0,4252.692,4200.255999999999,4211.667,4265.897,4264.359,4263.974,4280.897,4261.026,4287.436,4263.333,4184.744000000001,4218.077,0,0
123,3,0,3068,4217.436,4108.205,4254.615,4204.487,4211.154,4269.615,4258.718,4263.59,4279.872,4262.821,4292.9490000000005,4262.692,4188.462,4238.077,0,0
124,4,0,3533,4218.333,4105.0,4256.282,4198.077,4202.9490000000005,4264.103,4260.0,4266.282,4277.692,4255.385,4292.564,4261.667,4178.846,4242.0509999999995,0,0
125,5,0,2138,4212.436,4106.667,4253.333,4196.026,4201.026,4264.615,4265.128,4269.615,4280.897,4258.846,4294.231,4261.41,4185.0,4237.436,0,0
126,6,0,2557,4214.103,4116.538,4246.154,4200.385,4202.0509999999995,4265.385,4262.0509999999995,4266.154,4281.282,4265.769,4297.179,4261.41,4188.462,4246.538,0,0
127,7,0,1823,4226.154,4119.872,4244.359,4198.846,4199.615,4261.923,4258.333,4259.103,4276.667,4256.538,4293.718,4261.667,4173.974,4257.692,0,0
128,8,0,1350,4235.0,4123.205,4247.179,4204.487,4207.0509999999995,4266.154,4264.872,4265.128,4277.9490000000005,4250.0,4296.026,4262.436,4175.769,4267.0509999999995,0,0
129,9,0,3531,4235.255999999999,4129.231,4247.564,4214.487,4212.308,4268.205,4267.9490000000005,4273.462,4279.103,4252.436,4298.846,4262.179,4191.795,4281.154,0,0
130,10,0,3160,4235.128,4133.718,4246.795,4210.641,4203.718,4256.41,4262.308,4268.462,4273.846,4250.255999999999,4295.897,4263.974,4184.872,4291.41,0,0
131,11,0,3403,4236.795,4135.513,4245.641,4202.436,4197.308,4247.308,4256.795,4263.462,4272.436,4244.359,4293.718,4262.0509999999995,4167.692,4297.308,0,0
132,12,0,3238,4234.872,4130.769,4238.718,4203.077,4198.846,4252.564,4252.821,4264.872,4278.718,4246.282,4294.615,4254.615,4195.769,4305.513,0,0
133,13,0,1973,4229.231,4123.205,4230.897,4203.077,4195.641,4259.615,4246.795,4264.487,4281.026,4249.744000000001,4293.718,4247.821,4235.255999999999,4306.41,0,0
134,14,0,3160,4234.744000000001,4129.872,4236.282,4205.255999999999,4196.282,4264.231,4248.974,4263.462,4272.821,4244.103,4293.077,4251.795,4197.564,4313.462,0,0
135,15,0,3403,4248.462,4143.205,4243.333,4210.0,4200.897,4262.9490000000005,4255.255999999999,4264.359,4264.487,4234.359,4296.026,4260.128,4132.179,4334.359,0,0
136,16,0,0,4248.59,4143.333,4239.359,4205.513,4196.795,4250.897,4244.231,4259.744000000001,4266.795,4235.0,4295.897,4258.462,4142.0509999999995,4343.205,0,0
137,17,0,0,4240.897,4138.974,4236.282,4201.795,4196.026,4247.564,4230.897,4257.308,4277.692,4246.026,4294.487,4254.231,4187.436,4336.667,0,0
138,18,0,0,4245.0,4147.0509999999995,4238.077,4204.744000000001,4200.641,4260.385,4237.9490000000005,4262.9490000000005,4280.255999999999,4253.205,4298.974,4258.59,4198.718,4332.821,0,0
139,19,0,0,4245.641,4150.897,4236.538,4203.205,4200.255999999999,4265.897,4250.255999999999,4264.103,4268.205,4246.026,4293.718,4261.538,4187.436,4330.897,0,0
140,20,0,0,4235.769,4142.9490000000005,4231.538,4199.359,4196.41,4262.436,4246.795,4258.077,4261.41,4228.59,4279.359,4254.872,4176.923,4321.923,0,0
141,21,0,0,4237.179,4145.255999999999,4233.846,4200.513,4196.026,4262.179,4241.538,4257.308,4273.59,4227.308,4282.9490000000005,4253.846,4185.641,4322.564,0,0
142,22,0,0,4246.795,4153.462,4240.513,4199.872,4198.462,4258.974,4243.974,4260.641,4282.9490000000005,4245.513,4298.59,4256.282,4206.923,4333.205,0,0
143,23,0,0,4252.9490000000005,4158.59,4243.974,4203.077,4200.385,4260.0,4243.077,4259.359,4271.795,4252.179,4297.564,4256.154,4201.538,4340.641,0,0
144,24,0,0,4263.205,4169.359,4247.308,4213.462,4203.333,4263.718,4241.282,4258.846,4265.255999999999,4244.744000000001,4293.59,4260.385,4179.615,4347.564,0,0
145,25,0,0,4265.385,4174.744000000001,4249.487,4215.897,4206.154,4254.231,4243.077,4262.436,4274.103,4248.462,4302.0509999999995,4263.846,4179.615,4352.564,0,0
146,26,0,0,4253.846,4168.974,4246.282,4211.41,4204.615,4250.513,4244.744000000001,4262.436,4278.462,4253.205,4303.462,4261.026,4195.513,4348.846,0,0
147,27,0,0,4251.41,4172.436,4239.487,4212.179,4202.821,4263.974,4244.231,4259.487,4275.769,4246.538,4295.0,4257.0509999999995,4198.205,4341.282,0,0
148,28,0,0,4263.205,4183.205,4245.0,4218.462,4213.333,4269.872,4246.667,4262.308,4276.41,4254.359,4297.9490000000005,4260.385,4195.641,4344.359,0,0
149,29,0,0,4264.359,4184.615,4252.692,4220.385,4220.128,4262.0509999999995,4248.205,4264.872,4277.0509999999995,4266.026,4302.692,4265.128,4200.897,4344.103,0,0
150,30,0,0,4253.974,4181.026,4248.974,4217.0509999999995,4210.641,4259.359,4246.538,4262.821,4272.308,4252.9490000000005,4295.897,4261.795,4193.846,4331.282,0,0
151,31,0,0,4248.333,4179.615,4243.462,4214.615,4208.59,4262.821,4246.538,4260.769,4268.718,4241.154,4289.744000000001,4253.205,4186.282,4323.333,0,0
152,32,0,0,4248.462,4179.231,4244.359,4214.744000000001,4217.179,4266.538,4246.667,4262.692,4271.538,4250.641,4288.333,4251.795,4203.974,4320.897,0,0
153,33,0,0,4251.923,4182.692,4246.41,4218.462,4218.333,4266.538,4246.795,4264.872,4276.026,4249.744000000001,4287.436,4256.667,4201.154,4323.205,0,0
154,34,0,0,4253.59,4183.077,4248.333,4220.769,4214.744000000001,4258.846,4247.564,4261.923,4272.821,4240.0,4286.026,4258.077,4181.667,4322.821,0,0
155,35,0,0,4247.821,4173.462,4250.0,4218.205,4214.615,4256.923,4246.538,4258.974,4266.538,4248.333,4282.9490000000005,4255.255999999999,4206.538,4312.564,0,0
156,36,0,0,4243.974,4167.9490000000005,4250.641,4216.026,4213.205,4262.564,4246.538,4259.103,4264.103,4245.255999999999,4278.59,4254.615,4214.231,4305.128,0,0
157,37,0,0,4241.538,4167.821,4249.615,4214.103,4210.769,4265.0,4248.718,4254.359,4262.436,4217.179,4275.385,4252.179,4163.846,4304.231,0,0
158,38,0,0,4243.077,4172.564,4245.385,4213.59,4210.513,4262.821,4245.128,4245.255999999999,4261.667,4208.205,4274.103,4251.41,4150.513,4302.821,0,0
159,39,0,0,4252.821,4173.59,4243.59,4215.385,4207.9490000000005,4260.0,4240.769,4249.487,4263.077,4227.0509999999995,4280.128,4257.308,4183.974,4309.744000000001,0,0
160,40,0,0,4261.41,4164.103,4248.205,4212.821,4204.744000000001,4260.385,4248.333,4260.769,4264.231,4236.026,4289.615,4262.0509999999995,4195.255999999999,4323.462,0,0
161,41,0,0,4273.718,4176.667,4249.872,4213.205,4204.103,4260.769,4250.128,4257.564,4263.846,4231.154,4290.641,4261.41,4202.692,4336.154,0,0
162,42,0,0,4302.0509999999995,4222.564,4249.744000000001,4225.641,4201.026,4253.59,4233.59,4246.795,4262.9490000000005,4228.462,4287.821,4260.897,4206.41,4355.897,0,0
163,43,0,0,4335.769,4263.462,4255.513,4239.615,4197.564,4244.744000000001,4225.0,4245.128,4260.513,4219.359,4289.872,4265.769,4173.974,4382.179,0,0
164,44,0,0,4371.282,4295.128,4264.487,4252.564,4204.487,4251.538,4235.641,4251.795,4260.769,4213.846,4300.128,4275.385,4151.154,4415.0,0,0
165,45,0,0,4413.462,4342.436,4275.513,4272.436,4216.667,4262.9490000000005,4246.026,4258.59,4264.231,4223.846,4311.282,4286.538,4161.923,4454.103,0,0
166,46,0,0,4446.026,4388.205,4287.0509999999995,4290.513,4225.128,4259.744000000001,4248.333,4263.077,4265.128,4233.205,4317.179,4288.718,4180.513,4483.974,0,0
167,47,0,0,4474.487,4425.769,4293.59,4303.846,4230.385,4256.795,4247.821,4259.872,4265.769,4231.41,4321.795,4290.385,4189.487,4509.103,0,0
168,48,0,0,4509.487,4466.154,4295.897,4318.59,4232.9490000000005,4261.667,4248.846,4251.923,4261.282,4218.846,4318.077,4296.923,4171.923,4532.0509999999995,0,0
169,49,0,0,4530.128,4492.436,4293.718,4325.385,4229.872,4254.872,4244.487,4245.641,4251.923,4200.385,4306.923,4294.744000000001,4145.769,4540.897,0,0
170,50,0,0,4543.846,4507.9490000000005,4294.744000000001,4328.077,4227.821,4246.667,4236.923,4243.718,4253.846,4201.41,4314.103,4294.744000000001,4155.0,4555.385,0,0
171,51,0,0,4567.821,4528.077,4310.769,4336.923,4233.077,4258.205,4240.641,4252.564,4263.974,4218.846,4335.385,4311.154,4173.974,4584.744000000001,0,0
172,52,0,0,4586.282,4548.59,4327.179,4348.333,4242.179,4267.179,4250.0,4262.0509999999995,4265.0,4223.59,4341.795,4322.308,4171.282,4600.0,0,0
173,53,0,0,4597.0509999999995,4560.897,4333.462,4356.795,4248.974,4262.692,4251.667,4260.255999999999,4261.282,4217.0509999999995,4337.179,4319.744000000001,4166.667,4601.667,0,0
174,54,0,0,4613.333,4578.462,4339.359,4364.744000000001,4248.974,4260.255999999999,4253.462,4255.255999999999,4262.308,4218.077,4337.179,4321.538,4157.9490000000005,4612.0509999999995,0,0
175,55,0,0,4626.923,4604.487,4345.385,4372.9490000000005,4247.308,4262.308,4259.359,4258.974,4261.282,4222.821,4344.231,4327.179,4155.128,4626.026,0,0
176,56,0,0,4641.667,4623.205,4352.308,4385.0,4255.641,4264.487,4263.077,4265.255999999999,4262.821,4227.821,4356.026,4333.462,4171.795,4638.974,0,0
177,57,0,0,4657.179,4635.255999999999,4359.872,4395.128,4263.846,4264.487,4261.026,4264.744000000001,4272.692,4225.385,4354.744000000001,4340.897,4172.436,4645.769,0,0
178,58,0,0,4654.872,4642.9490000000005,4356.795,4393.205,4259.359,4261.282,4252.564,4256.923,4281.282,4216.923,4342.0509999999995,4337.179,4181.026,4639.744000000001,0,0
179,59,0,0,4650.641,4650.513,4351.282,4390.897,4252.821,4261.538,4244.615,4249.744000000001,4280.255999999999,4217.9490000000005,4339.615,4330.255999999999,4217.0509999999995,4634.359,0,0
180,60,0,0,4654.231,4661.41,4353.077,4395.641,4255.385,4264.615,4244.487,4249.872,4268.718,4208.846,4335.641,4332.179,4183.974,4631.026,0,0
181,61,0,0,4654.872,4665.385,4348.718,4396.538,4257.692,4260.513,4244.615,4248.59,4259.615,4186.667,4328.462,4334.231,4095.7690000000002,4628.205,0,0
182,62,0,0,4653.205,4656.795,4344.744000000001,4394.103,4258.846,4256.538,4246.41,4246.923,4261.282,4187.564,4338.846,4334.744000000001,4089.615,4631.923,0,0
183,63,0,0,4654.872,4655.897,4349.103,4396.026,4260.897,4259.744000000001,4250.897,4248.333,4268.974,4210.0,4356.923,4338.077,4147.9490000000005,4636.026,0,0
184,64,0,2491,4649.744000000001,4661.026,4347.9490000000005,4394.103,4255.0,4261.41,4250.513,4247.821,4271.026,4212.564,4348.077,4335.897,4157.821,4625.513,0,0
185,65,0,2844,4643.59,4656.538,4339.744000000001,4387.821,4248.974,4260.385,4248.462,4247.179,4265.255999999999,4197.564,4325.513,4327.9490000000005,4142.564,4609.615,0,0
186,66,0,2996,4644.487,4660.897,4338.846,4387.9490000000005,4247.692,4257.179,4247.436,4248.077,4261.41,4197.692,4323.846,4327.436,4157.9490000000005,4605.769,0,0
187,67,0,3031,4641.923,4670.385,4342.9490000000005,4391.538,4251.154,4249.872,4243.333,4246.538,4260.897,4203.846,4330.0,4328.974,4168.59,4605.385,0,0
188,68,0,3538,4638.462,4666.667,4342.821,4390.255999999999,4258.077,4251.795,4243.718,4246.026,4261.154,4195.385,4325.385,4328.205,4148.846,4603.974,0,0
189,69,0,2141,4634.359,4655.128,4341.282,4384.359,4257.692,4261.41,4249.359,4250.641,4262.0509999999995,4192.564,4322.9490000000005,4329.615,4135.128,4603.333,0,0
190,70,0,2561,4632.564,4654.231,4344.231,4390.128,4258.077,4256.41,4251.026,4254.103,4265.897,4208.205,4328.846,4333.205,4162.436,4601.538,0,0
191,71,0,1823,4632.308,4662.308,4344.872,4398.205,4265.385,4248.718,4248.59,4250.897,4264.615,4211.667,4319.872,4330.897,4172.692,4591.282,0,0
192,72,0,1353,4625.128,4659.103,4335.897,4389.487,4266.154,4255.0,4247.308,4246.41,4259.615,4199.487,4305.255999999999,4324.487,4151.538,4576.026,0,0
193,73,0,3524,4614.615,4650.128,4330.513,4382.564,4262.0509999999995,4256.41,4248.974,4244.744000000001,4261.923,4198.077,4307.179,4321.282,4166.282,4568.462,0,0
194,74,0,3153,4605.255999999999,4647.9490000000005,4332.436,4384.487,4261.282,4247.564,4252.0509999999995,4238.462,4262.692,4191.41,4304.487,4318.205,4175.897,4558.462,0,0
195,75,0,3376,4599.744000000001,4644.487,4328.462,4379.103,4252.821,4246.026,4246.923,4230.385,4257.564,4174.359,4292.179,4313.974,4134.103,4541.154,0,0
196,76,0,3227,4599.231,4630.897,4324.744000000001,4372.9490000000005,4242.821,4249.231,4234.615,4235.385,4256.667,4172.179,4288.205,4314.103,4111.667,4527.179,0,0
197,77,0,1960,4600.128,4629.744000000001,4329.487,4376.795,4246.41,4249.103,4230.769,4247.308,4262.436,4186.026,4295.0,4320.769,4146.154,4525.769,0,0
198,78,0,3153,4593.462,4634.872,4331.538,4375.513,4250.513,4248.077,4229.103,4250.769,4258.846,4194.872,4300.0,4321.154,4161.923,4526.667,0,0
199,79,0,3376,4579.487,4615.641,4326.026,4368.59,4245.769,4243.846,4217.9490000000005,4245.255999999999,4249.872,4186.667,4295.897,4310.641,4139.231,4515.255999999999,0,0
200,80,0,3227,4574.103,4594.744000000001,4326.41,4368.077,4243.846,4243.333,4215.513,4237.692,4254.359,4183.462,4293.974,4310.255999999999,4134.487,4504.231,0,0
201,81,0,1960,4577.821,4600.769,4333.333,4369.615,4249.872,4250.385,4230.641,4234.103,4259.103,4197.179,4302.821,4320.128,4156.795,4508.846,0,0
202,82,0,3153,4574.231,4607.564,4329.872,4368.462,4251.282,4250.0,4246.923,4235.0,4252.821,4197.692,4302.564,4315.0,4178.077,4510.513,0,0
203,83,0,3376,4560.897,4588.718,4315.385,4362.436,4243.205,4243.974,4248.205,4232.308,4245.641,4179.231,4284.615,4302.308,4166.923,4490.769,0,0
204,84,0,3227,4550.641,4573.59,4305.641,4353.718,4238.333,4246.41,4236.667,4230.385,4247.9490000000005,4175.385,4276.923,4301.538,4155.255999999999,4476.282,0,0
205,85,0,1960,4543.462,4571.154,4308.462,4348.718,4239.359,4250.255999999999,4231.026,4240.641,4259.487,4188.718,4282.564,4304.744000000001,4174.231,4479.872,0,0
206,86,0,3153,4538.462,4560.0,4315.385,4348.846,4237.308,4247.821,4231.538,4250.255999999999,4261.538,4194.615,4282.821,4304.231,4181.538,4481.41,0,0
207,87,0,3376,4535.897,4551.538,4314.359,4349.615,4232.308,4246.282,4221.667,4247.9490000000005,4251.923,4196.154,4280.128,4306.026,4167.692,4475.769,0,0
208,88,0,3227,4530.385,4552.0509999999995,4310.641,4347.308,4232.821,4242.692,4211.154,4241.923,4253.974,4200.769,4282.436,4307.692,4168.974,4475.897,0,0
209,89,0,1960,4523.333,4545.0,4313.974,4343.59,4236.923,4240.641,4219.872,4238.462,4264.103,4203.333,4284.487,4304.359,4190.255999999999,4480.769,0,0
210,90,0,3153,4510.897,4528.077,4310.0,4336.154,4230.769,4246.282,4231.795,4233.333,4256.538,4190.641,4271.538,4297.692,4190.255999999999,4462.179,0,0
211,91,0,3376,4489.487,4515.513,4297.564,4327.308,4217.308,4248.59,4231.795,4229.103,4245.385,4168.077,4247.436,4290.513,4163.333,4430.255999999999,0,0
212,92,0,3227,4479.103,4514.615,4295.897,4327.821,4219.615,4245.385,4231.795,4230.0,4245.641,4165.897,4243.846,4289.487,4143.718,4423.59,0,0
213,93,0,1960,4478.077,4510.0,4300.897,4330.128,4227.821,4248.59,4242.821,4232.436,4245.641,4183.718,4257.692,4292.436,4146.538,4432.436,0,0
214,94,0,3153,4467.9490000000005,4487.692,4304.359,4324.359,4221.41,4247.564,4248.974,4237.9490000000005,4246.923,4188.59,4257.821,4295.385,4163.077,4427.692,0,0
215,95,0,3376,4457.0509999999995,4468.462,4311.41,4322.436,4220.897,4239.487,4240.0,4245.641,4248.974,4181.667,4257.436,4297.0509999999995,4174.103,4415.128,0,0
216,96,0,3227,4443.846,4460.0,4310.897,4319.231,4227.821,4238.205,4231.667,4247.821,4250.255999999999,4185.385,4264.615,4295.0,4181.923,4401.41,0,0
217,97,0,1960,4410.897,4436.667,4296.538,4302.0509999999995,4219.103,4232.436,4221.923,4241.667,4249.744000000001,4191.154,4256.538,4284.615,4186.795,4370.897,0,0
218,98,0,3153,4366.282,4400.128,4278.462,4284.872,4206.538,4216.667,4196.026,4228.718,4240.641,4181.667,4231.923,4267.564,4177.0509999999995,4323.205,0,0
219,99,0,3376,4324.231,4364.103,4257.0509999999995,4269.359,4196.667,4210.897,4175.0,4211.667,4231.923,4165.0,4211.154,4250.769,4162.821,4274.103,0,0
220,100,0,3227,4275.385,4315.513,4234.103,4247.821,4188.718,4217.308,4178.077,4197.821,4232.692,4154.744000000001,4198.333,4236.795,4179.359,4226.795,0,0
221,101,0,1960,4226.282,4273.077,4217.436,4231.026,4193.077,4220.0,4187.9490000000005,4196.538,4231.026,4150.385,4184.487,4225.513,4202.436,4182.9490000000005,0,0
222,102,0,3153,4192.564,4246.667,4206.41,4217.0509999999995,4194.872,4220.128,4197.0509999999995,4207.0509999999995,4230.128,4153.205,4168.846,4218.846,4190.513,4150.641,0,0
223,103,0,3376,4160.513,4215.128,4199.359,4202.692,4187.179,4223.205,4206.41,4216.154,4236.538,4161.282,4153.462,4209.487,4197.0509999999995,4113.974,0,0
224,104,0,3227,4125.128,4185.255999999999,4191.41,4197.564,4184.744000000001,4217.308,4197.564,4216.282,4229.103,4155.897,4141.282,4198.077,4201.667,4066.795,0,0
225,105,0,1960,4094.8720000000003,4157.564,4182.692,4188.333,4181.667,4206.41,4180.128,4211.795,4220.897,4138.462,4130.769,4190.0,4145.897,4035.1279999999997,0,0
226,106,0,3153,4075.385,4132.308,4180.513,4176.538,4180.897,4203.59,4174.359,4210.897,4228.846,4136.282,4124.359,4182.821,4119.487,4028.59,0,0
227,107,0,3376,4035.897,4111.923,4168.462,4164.615,4175.128,4197.564,4158.077,4203.077,4227.692,4137.179,4109.487,4167.0509999999995,4158.718,3993.8459999999995,0,0
228,108,0,3227,3977.821,4086.026,4142.564,4133.077,4151.923,4189.872,4133.846,4184.615,4211.026,4114.231,4079.3590000000004,4148.846,4162.692,3935.0,0,0
229,109,0,1960,3975.7690000000002,4074.103,4139.359,4115.513,4151.026,4197.692,4144.103,4180.513,4211.026,4097.436,4069.2309999999998,4151.282,4147.9490000000005,3951.923,0,0
230,110,0,3153,4006.923,4085.7690000000002,4150.0,4140.641,4178.077,4206.795,4169.359,4190.128,4226.026,4113.462,4083.974,4162.179,4178.718,4001.282,0,0
231,111,0,3376,3980.513,4083.8459999999995,4137.0509999999995,4155.385,4176.795,4204.359,4170.513,4186.41,4223.59,4128.077,4083.8459999999995,4150.385,4192.9490000000005,3966.41,0,0
232,112,0,3227,3955.7690000000002,4068.974,4127.9490000000005,4145.0,4161.026,4202.179,4172.9490000000005,4178.462,4214.103,4121.667,4071.282,4138.077,4175.769,3950.385,0,0
233,113,0,1960,3989.8720000000003,4070.256,4148.077,4149.103,4168.462,4202.179,4188.974,4189.487,4215.255999999999,4113.333,4072.821,4153.333,4163.846,4018.974,0,0
234,114,0,3153,3986.667,4067.4359999999997,4155.255999999999,4157.436,4178.077,4205.769,4191.026,4200.769,4218.077,4109.231,4076.667,4160.255999999999,4157.821,4024.2309999999998,0,0
235,115,0,3376,3954.744,4062.821,4146.923,4155.0,4181.667,4218.59,4186.154,4203.718,4218.846,4108.846,4074.615,4151.41,4163.846,3982.821,0,0
236,116,0,3227,3978.205,4073.077,4159.487,4156.154,4185.641,4217.692,4187.0509999999995,4209.359,4218.59,4117.308,4079.103,4161.41,4174.103,4026.667,0,0
237,117,0,1960,4005.897,4076.923,4175.0,4157.821,4186.538,4201.667,4180.641,4209.103,4220.128,4128.462,4086.795,4175.385,4172.564,4083.077,0,0
238,118,0,3153,3987.5640000000003,4075.897,4167.9490000000005,4155.641,4184.615,4199.359,4163.718,4201.923,4227.436,4142.692,4092.949,4168.59,4195.255999999999,4069.615,0,0
239,119,0,3376,3977.692,4081.41,4156.41,4157.821,4178.077,4203.718,4155.0,4197.692,4230.897,4152.0509999999995,4093.718,4158.718,4229.615,4068.59,0,0
240,120,0,3227,3987.949,4073.974,4153.718,4158.718,4169.359,4195.513,4160.255999999999,4197.436,4220.128,4140.513,4084.487,4158.333,4201.41,4107.692,0,0
241,121,0,1960,3968.077,4057.821,4145.0,4150.0,4166.154,4199.872,4178.205,4197.0509999999995,4214.103,4122.436,4074.744,4151.923,4160.128,4118.333,0,0
242,122,0,3153,3944.8720000000003,4057.308,4137.564,4140.897,4166.923,4215.385,4201.41,4199.103,4218.59,4116.41,4073.462,4147.564,4175.0,4125.513,0,0
243,123,0,3376,3958.462,4062.4359999999997,4141.795,4140.128,4165.513,4208.59,4210.641,4206.41,4217.692,4113.974,4075.385,4154.615,4184.744000000001,4176.026,0,0
244,124,0,3227,3965.0,4054.3590000000004,4135.897,4139.744000000001,4158.718,4196.667,4206.667,4213.59,4215.385,4108.333,4072.179,4152.179,4153.974,4216.538,0,0
245,125,0,1960,3939.2309999999998,4043.333,4118.846,4134.231,4149.744000000001,4202.821,4204.487,4216.154,4219.231,4106.41,4063.8459999999995,4135.769,4146.154,4210.641,0,0
246,126,0,3153,3929.744,4047.179,4115.385,4133.846,4151.41,4204.103,4198.718,4212.436,4221.154,4111.154,4061.795,4132.9490000000005,4169.487,4222.308,0,0
247,127,0,53,3947.051,4058.8459999999995,4124.744000000001,4140.897,4162.436,4200.385,4191.282,4209.359,4217.821,4115.513,4069.2309999999998,4142.692,4168.333,4259.872,0,0
248,0,0,2492,3954.487,4062.051,4131.154,4142.564,4164.744000000001,4206.026,4195.128,4209.359,4215.897,4118.333,4073.077,4147.179,4166.41,4270.897,0,0
249,1,0,2847,3957.179,4059.3590000000004,4137.308,4143.59,4162.0509999999995,4205.897,4199.359,4211.923,4225.897,4127.9490000000005,4078.718,4152.436,4204.103,4263.718,0,0
250,2,0,3033,3956.1540000000005,4061.282,4141.538,4149.744000000001,4163.846,4199.487,4193.974,4214.487,4231.795,4137.692,4088.462,4156.923,4217.436,4249.872,0,0
251,3,0,3058,3950.897,4062.308,4137.564,4146.538,4161.667,4199.872,4190.385,4209.744000000001,4220.0,4127.9490000000005,4081.667,4150.769,4170.897,4235.0,0,0
252,4,0,3536,3954.103,4059.3590000000004,4139.615,4137.436,4153.974,4202.179,4190.513,4204.231,4213.846,4113.718,4071.1540000000005,4146.282,4151.026,4226.923,0,0
253,5,0,2138,3970.897,4066.026,4152.179,4145.897,4159.231,4204.872,4193.333,4207.0509999999995,4219.872,4125.897,4082.821,4155.0,4188.205,4228.462,0,0
254,6,0,2567,3983.718,4077.308,4158.59,4159.487,4170.255999999999,4203.077,4194.872,4211.923,4219.103,4149.744000000001,4096.923,4160.769,4215.385,4230.897,0,0
255,7,0,1824,3979.615,4077.4359999999997,4155.0,4157.0509999999995,4169.615,4199.231,4196.538,4214.103,4217.308,4157.821,4098.462,4154.872,4218.462,4217.0509999999995,0,0
256,8,0,1355,3977.821,4075.513,4152.692,4154.231,4169.744000000001,4201.667,4200.128,4213.462,4223.333,4152.0509999999995,4101.667,4150.0,4209.487,4202.0509999999995,0,0
257,9,0,3526,3987.179,4077.308,4156.538,4157.0509999999995,4171.154,4200.385,4192.821,4207.436,4222.179,4142.436,4104.615,4152.308,4187.692,4198.59,0,0
258,10,0,3133,3991.282,4076.923,4157.179,4155.769,4166.026,4203.462,4184.231,4201.795,4216.282,4138.846,4101.923,4158.077,4194.487,4187.564,0,0
259,11,0,3405,3991.41,4082.308,4154.615,4155.385,4168.59,4215.769,4189.872,4206.026,4217.179,4142.564,4099.487,4160.897,4216.41,4171.538,0,0
260,12,0,3245,3991.41,4079.615,4154.744000000001,4154.615,4173.974,4211.282,4192.692,4210.128,4218.974,4141.795,4097.692,4159.744000000001,4190.641,4165.641,0,0
261,13,0,1970,3989.744,4061.026,4157.564,4150.0,4164.615,4197.179,4186.026,4206.795,4216.282,4127.436,4092.692,4159.872,4152.692,4153.333,0,0
262,14,0,3133,3988.8459999999995,4061.538,4156.026,4151.154,4160.513,4198.846,4187.179,4200.769,4213.846,4114.359,4084.2309999999998,4160.0,4159.487,4131.667,0,0
263,15,0,3405,3982.4359999999997,4081.795,4151.667,4155.897,4165.255999999999,4203.333,4185.641,4196.923,4213.59,4116.41,4075.1279999999997,4152.436,4183.077,4119.231,0,0
264,16,0,0,3974.487,4081.282,4149.744000000001,4154.744000000001,4159.744000000001,4200.641,4177.179,4198.846,4209.872,4124.615,4073.59,4144.359,4183.59,4109.359,0,0
265,17,0,0,3966.538,4062.051,4143.718,4145.0,4150.513,4198.974,4175.641,4196.795,4204.103,4119.487,4072.4359999999997,4144.487,4178.205,4087.051,0,0
266,18,0,0,3962.821,4061.538,4137.692,4142.9490000000005,4157.692,4202.564,4179.487,4191.41,4207.0509999999995,4111.667,4070.0,4143.333,4183.205,4076.282,0,0
267,19,0,0,3968.8459999999995,4074.615,4142.179,4148.718,4161.41,4208.077,4183.333,4197.9490000000005,4214.872,4118.974,4075.385,4145.0,4182.9490000000005,4087.692,0,0
268,20,0,0,3967.949,4073.8459999999995,4146.538,4145.0,4154.359,4205.0,4183.462,4204.359,4215.513,4124.359,4076.026,4150.255999999999,4187.692,4080.1279999999997,0,0
269,21,0,0,3961.538,4062.308,4146.667,4135.513,4160.385,4196.41,4180.769,4199.103,4212.692,4125.385,4071.282,4152.564,4194.872,4060.0,0,0
270,22,0,0,3973.59,4064.487,4148.205,4141.795,4172.564,4199.103,4184.103,4199.744000000001,4215.385,4137.692,4082.051,4151.795,4193.333,4076.1540000000005,0,0
271,23,0,0,3985.513,4073.8459999999995,4145.513,4150.897,4172.436,4204.615,4186.154,4205.641,4217.9490000000005,4145.0,4093.333,4145.513,4184.103,4098.718,0,0
272,24,0,0,3975.256,4068.333,4138.718,4147.0509999999995,4167.308,4202.692,4181.538,4205.128,4216.282,4137.564,4084.3590000000004,4137.692,4174.487,4084.487,0,0
273,25,0,0,3971.026,4062.692,4140.128,4145.513,4166.667,4202.9490000000005,4182.9490000000005,4204.872,4218.59,4134.872,4078.462,4139.744000000001,4195.641,4071.1540000000005,0,0
274,26,0,0,3971.41,4062.4359999999997,4143.333,4144.359,4158.462,4203.718,4188.077,4202.564,4219.744000000001,4133.974,4082.5640000000003,4144.615,4216.667,4074.615,0,0
275,27,0,0,3958.8459999999995,4053.8459999999995,4139.103,4136.667,4148.333,4204.231,4187.9490000000005,4199.872,4213.205,4120.0,4075.6409999999996,4142.179,4184.103,4057.5640000000003,0,0
276,28,0,0,3954.615,4043.974,4134.615,4134.359,4149.744000000001,4204.872,4186.923,4197.436,4206.667,4107.821,4064.615,4141.154,4151.41,4034.2309999999998,0,0
277,29,0,0,3959.487,4046.667,4135.128,4136.923,4154.359,4199.615,4181.41,4189.872,4204.487,4110.255999999999,4067.051,4139.615,4160.641,4041.026,0,0
278,30,0,0,3959.8720000000003,4051.667,4133.59,4138.462,4155.0,4197.692,4175.513,4189.615,4203.333,4119.615,4072.051,4134.872,4161.538,4053.077,0,0
279,31,0,0,3956.1540000000005,4049.3590000000004,4125.255999999999,4135.897,4152.0509999999995,4199.231,4179.872,4197.821,4203.205,4122.436,4070.7690000000002,4131.282,4147.308,4039.3590000000004,0,0
280,32,0,0,3956.795,4052.692,4127.308,4132.692,4153.462,4198.205,4188.205,4198.718,4204.359,4119.615,4075.385,4133.077,4164.615,4031.795,0,0
281,33,0,0,3961.667,4053.974,4134.103,4133.846,4157.564,4198.462,4189.359,4197.436,4203.333,4118.077,4077.308,4134.872,4176.923,4044.615,0,0
282,34,0,0,3965.7690000000002,4048.077,4130.513,4139.231,4157.0509999999995,4202.0509999999995,4187.9490000000005,4202.692,4204.103,4119.231,4072.179,4134.103,4158.59,4047.051,0,0
283,35,0,0,3972.692,4057.5640000000003,4131.667,4140.128,4155.641,4203.462,4192.821,4203.077,4211.41,4129.615,4082.4359999999997,4136.282,4156.538,4049.103,0,0
284,36,0,0,3980.0,4071.795,4141.154,4139.359,4158.333,4200.641,4199.615,4200.641,4216.282,4138.718,4100.641,4141.667,4168.974,4060.513,0,0
285,37,0,0,3977.5640000000003,4062.821,4140.513,4140.513,4158.974,4198.974,4198.59,4201.154,4213.333,4135.255999999999,4097.0509999999995,4141.538,4174.487,4050.897,0,0
286,38,0,0,3969.2309999999998,4048.974,4134.231,4135.769,4154.872,4205.255999999999,4191.154,4199.487,4204.744000000001,4131.923,4084.615,4135.513,4168.846,4033.59,0,0
287,39,0,0,3969.8720000000003,4053.205,4137.179,4130.641,4153.974,4203.205,4187.564,4198.974,4201.282,4128.333,4086.282,4137.0509999999995,4165.128,4030.6409999999996,0,0
288,40,0,0,3974.487,4057.692,4140.128,4133.846,4155.513,4185.897,4185.128,4197.179,4211.282,4127.0509999999995,4091.41,4140.0,4194.872,4031.667,0,0
289,41,0,0,3977.179,4058.718,4141.41,4139.359,4157.564,4187.179,4183.077,4192.692,4217.692,4139.231,4091.282,4140.128,4228.205,4036.41,0,0
290,42,0,0,3987.692,4065.1279999999997,4144.359,4143.333,4160.513,4203.974,4185.0,4190.128,4208.077,4142.436,4094.2309999999998,4140.128,4204.615,4045.7690000000002,0,0
291,43,0,0,3988.333,4064.3590000000004,4143.846,4141.154,4158.077,4195.897,4183.333,4187.692,4198.333,4120.128,4090.6409999999996,4136.795,4145.385,4036.282,0,0
292,44,0,0,3977.949,4058.59,4140.769,4136.538,4154.231,4189.231,4183.077,4184.872,4200.128,4110.769,4077.051,4131.154,4132.179,4020.897,0,0
293,45,0,0,3980.1279999999997,4058.974,4139.231,4135.769,4156.667,4199.744000000001,4183.462,4186.154,4202.692,4122.436,4077.5640000000003,4134.615,4158.846,4024.615,0,0
294,46,0,0,3989.487,4061.923,4138.846,4136.026,4156.41,4191.923,4173.59,4187.436,4201.795,4120.769,4088.59,4138.974,4172.0509999999995,4029.2309999999998,0,0
295,47,0,0,3990.897,4063.205,4138.59,4135.385,4151.923,4180.0,4169.872,4186.026,4201.41,4119.872,4086.795,4136.026,4173.205,4028.333,0,0
296,48,0,0,3989.103,4064.487,4140.641,4137.308,4152.821,4187.692,4184.744000000001,4191.154,4199.487,4132.821,4082.5640000000003,4136.41,4165.513,4033.333,0,0
297,49,0,0,3990.6409999999996,4064.487,4141.41,4135.255999999999,4151.154,4191.923,4188.718,4199.487,4205.513,4137.436,4090.513,4139.872,4180.128,4034.2309999999998,0,0
298,50,0,0,3989.744,4061.538,4135.641,4125.641,4147.308,4186.026,4173.846,4199.231,4213.974,4129.615,4091.667,4135.897,4224.103,4024.615,0,0
299,51,0,0,3986.282,4058.8459999999995,4128.333,4122.308,4145.769,4181.154,4168.846,4190.769,4207.0509999999995,4116.923,4075.897,4131.538,4206.41,4017.051,0,0
300,52,0,0,3984.615,4055.385,4124.231,4125.0,4140.128,4182.564,4173.333,4186.795,4196.923,4107.179,4066.667,4128.846,4134.872,4018.8459999999995,0,0
301,53,0,0,3986.41,4055.513,4122.0509999999995,4124.359,4139.487,4192.564,4171.795,4190.255999999999,4200.0,4114.744000000001,4075.513,4128.333,4132.0509999999995,4020.897,0,0
302,54,0,0,3989.3590000000004,4060.0,4121.923,4123.205,4143.846,4194.872,4169.744000000001,4191.538,4204.231,4127.0509999999995,4085.513,4128.846,4182.692,4021.026,0,0
303,55,0,0,3990.256,4062.949,4125.641,4123.846,4140.0,4182.436,4168.205,4187.436,4201.667,4124.615,4082.4359999999997,4128.846,4186.667,4020.385,0,0
304,56,0,0,3991.026,4066.1540000000005,4127.308,4124.487,4137.179,4178.718,4168.462,4186.282,4201.538,4120.385,4081.282,4129.359,4166.41,4021.1540000000005,0,0
305,57,0,0,3987.692,4069.487,4124.103,4122.821,4138.718,4187.436,4171.538,4189.487,4202.9490000000005,4122.564,4085.385,4131.154,4165.255999999999,4019.103,0,0
306,58,0,0,3992.4359999999997,4071.923,4126.923,4122.9490000000005,4138.718,4183.205,4167.436,4189.744000000001,4201.026,4124.615,4087.692,4132.308,4169.487,4022.4359999999997,0,0
307,59,0,0,4008.59,4076.026,4132.436,4127.0509999999995,4143.974,4170.769,4154.744000000001,4187.692,4199.103,4130.0,4094.744,4134.615,4174.872,4034.103,0,0
308,60,0,0,4008.8459999999995,4074.487,4126.538,4125.128,4141.41,4175.641,4151.41,4186.667,4197.821,4123.205,4096.538,4136.923,4164.872,4032.5640000000003,0,0
309,61,0,0,4002.692,4070.256,4121.667,4121.41,4132.436,4186.154,4163.077,4186.667,4197.821,4112.179,4090.6409999999996,4134.487,4149.744000000001,4026.282,0,0
310,62,0,0,4016.282,4077.4359999999997,4133.846,4129.872,4144.744000000001,4184.231,4172.9490000000005,4188.846,4200.769,4128.333,4094.3590000000004,4136.538,4166.41,4034.3590000000004,0,0
311,63,0,0,4027.051,4082.4359999999997,4143.333,4138.846,4157.9490000000005,4182.436,4171.923,4190.255999999999,4203.974,4146.154,4100.769,4141.667,4197.0509999999995,4041.026,0,0
312,64,0,2502,4020.385,4076.282,4139.872,4136.923,4148.718,4187.9490000000005,4171.282,4187.9490000000005,4202.179,4133.974,4095.897,4140.0,4188.718,4035.256,0,0
313,65,0,2860,4019.744,4077.949,4139.103,4136.923,4144.487,4183.59,4173.462,4186.667,4198.205,4123.077,4092.051,4135.513,4165.513,4032.821,0,0
314,66,0,3037,4021.538,4083.718,4140.897,4141.282,4146.154,4175.128,4170.641,4187.436,4201.795,4132.564,4094.615,4134.487,4203.59,4031.667,0,0
315,67,0,3072,4015.256,4079.487,4140.128,4136.795,4139.615,4173.846,4166.667,4184.744000000001,4202.308,4134.231,4093.205,4135.0,4240.769,4023.205,0,0
316,68,0,3543,4011.026,4073.077,4137.821,4120.769,4133.59,4172.0509999999995,4162.308,4181.154,4188.974,4117.821,4084.3590000000004,4133.974,4177.0509999999995,4017.821,0,0
317,69,0,2140,4008.974,4072.949,4137.179,4107.0509999999995,4134.103,4175.641,4157.308,4180.385,4182.692,4105.255999999999,4076.795,4131.795,4108.462,4020.513,0,0
318,70,0,2564,4006.667,4071.1540000000005,4139.744000000001,4104.231,4134.744000000001,4181.282,4161.667,4181.282,4187.308,4107.179,4074.2309999999998,4131.154,4137.692,4022.949,0,0
319,71,0,1829,4013.462,4074.8720000000003,4143.974,4106.923,4138.846,4185.641,4169.872,4185.0,4186.538,4113.205,4080.897,4136.538,4184.615,4023.8459999999995,0,0
320,72,0,1360,4023.462,4087.4359999999997,4143.718,4108.077,4146.026,4189.359,4168.205,4186.41,4189.872,4110.0,4087.5640000000003,4141.667,4177.692,4026.1540000000005,0,0
321,73,0,3532,4018.333,4080.385,4140.641,4102.564,4142.9490000000005,4186.538,4165.769,4182.308,4195.897,4102.308,4078.8459999999995,4137.179,4167.564,4040.0,0,0
322,74,0,3137,4011.41,4064.2309999999998,4139.359,4095.7690000000002,4135.255999999999,4181.154,4169.872,4180.897,4189.359,4107.821,4073.974,4131.795,4170.385,4070.513,0,0
323,75,0,3410,4026.1540000000005,4074.3590000000004,4139.103,4098.462,4137.436,4181.795,4170.769,4184.103,4186.538,4122.821,4092.821,4134.487,4161.538,4108.59,0,0
324,76,0,3249,4044.103,4081.1540000000005,4138.718,4100.897,4140.897,4183.846,4169.359,4184.359,4194.103,4132.308,4114.872,4139.744000000001,4160.0,4184.615,0,0
325,77,0,1977,4045.7690000000002,4059.103,4140.897,4093.077,4133.846,4180.641,4169.872,4185.0,4196.026,4137.436,4122.9490000000005,4142.0509999999995,4176.538,4293.59,0,0
326,78,0,3137,4047.949,4050.6409999999996,4144.615,4091.538,4132.179,4181.41,4170.513,4188.205,4197.0509999999995,4146.41,4127.308,4144.103,4202.0509999999995,4336.667,0,0
327,79,0,3410,4052.692,4060.7690000000002,4143.077,4097.436,4139.103,4183.077,4177.0509999999995,4188.205,4202.436,4151.282,4128.718,4147.564,4233.462,4300.641,0,0
328,80,0,3249,4049.2309999999998,4058.462,4140.128,4097.821,4137.564,4182.308,4181.026,4186.538,4202.821,4145.0,4125.641,4148.077,4230.255999999999,4278.205,0,0
329,81,0,1977,4048.462,4054.8720000000003,4142.0509999999995,4098.077,4135.128,4185.513,4175.385,4186.923,4197.9490000000005,4136.154,4124.487,4148.846,4171.667,4237.821,0,0
330,82,0,3137,4050.256,4060.513,4142.692,4098.462,4136.41,4185.513,4173.59,4185.769,4194.744000000001,4136.795,4125.769,4150.128,4151.41,4136.026,0,0
331,83,0,3410,4045.1279999999997,4060.1279999999997,4139.487,4093.8459999999995,4137.0509999999995,4184.231,4183.462,4185.0,4195.897,4139.231,4126.282,4150.897,4183.974,4073.974,0,0
332,84,0,3249,4041.538,4055.0,4137.0509999999995,4089.8720000000003,4136.795,4185.897,4189.359,4191.282,4199.103,4136.154,4123.462,4150.641,4191.538,4075.513,0,0
333,85,0,1977,4044.3590000000004,4055.6409999999996,4142.9490000000005,4090.6409999999996,4138.205,4186.154,4182.436,4199.231,4200.128,4144.231,4126.795,4154.487,4198.59,4074.615,0,0
334,86,0,3137,4050.385,4059.744,4153.718,4096.154,4140.255999999999,4183.718,4176.41,4202.0509999999995,4201.282,4159.103,4139.487,4161.026,4208.846,4071.923,0,0
335,87,0,3410,4055.513,4060.513,4155.641,4098.974,4138.333,4182.179,4173.462,4196.795,4200.255999999999,4159.103,4142.564,4159.744000000001,4185.0,4078.333,0,0
336,88,0,3249,4049.2309999999998,4054.744,4143.718,4096.667,4132.564,4182.0509999999995,4170.0,4188.462,4199.615,4152.179,4131.154,4150.769,4187.436,4072.5640000000003,0,0
337,89,0,1977,4044.487,4053.205,4142.436,4099.487,4132.308,4181.923,4175.385,4187.0509999999995,4202.9490000000005,4156.154,4125.0,4144.744000000001,4226.282,4064.8720000000003,0,0
338,90,0,3137,4054.744,4061.41,4151.538,4107.0509999999995,4139.615,4183.462,4186.538,4190.385,4202.821,4158.333,4128.718,4150.513,4226.154,4067.5640000000003,0,0
339,91,0,3410,4061.923,4067.821,4147.564,4109.231,4142.436,4186.923,4189.487,4189.872,4197.0509999999995,4151.667,4132.0509999999995,4154.615,4192.436,4070.256,0,0
340,92,0,3249,4061.1540000000005,4069.744,4140.385,4108.205,4140.897,4190.897,4186.282,4188.077,4194.487,4147.436,4134.231,4153.205,4175.769,4071.1540000000005,0,0
341,93,0,1977,4062.5640000000003,4072.4359999999997,4142.821,4110.513,4140.513,4183.462,4188.718,4190.128,4199.487,4147.0509999999995,4136.41,4155.128,4208.077,4069.487,0,0
342,94,0,3137,4061.923,4075.256,4142.821,4111.282,4140.513,4173.333,4186.154,4190.128,4197.9490000000005,4141.923,4132.692,4156.154,4221.538,4064.8720000000003,0,0
343,95,0,3410,4065.385,4077.949,4140.0,4112.821,4145.513,4178.333,4175.128,4188.974,4186.923,4134.615,4124.872,4152.179,4157.821,4065.897,0,0
344,96,0,3249,4075.1279999999997,4085.6409999999996,4145.769,4118.077,4147.692,4179.231,4171.026,4187.436,4182.692,4132.179,4123.333,4149.872,4116.538,4067.949,0,0
345,97,0,1977,4073.205,4089.744,4150.0,4120.769,4146.282,4177.0509999999995,4172.692,4183.846,4187.692,4133.59,4123.462,4152.0509999999995,4166.667,4062.051,0,0
346,98,0,3137,4064.8720000000003,4086.41,4148.846,4122.564,4147.564,4181.923,4172.179,4184.103,4188.974,4138.846,4123.974,4153.333,4216.923,4058.205,0,0
347,99,0,3410,4065.256,4086.026,4148.333,4121.154,4144.744000000001,4179.744000000001,4170.385,4181.282,4184.359,4142.179,4127.179,4151.026,4197.9490000000005,4059.8720000000003,0,0
348,100,0,3249,4062.179,4087.051,4143.462,4114.231,4138.205,4171.41,4169.487,4173.077,4181.41,4134.103,4125.0,4150.255999999999,4159.615,4054.744,0,0
349,101,0,1977,4059.487,4082.308,4140.641,4111.667,4138.077,4171.795,4170.385,4175.255999999999,4185.0,4133.59,4123.59,4149.744000000001,4179.744000000001,4052.692,0,0
350,102,0,3137,4067.692,4083.8459999999995,4145.513,4120.0,4140.385,4174.359,4169.615,4182.564,4190.255999999999,4152.821,4133.846,4146.538,4235.513,4061.923,0,0
351,103,0,3410,4074.8720000000003,4093.718,4150.641,4124.615,4144.231,4176.154,4169.103,4180.897,4186.923,4154.872,4142.564,4149.487,4212.436,4067.5640000000003,0,0
352,104,0,3249,4070.6409999999996,4083.974,4153.462,4113.333,4147.9490000000005,4185.385,4177.564,4182.308,4183.462,4141.026,4140.0,4157.9490000000005,4161.026,4063.718,0,0
353,105,0,1977,4067.308,4073.974,4150.897,4107.0509999999995,4141.923,4185.641,4182.692,4188.205,4188.077,4138.462,4134.103,4155.255999999999,4181.923,4061.667,0,0
354,106,0,3137,4071.282,4101.795,4136.282,4117.692,4140.897,4173.462,4172.436,4180.641,4186.154,4131.026,4127.436,4142.564,4182.564,4058.077,0,0
355,107,0,3410,4074.615,4133.333,4128.077,4130.769,4153.333,4166.923,4167.308,4170.513,4178.718,4119.615,4117.436,4136.667,4142.179,4048.077,0,0
356,108,0,3249,4080.1279999999997,4138.59,4136.282,4137.436,4158.077,4175.385,4174.231,4171.667,4178.718,4121.282,4113.462,4138.077,4148.846,4045.256,0,0
357,109,0,1977,4085.385,4138.59,4143.077,4137.821,4152.0509999999995,4186.538,4175.255999999999,4174.744000000001,4182.436,4121.026,4118.077,4140.769,4172.179,4049.615,0,0
358,110,0,3137,4085.385,4143.333,4136.795,4134.231,4152.564,4178.846,4167.179,4173.846,4183.974,4124.744000000001,4122.436,4141.538,4178.077,4052.308,0,0
359,111,0,3410,4082.4359999999997,4141.923,4125.513,4127.9490000000005,4153.077,4166.667,4158.846,4171.923,4184.744000000001,4136.026,4119.615,4140.128,4203.718,4050.0,0,0
360,112,0,3249,4077.051,4137.179,4120.897,4125.255999999999,4148.077,4166.795,4156.026,4170.769,4183.718,4127.821,4116.538,4137.179,4206.795,4046.667,0,0
361,113,0,1977,4076.41,4136.667,4122.9490000000005,4129.103,4149.615,4172.308,4163.974,4171.667,4183.59,4120.255999999999,4120.897,4134.615,4172.692,4047.692,0,0
362,114,0,3137,4085.256,4146.026,4125.513,4137.692,4156.026,4172.436,4170.897,4174.359,4184.744000000001,4137.308,4123.846,4136.154,4161.923,4055.1279999999997,0,0
363,115,0,3410,4094.744,4157.0509999999995,4129.103,4142.0509999999995,4157.179,4166.923,4164.744000000001,4173.077,4182.692,4147.308,4121.41,4143.077,4168.333,4063.462,0,0
364,116,0,3249,4094.8720000000003,4153.205,4135.0,4143.59,4152.821,4164.744000000001,4160.641,4174.615,4181.154,4141.154,4125.897,4147.0509999999995,4171.795,4063.205,0,0
365,117,0,1977,4096.282,4153.462,4140.385,4154.231,4156.026,4169.359,4169.231,4184.487,4184.231,4142.564,4136.026,4146.538,4180.769,4065.513,0,0
366,118,0,3137,4096.282,4157.9490000000005,4139.231,4155.513,4158.077,4171.154,4173.462,4185.0,4185.128,4144.103,4131.41,4142.179,4191.538,4064.3590000000004,0,0
367,119,0,3410,4089.3590000000004,4148.077,4132.564,4139.744000000001,4147.564,4168.59,4168.462,4176.154,4182.564,4133.974,4117.179,4135.385,4202.564,4051.282,0,0
368,120,0,3249,4089.615,4142.821,4131.667,4135.513,4143.59,4169.615,4165.513,4178.59,4184.487,4126.923,4119.615,4136.154,4218.59,4048.974,0,0
369,121,0,1977,4098.205,4152.0509999999995,4140.0,4146.923,4150.513,4168.59,4168.846,4188.333,4184.487,4124.103,4125.255999999999,4141.282,4208.974,4060.256,0,0
370,122,0,3137,4099.744000000001,4157.564,4137.308,4148.718,4151.795,4164.231,4169.872,4182.9490000000005,4176.154,4115.769,4117.821,4140.641,4161.026,4060.7690000000002,0,0
371,123,0,3410,4091.538,4149.231,4125.769,4138.333,4144.103,4165.513,4164.615,4172.436,4169.487,4109.487,4114.359,4137.436,4125.513,4050.0,0,0
372,124,0,3249,4089.8720000000003,4141.667,4128.462,4136.026,4140.897,4169.872,4161.538,4176.538,4173.59,4116.667,4118.462,4139.231,4138.974,4047.949,0,0
373,125,0,1977,4095.385,4146.282,4134.615,4143.077,4146.282,4170.128,4164.744000000001,4183.205,4181.795,4127.436,4121.538,4140.769,4169.487,4051.667,0,0
374,126,0,3137,4095.0,4148.974,4132.821,4145.128,4148.846,4168.205,4169.615,4182.0509999999995,4184.872,4130.769,4122.9490000000005,4139.744000000001,4177.564,4046.923,0,0
375,127,0,53,4094.615,4143.974,4132.692,4143.333,4144.872,4168.077,4170.897,4181.282,4182.436,4125.769,4120.897,4138.59,4175.0,4044.2309999999998,0,0
376,0,0,2504,4101.795,4142.308,4139.359,4148.077,4139.359,4164.615,4170.641,4183.462,4181.667,4123.462,4119.487,4142.9490000000005,4197.308,4052.821,0,0
377,1,0,2860,4107.436,4150.769,4144.231,4154.744000000001,4142.692,4166.282,4170.641,4183.077,4186.41,4133.718,4125.128,4149.744000000001,4225.128,4060.385,0,0
378,2,0,3034,4106.795,4152.0509999999995,4143.846,4150.769,4150.641,4178.205,4171.282,4184.359,4184.872,4132.821,4124.103,4148.974,4192.821,4061.282,0,0
379,3,0,3071,4102.821,4141.795,4141.538,4141.923,4151.795,4178.333,4173.333,4181.795,4174.103,4114.872,4112.436,4142.436,4136.026,4057.179,0,0
380,4,0,3544,4096.538,4137.821,4137.564,4137.692,4151.282,4171.026,4174.487,4174.872,4173.718,4115.641,4114.615,4141.026,4145.0,4052.308,0,0
381,5,0,2148,4094.744,4142.692,4134.872,4137.692,4153.462,4176.026,4172.179,4177.308,4184.487,4129.615,4123.59,4141.538,4183.462,4050.385,0,0
382,6,0,2572,4099.744000000001,4148.974,4136.026,4142.821,4156.026,4173.974,4166.538,4181.538,4181.026,4125.897,4122.308,4141.667,4176.923,4053.8459999999995,0,0
383,7,0,1836,4109.487,4150.641,4141.154,4152.0509999999995,4155.641,4167.821,4167.821,4179.487,4174.103,4121.795,4126.667,4148.462,4169.103,4062.692,0,0
384,8,0,1369,4119.359,4153.205,4143.718,4154.872,4153.333,4178.333,4174.615,4180.641,4178.974,4134.487,4140.128,4155.769,4189.359,4073.205,0,0
385,9,0,3537,4122.692,4150.769,4141.923,4145.897,4147.564,4180.513,4171.026,4185.385,4177.564,4140.513,4141.41,4154.744000000001,4177.821,4076.282,0,0
386,10,0,3144,4121.41,4143.974,4142.436,4140.513,4140.128,4167.9490000000005,4165.513,4182.436,4170.255999999999,4132.564,4135.255999999999,4153.077,4153.462,4072.692,0,0
387,11,0,3420,4121.41,4142.0509999999995,4144.231,4142.308,4139.359,4166.795,4168.59,4174.231,4172.564,4122.821,4137.0509999999995,4152.308,4160.385,4071.923,0,0
388,12,0,3249,4121.282,4142.692,4143.846,4140.0,4144.744000000001,4168.718,4168.718,4171.923,4176.667,4124.359,4138.333,4147.0509999999995,4181.41,4072.5640000000003,0,0
389,13,0,1981,4121.41,4143.974,4142.436,4137.564,4151.41,4167.821,4164.872,4176.795,4172.821,4134.103,4137.436,4147.436,4190.513,4073.8459999999995,0,0
390,14,0,3144,4122.308,4144.487,4141.026,4139.744000000001,4153.846,4171.41,4165.513,4182.564,4173.462,4137.436,4138.718,4152.179,4189.359,4075.897,0,0
391,15,0,3420,4121.667,4144.615,4146.026,4145.769,4152.436,4170.897,4167.692,4184.744000000001,4183.333,4141.667,4141.538,4152.308,4200.385,4077.5640000000003,0,0
392,16,0,0,4122.436,4143.974,4156.026,4153.205,4150.0,4170.385,4170.513,4185.897,4184.615,4147.564,4144.487,4153.974,4207.821,4078.974,0,0
393,17,0,0,4124.231,4141.41,4159.359,4159.359,4143.718,4170.0,4170.769,4183.974,4172.564,4136.154,4136.026,4155.255999999999,4177.179,4074.3590000000004,0,0
394,18,0,0,4118.974,4137.308,4158.077,4162.0509999999995,4137.9490000000005,4167.564,4168.462,4182.179,4167.179,4121.923,4126.667,4153.718,4140.513,4070.6409999999996,0,0
395,19,0,0,4111.026,4136.795,4156.795,4166.41,4141.026,4174.103,4170.128,4180.0,4173.718,4130.385,4132.308,4153.846,4156.538,4071.41,0,0
396,20,0,0,4112.308,4139.359,4155.0,4172.692,4147.436,4177.308,4167.436,4175.897,4173.974,4141.667,4138.462,4153.077,4175.769,4064.2309999999998,0,0
397,21,0,0,4119.231,4139.872,4154.615,4172.0509999999995,4145.897,4166.923,4157.821,4174.231,4171.795,4139.487,4133.718,4151.667,4154.487,4057.692,0,0
398,22,0,0,4121.667,4140.255999999999,4156.41,4170.385,4143.462,4162.692,4156.026,4174.744000000001,4173.846,4137.821,4135.128,4151.282,4148.59,4064.615,0,0
399,23,0,0,4120.255999999999,4141.538,4154.744000000001,4175.897,4149.872,4169.103,4156.538,4173.333,4172.692,4137.308,4137.692,4146.795,4184.487,4068.333,0,0
400,24,0,0,4122.564,4141.667,4155.769,4184.615,4156.026,4170.641,4154.744000000001,4174.487,4171.667,4136.026,4132.9490000000005,4147.308,4205.641,4065.1279999999997,0,0
401,25,0,0,4126.923,4142.0509999999995,4160.128,4188.462,4156.282,4170.385,4161.795,4183.462,4173.846,4140.255999999999,4133.205,4156.538,4179.615,4070.1279999999997,0,0
402,26,0,0,4126.154,4143.974,4157.821,4181.41,4156.154,4172.692,4165.513,4183.846,4174.103,4143.462,4135.641,4153.718,4157.9490000000005,4076.1540000000005,0,0
403,27,0,0,4122.821,4142.436,4152.692,4173.974,4154.872,4168.462,4156.795,4173.59,4171.667,4139.231,4132.179,4142.692,4167.308,4072.821,0,0
404,28,0,0,4123.333,4138.59,4151.923,4177.308,4152.0509999999995,4166.154,4150.641,4173.205,4170.769,4136.282,4131.41,4143.59,4166.282,4070.1279999999997,0,0
405,29,0,0,4131.538,4147.564,4154.103,4185.641,4158.462,4178.205,4155.897,4184.231,4176.41,4149.615,4144.231,4149.487,4173.462,4080.897,0,0
406,30,0,0,4133.59,4156.538,4154.615,4185.255999999999,4162.821,4186.026,4164.359,4187.436,4180.513,4157.179,4149.615,4148.974,4191.282,4088.59,0,0
407,31,0,0,4126.795,4145.513,4153.333,4180.897,4157.821,4173.59,4165.897,4183.718,4180.0,4142.564,4139.359,4143.718,4173.718,4079.615,0,0
408,32,0,0,4130.128,4141.538,4153.718,4182.436,4158.59,4165.0,4161.026,4186.667,4183.077,4145.0,4144.744000000001,4148.974,4175.385,4079.744,0,0
409,33,0,0,4140.128,4155.641,4154.231,4184.359,4160.513,4170.513,4154.872,4187.179,4181.538,4161.41,4160.385,4155.128,4195.0,4095.256,0,0
410,34,0,0,4139.615,4153.462,4151.41,4183.846,4154.744000000001,4171.667,4153.59,4181.026,4175.513,4153.846,4154.872,4149.231,4171.41,4097.0509999999995,0,0
411,35,0,0,4135.897,4142.692,4152.308,4181.795,4153.974,4168.462,4157.692,4181.026,4182.692,4152.9490000000005,4147.692,4148.205,4197.179,4088.205,0,0
412,36,0,0,4140.641,4150.128,4163.333,4183.077,4160.255999999999,4172.308,4161.41,4184.872,4189.231,4170.255999999999,4155.385,4156.795,4241.538,4094.2309999999998,0,0
413,37,0,0,4141.41,4153.205,4165.0,4186.538,4158.333,4175.769,4158.846,4183.718,4177.0509999999995,4157.692,4150.385,4154.487,4178.205,4100.128,0,0
414,38,0,0,4137.308,4140.255999999999,4155.897,4178.974,4152.9490000000005,4172.0509999999995,4155.128,4181.026,4168.077,4132.821,4137.564,4145.255999999999,4124.359,4092.051,0,0
415,39,0,0,4135.128,4135.897,4153.462,4168.974,4153.333,4168.462,4158.333,4183.59,4175.255999999999,4139.872,4138.205,4147.308,4167.308,4087.4359999999997,0,0
416,40,0,0,4129.615,4141.282,4150.128,4169.872,4156.795,4170.769,4159.487,4186.026,4182.179,4154.487,4140.0,4146.154,4190.513,4090.385,0,0
417,41,0,0,4123.846,4137.564,4142.436,4172.564,4152.9490000000005,4171.667,4154.231,4184.615,4179.103,4150.128,4134.231,4138.333,4177.436,4089.487,0,0
418,42,0,0,4130.128,4135.897,4146.41,4174.744000000001,4149.103,4169.615,4154.359,4183.205,4177.436,4146.282,4137.564,4139.231,4187.436,4089.2309999999998,0,0
419,43,0,0,4140.128,4145.897,4155.641,4183.205,4161.923,4173.718,4161.795,4184.872,4182.9490000000005,4156.154,4148.846,4142.821,4189.103,4093.077,0,0
420,44,0,0,4138.205,4149.744000000001,4156.41,4187.9490000000005,4171.667,4176.154,4163.077,4187.0509999999995,4187.0509999999995,4168.718,4153.846,4141.538,4195.255999999999,4092.308,0,0
421,45,0,0,4137.436,4142.308,4157.308,4183.974,4161.667,4168.462,4154.359,4186.282,4185.641,4170.385,4153.59,4141.667,4218.462,4093.205,0,0
422,46,0,0,4142.9490000000005,4141.282,4157.564,4182.692,4156.667,4170.641,4153.846,4185.385,4179.872,4160.385,4148.077,4142.564,4205.0,4098.59,0,0
423,47,0,0,4139.615,4148.974,4160.641,4184.231,4167.436,4185.513,4161.923,4186.282,4176.795,4147.9490000000005,4139.872,4141.923,4156.154,4099.359,0,0
424,48,0,0,4140.255999999999,4153.077,4167.821,4183.718,4172.436,4186.026,4163.205,4186.41,4180.128,4151.795,4142.692,4142.179,4167.0509999999995,4102.821,0,0
425,49,0,0,4154.103,4154.744000000001,4163.333,4183.846,4165.255999999999,4173.59,4159.103,4186.923,4187.821,4170.0,4152.564,4142.436,4249.359,4109.872,0,0
426,50,0,0,4152.9490000000005,4155.255999999999,4155.513,4182.821,4160.769,4170.128,4156.538,4184.487,4183.205,4165.128,4146.538,4136.667,4241.795,4103.333,0,0
427,51,0,0,4136.795,4151.795,4153.846,4180.513,4162.9490000000005,4171.282,4156.41,4174.872,4169.231,4133.718,4128.718,4130.385,4141.923,4088.974,0,0
428,52,0,0,4137.179,4150.769,4152.692,4181.923,4167.821,4168.205,4160.0,4170.897,4165.0,4125.897,4128.718,4129.231,4132.692,4092.5640000000003,0,0
429,53,0,0,4147.308,4154.231,4160.769,4186.154,4168.846,4172.692,4166.538,4180.513,4173.333,4142.564,4138.846,4131.538,4193.077,4103.59,0,0
430,54,0,0,4145.0,4157.821,4168.974,4186.667,4167.9490000000005,4185.385,4171.41,4184.487,4175.769,4143.59,4135.513,4135.0,4191.282,4103.333,0,0
431,55,0,0,4140.897,4156.41,4162.436,4184.103,4170.128,4185.255999999999,4166.41,4174.103,4169.744000000001,4140.128,4128.846,4135.255999999999,4187.564,4100.641,0,0
432,56,0,0,4144.615,4157.179,4161.795,4184.359,4171.795,4172.692,4155.513,4167.9490000000005,4176.026,4154.359,4136.923,4136.923,4223.846,4105.769,0,0
433,57,0,0,4149.359,4164.872,4172.0509999999995,4186.41,4172.308,4167.0509999999995,4152.308,4175.513,4182.821,4166.026,4146.026,4141.538,4217.821,4114.487,0,0
434,58,0,0,4148.077,4167.564,4168.846,4185.769,4172.308,4171.026,4162.692,4180.641,4174.231,4160.0,4141.923,4139.615,4172.436,4117.821,0,0
435,59,0,0,4140.385,4160.255999999999,4155.385,4182.0509999999995,4171.538,4172.692,4167.179,4175.641,4175.513,4153.205,4138.205,4129.103,4174.103,4109.744000000001,0,0
436,60,0,0,4136.41,4154.615,4150.769,4180.513,4168.718,4165.769,4155.769,4170.897,4185.385,4156.282,4141.667,4128.974,4233.333,4100.769,0,0
437,61,0,0,4139.615,4158.077,4153.333,4183.077,4167.692,4166.538,4150.128,4170.769,4176.795,4151.795,4142.436,4138.974,4231.41,4105.0,0,0
438,62,0,0,4141.795,4160.255999999999,4157.0509999999995,4185.513,4171.41,4177.179,4155.0,4170.385,4163.846,4142.692,4140.897,4140.385,4160.0,4114.359,0,0
439,63,0,0,4139.872,4157.9490000000005,4153.077,4185.128,4171.667,4177.692,4155.128,4168.59,4168.59,4145.897,4142.436,4137.564,4152.692,4112.0509999999995,0,0
440,64,0,2508,4134.487,4158.333,4142.0509999999995,4179.103,4162.0509999999995,4167.436,4154.744000000001,4170.641,4171.667,4151.795,4142.692,4137.436,4200.897,4100.385,0,0
441,65,0,2861,4124.487,4150.513,4135.0,4169.744000000001,4150.255999999999,4160.255999999999,4153.205,4171.923,4165.385,4140.641,4136.538,4134.872,4194.872,4088.59,0,0
442,66,0,3032,4118.333,4136.538,4138.077,4167.821,4148.974,4162.0509999999995,4145.255999999999,4167.821,4164.615,4130.0,4131.41,4138.59,4163.205,4085.385,0,0
443,67,0,3069,4127.0509999999995,4139.231,4145.255999999999,4169.231,4153.333,4166.026,4146.795,4168.333,4169.744000000001,4143.205,4137.0509999999995,4147.0509999999995,4181.282,4094.103,0,0
444,68,0,3545,4135.897,4151.667,4146.154,4167.564,4150.897,4167.436,4155.128,4173.59,4169.872,4156.154,4147.692,4149.103,4199.487,4101.795,0,0
445,69,0,2150,4138.333,4154.231,4148.846,4174.359,4155.255999999999,4169.615,4151.923,4172.308,4171.154,4154.615,4154.103,4152.692,4200.769,4105.255999999999,0,0
446,70,0,2575,4147.692,4160.128,4160.641,4187.308,4168.462,4172.9490000000005,4149.744000000001,4170.0,4177.821,4159.615,4156.538,4162.692,4209.359,4115.255999999999,0,0
447,71,0,1836,4157.564,4171.026,4168.846,4190.128,4168.462,4166.923,4154.615,4172.9490000000005,4176.538,4170.255999999999,4158.846,4163.59,4217.308,4127.564,0,0
448,72,0,1378,4157.0509999999995,4171.154,4169.359,4187.179,4164.103,4159.103,4152.564,4171.923,4169.487,4168.205,4161.667,4160.128,4208.205,4130.641,0,0
449,73,0,3541,4154.231,4164.487,4165.897,4187.9490000000005,4166.538,4166.154,4151.538,4169.487,4169.872,4158.59,4157.821,4159.359,4190.385,4124.744000000001,0,0
450,74,0,3154,4155.641,4159.487,4158.333,4187.692,4160.513,4170.385,4156.41,4172.564,4169.615,4154.744000000001,4151.667,4155.641,4185.255999999999,4120.385,0,0
451,75,0,3415,4153.205,4156.154,4153.718,4183.59,4155.513,4167.821,4156.667,4172.9490000000005,4165.128,4147.9490000000005,4150.255999999999,4155.769,4183.462,4119.487,0,0
452,76,0,3249,4151.667,4153.718,4155.641,4182.0509999999995,4167.179,4172.0509999999995,4155.385,4170.385,4169.103,4145.385,4151.923,4158.462,4194.615,4121.41,0,0
453,77,0,1980,4149.359,4152.0509999999995,4152.9490000000005,4185.128,4168.59,4171.154,4156.795,4173.59,4173.59,4153.462,4153.846,4155.255999999999,4206.41,4119.103,0,0
454,78,0,3154,4140.0,4151.923,4147.564,4182.821,4154.487,4164.359,4155.769,4175.385,4168.59,4154.487,4153.462,4151.41,4181.667,4109.359,0,0
455,79,0,3415,4139.872,4150.255999999999,4150.897,4174.487,4152.564,4166.923,4155.641,4171.923,4167.821,4149.231,4151.667,4151.923,4166.795,4105.0,0,0
456,80,0,3249,4151.154,4145.385,4155.0,4172.9490000000005,4157.308,4166.538,4158.59,4172.436,4170.897,4150.513,4150.897,4154.231,4186.154,4112.692,0,0
457,81,0,1980,4155.513,4147.436,4158.846,4175.641,4157.0509999999995,4160.255999999999,4157.179,4174.744000000001,4170.385,4154.744000000001,4152.9490000000005,4160.0,4191.538,4120.897,0,0
458,82,0,3154,4151.154,4153.59,4165.513,4172.821,4155.128,4165.385,4151.923,4172.9490000000005,4169.487,4156.538,4152.692,4167.0509999999995,4186.538,4122.308,0,0
459,83,0,3415,4150.769,4148.077,4169.744000000001,4171.795,4154.103,4169.615,4151.154,4171.282,4168.462,4155.128,4154.359,4168.59,4192.0509999999995,4122.564,0,0
460,84,0,3249,4155.897,4143.205,4170.641,4173.974,4155.128,4161.667,4154.231,4172.692,4166.154,4148.846,4158.846,4165.385,4195.513,4118.846,0,0
461,85,0,1980,4153.205,4143.333,4165.385,4170.769,4151.795,4157.308,4155.769,4171.538,4167.308,4141.795,4147.9490000000005,4162.436,4189.744000000001,4108.59,0,0
462,86,0,3154,4146.923,4143.205,4156.538,4168.077,4144.744000000001,4164.359,4154.872,4170.128,4168.333,4140.385,4135.513,4161.282,4174.231,4104.231,0,0
463,87,0,3415,4148.718,4143.205,4153.974,4170.897,4144.231,4167.0509999999995,4152.308,4171.026,4164.615,4143.59,4145.0,4159.231,4168.718,4107.9490000000005,0,0
464,88,0,3249,4154.744000000001,4144.231,4156.667,4173.718,4153.205,4167.0509999999995,4153.462,4171.538,4164.744000000001,4151.667,4156.154,4156.026,4185.641,4109.615,0,0
465,89,0,1980,4153.205,4148.077,4155.255999999999,4171.41,4153.077,4169.103,4157.821,4171.795,4168.718,4154.231,4153.462,4155.385,4187.308,4106.795,0,0
466,90,0,3154,4150.897,4152.436,4157.9490000000005,4170.641,4144.359,4164.744000000001,4155.255999999999,4171.41,4168.974,4144.231,4151.282,4157.308,4166.282,4105.897,0,0
467,91,0,3415,4161.538,4155.641,4166.667,4179.872,4146.923,4161.667,4151.538,4171.154,4166.923,4142.179,4153.59,4160.0,4173.59,4113.718,0,0
468,92,0,3249,4167.179,4155.0,4168.974,4180.641,4151.538,4165.255999999999,4153.077,4173.333,4168.462,4153.077,4156.154,4162.692,4204.487,4124.231,0,0
469,93,0,1980,4158.718,4150.897,4166.538,4169.359,4148.333,4169.615,4152.308,4175.0,4170.513,4157.308,4159.103,4160.641,4205.513,4123.59,0,0
470,94,0,3154,4160.128,4153.974,4167.692,4174.103,4149.872,4168.205,4151.795,4170.769,4168.974,4155.128,4157.821,4162.308,4183.974,4120.255999999999,0,0
471,95,0,3415,4170.255999999999,4163.59,4171.795,4186.026,4156.282,4165.0,4151.667,4167.436,4167.179,4157.0509999999995,4154.359,4167.436,4180.128,4125.255999999999,0,0
472,96,0,3249,4162.564,4158.077,4170.897,4177.308,4149.359,4163.462,4142.179,4169.487,4165.0,4152.821,4149.872,4161.026,4184.103,4121.538,0,0
473,97,0,1980,4147.692,4142.9490000000005,4161.667,4166.282,4138.333,4158.846,4132.692,4166.667,4160.128,4144.487,4146.538,4152.9490000000005,4173.846,4106.282,0,0
474,98,0,3154,4149.872,4145.255999999999,4157.436,4170.385,4139.744000000001,4155.769,4135.128,4161.538,4155.897,4144.487,4145.385,4155.513,4168.59,4103.333,0,0
475,99,0,3415,4158.718,4154.487,4166.282,4172.564,4141.923,4154.615,4138.077,4165.641,4157.9490000000005,4144.103,4146.026,4160.513,4167.179,4115.897,0,0
476,100,0,3249,4159.615,4154.231,4169.872,4169.359,4138.846,4155.641,4137.821,4169.103,4159.359,4137.179,4147.821,4157.9490000000005,4155.128,4121.154,0,0
477,101,0,1980,4156.154,4153.59,4164.744000000001,4169.872,4138.462,4161.282,4138.077,4160.641,4156.41,4135.513,4151.667,4153.333,4156.923,4115.0,0,0
478,102,0,3154,4160.255999999999,4156.923,4167.564,4173.333,4148.462,4169.872,4139.872,4161.026,4157.692,4143.205,4153.205,4151.667,4175.255999999999,4119.231,0,0
479,103,0,3415,4166.41,4160.128,4167.9490000000005,4173.205,4150.769,4168.077,4145.0,4166.667,4158.846,4145.0,4145.255999999999,4150.769,4177.821,4122.692,0,0
480,104,0,3249,4159.615,4157.308,4156.026,4169.872,4140.385,4157.821,4148.718,4161.795,4155.0,4137.0509999999995,4135.897,4147.308,4170.255999999999,4110.769,0,0
481,105,0,1980,4149.103,4146.41,4149.103,4164.487,4135.0,4153.846,4143.718,4160.128,4152.436,4127.564,4133.718,4145.385,4170.897,4101.795,0,0
482,106,0,3154,4150.641,4144.359,4153.462,4160.128,4137.179,4152.179,4137.9490000000005,4167.821,4155.897,4128.59,4137.821,4149.615,4183.077,4106.923,0,0
483,107,0,3415,4153.974,4150.897,4154.487,4159.231,4138.077,4157.0509999999995,4141.026,4168.59,4157.564,4138.846,4141.41,4153.59,4191.667,4109.487,0,0
484,108,0,3249,4151.154,4150.641,4150.513,4157.0509999999995,4134.487,4168.462,4143.077,4164.359,4155.769,4137.179,4145.255999999999,4149.744000000001,4173.846,4106.282,0,0
485,109,0,1980,4153.077,4149.103,4152.436,4156.795,4132.564,4167.436,4140.513,4168.462,4156.282,4134.359,4151.282,4148.718,4155.769,4107.308,0,0
486,110,0,3154,4157.564,4153.205,4156.026,4162.564,4133.205,4156.026,4140.897,4171.026,4158.077,4147.308,4151.41,4154.487,4162.308,4112.9490000000005,0,0
487,111,0,3415,4158.718,4154.103,4154.744000000001,4163.59,4133.077,4154.487,4141.923,4169.872,4157.564,4154.487,4152.821,4157.692,4175.641,4119.872,0,0
488,112,0,3249,4156.026,4147.179,4153.205,4155.641,4131.923,4161.026,4141.538,4166.282,4155.0,4142.436,4154.487,4152.821,4172.9490000000005,4119.487,0,0
489,113,0,1980,4155.385,4142.436,4153.974,4153.718,4134.103,4158.205,4139.744000000001,4159.103,4154.744000000001,4136.41,4150.255999999999,4148.205,4168.718,4111.667,0,0
490,114,0,3154,4155.385,4145.255999999999,4151.538,4158.59,4138.077,4152.692,4140.0,4158.077,4156.026,4139.744000000001,4149.103,4149.231,4177.308,4106.154,0,0
491,115,0,3415,4153.59,4150.128,4150.255999999999,4160.0,4137.692,4154.103,4140.128,4158.846,4155.0,4135.769,4153.205,4152.0509999999995,4179.744000000001,4107.692,0,0
492,116,0,3249,4157.436,4152.9490000000005,4160.641,4165.769,4137.436,4157.564,4142.821,4156.923,4152.821,4137.821,4154.744000000001,4155.769,4178.077,4116.282,0,0
493,117,0,1980,4169.103,4157.0509999999995,4171.667,4172.564,4142.179,4158.077,4146.795,4162.0509999999995,4154.615,4151.41,4155.769,4162.692,4189.103,4125.897,0,0
494,118,0,3154,4174.231,4158.333,4172.564,4171.026,4143.205,4156.154,4144.744000000001,4166.795,4158.846,4154.744000000001,4159.359,4165.769,4189.359,4127.436,0,0
495,119,0,3415,4167.0509999999995,4153.59,4169.615,4168.205,4136.41,4153.846,4143.718,4161.154,4159.359,4146.282,4155.641,4161.538,4165.769,4122.0509999999995,0,0
496,120,0,3249,4167.692,4157.179,4172.179,4170.769,4138.974,4153.718,4151.282,4163.077,4160.0,4152.0509999999995,4154.615,4160.641,4167.308,4123.974,0,0
497,121,0,1980,4177.0509999999995,4164.359,4174.359,4173.205,4151.538,4156.282,4158.59,4171.538,4160.128,4165.385,4164.744000000001,4161.282,4187.9490000000005,4131.154,0,0
498,122,0,3154,4172.436,4158.718,4164.744000000001,4165.769,4148.205,4154.744000000001,4150.897,4168.333,4156.923,4154.103,4162.308,4154.615,4176.41,4125.897,0,0
499,123,0,3415,4162.821,4149.744000000001,4154.744000000001,4157.9490000000005,4134.103,4153.205,4142.821,4164.103,4158.846,4141.795,4150.769,4151.923,4172.308,4114.615,0,0
500,124,0,3249,4166.538,4151.795,4157.179,4157.308,4135.128,4155.0,4146.923,4166.41,4165.0,4153.718,4156.41,4156.923,4199.487,4118.077,0,0
501,125,0,1980,4173.205,4157.308,4165.385,4161.026,4146.795,4153.462,4153.846,4168.077,4163.462,4163.205,4169.872,4158.205,4204.103,4127.692,0,0
502,126,0,3154,4170.769,4156.026,4169.103,4165.513,4147.9490000000005,4152.308,4156.795,4167.821,4156.667,4156.154,4166.154,4156.282,4173.077,4124.487,0,0
503,127,0,53,4169.744000000001,4155.0,4168.077,4167.0509999999995,4143.59,4152.9490000000005,4150.641,4166.795,4155.128,4152.564,4158.59,4155.0,4170.385,4120.385,0,0
504,0,0,2502,4174.487,4163.846,4168.59,4167.9490000000005,4144.103,4152.9490000000005,4140.897,4165.128,4156.795,4156.795,4164.487,4158.205,4194.487,4126.795,0,0
505,1,0,2861,4181.154,4171.41,4170.769,4169.359,4147.9490000000005,4153.205,4142.436,4166.026,4161.795,4158.59,4171.41,4163.077,4196.667,4130.897,0,0
506,2,0,3026,4179.615,4162.9490000000005,4169.872,4168.333,4146.41,4153.974,4153.077,4168.718,4165.769,4157.821,4166.282,4157.436,4178.846,4124.487,0,0
507,3,0,3064,4177.564,4162.821,4168.205,4169.103,4146.667,4154.231,4151.538,4164.103,4158.718,4154.744000000001,4157.564,4151.923,4165.385,4126.795,0,0
508,4,0,3544,4182.692,4178.59,4170.128,4174.744000000001,4153.205,4152.308,4142.436,4158.974,4152.821,4150.897,4157.179,4157.692,4171.026,4136.795,0,0
509,5,0,2150,4179.359,4177.564,4171.923,4175.513,4153.462,4152.0509999999995,4144.359,4165.0,4161.538,4150.641,4156.154,4158.974,4190.385,4129.103,0,0
510,6,0,2572,4167.821,4166.41,4171.41,4171.923,4153.462,4159.487,4153.077,4172.0509999999995,4170.255999999999,4157.179,4154.872,4154.744000000001,4208.974,4117.308,0,0
511,7,0,1836,4168.59,4170.128,4171.923,4172.692,4158.462,4165.769,4164.615,4170.0,4170.0,4162.692,4161.41,4158.718,4205.769,4122.564,0,0
512,8,0,1377,4177.308,4174.872,4173.974,4174.615,4160.641,4161.026,4168.333,4167.9490000000005,4166.538,4159.103,4165.897,4162.308,4184.359,4127.692,0,0
513,9,0,3538,4173.718,4167.9490000000005,4173.846,4172.179,4153.846,4152.9490000000005,4157.179,4165.769,4159.359,4147.436,4158.59,4160.128,4169.103,4122.179,0,0
514,10,0,3155,4167.821,4167.436,4171.923,4167.308,4149.487,4155.128,4148.333,4162.564,4158.846,4145.513,4153.974,4157.308,4171.538,4120.385,0,0
515,11,0,3415,4168.462,4167.436,4168.462,4167.308,4153.846,4162.821,4152.308,4165.641,4164.103,4154.359,4156.667,4155.255999999999,4182.692,4119.615,0,0
516,12,0,3250,4167.0509999999995,4158.59,4162.821,4168.59,4154.872,4160.385,4153.718,4167.692,4157.692,4155.0,4154.487,4153.077,4185.385,4114.615,0,0
517,13,0,1975,4166.667,4157.0509999999995,4162.179,4166.795,4151.923,4150.128,4148.59,4166.667,4152.179,4149.359,4151.667,4156.154,4184.231,4119.103,0,0
518,14,0,3155,4170.255999999999,4166.41,4168.846,4167.821,4151.667,4147.564,4151.538,4170.255999999999,4162.179,4153.974,4158.333,4161.026,4186.026,4131.795,0,0
519,15,0,3415,4173.462,4169.231,4172.308,4166.923,4155.0,4156.282,4155.897,4171.923,4166.154,4163.333,4167.692,4160.513,4192.0509999999995,4134.359,0,0
520,16,0,0,4171.923,4160.513,4163.462,4158.462,4154.359,4159.231,4155.0,4168.846,4161.41,4159.615,4164.872,4155.513,4188.205,4128.718,0,0
521,17,0,0,4168.974,4155.641,4158.974,4155.385,4151.41,4156.026,4158.333,4170.385,4164.744000000001,4157.436,4156.667,4152.436,4182.179,4126.026,0,0
522,18,0,0,4169.487,4160.641,4162.564,4159.359,4152.692,4157.692,4168.077,4174.103,4168.333,4167.308,4160.769,4156.026,4211.667,4127.179,0,0
523,19,0,0,4172.0509999999995,4162.821,4161.282,4157.0509999999995,4155.128,4159.487,4170.0,4173.718,4169.103,4168.846,4165.513,4157.0509999999995,4239.487,4128.333,0,0
524,20,0,0,4166.923,4156.923,4157.179,4153.077,4153.077,4158.333,4160.0,4172.9490000000005,4164.359,4157.308,4155.513,4151.667,4209.487,4125.769,0,0
525,21,0,0,4160.255999999999,4153.462,4159.872,4153.077,4148.462,4153.077,4152.564,4173.205,4154.872,4149.487,4147.564,4147.0509999999995,4163.333,4120.769,0,0
526,22,0,0,4164.872,4157.179,4167.179,4156.026,4153.333,4154.487,4156.795,4172.308,4158.462,4152.692,4152.564,4151.026,4166.154,4121.154,0,0
527,23,0,0,4171.538,4162.436,4171.667,4161.923,4162.692,4167.9490000000005,4167.436,4171.282,4170.128,4160.513,4158.333,4158.462,4200.0,4131.282,0,0
528,24,0,0,4171.923,4162.0509999999995,4170.641,4161.923,4160.513,4171.154,4172.692,4171.795,4169.487,4161.795,4158.59,4160.769,4216.282,4136.026,0,0
529,25,0,0,4170.641,4156.538,4165.0,4155.641,4153.462,4155.897,4162.564,4169.487,4161.795,4154.615,4153.846,4158.59,4210.0,4128.718,0,0
530,26,0,0,4168.59,4153.59,4162.0509999999995,4153.59,4151.282,4151.795,4155.128,4166.154,4158.077,4150.769,4146.154,4152.821,4187.821,4121.795,0,0
531,27,0,0,4166.026,4153.59,4162.564,4154.744000000001,4152.564,4166.026,4165.385,4167.308,4155.641,4152.692,4137.9490000000005,4144.615,4168.974,4120.128,0,0
532,28,0,0,4166.538,4157.0509999999995,4164.359,4158.846,4157.9490000000005,4170.513,4170.641,4167.308,4156.667,4152.308,4135.897,4144.872,4178.333,4121.538,0,0
533,29,0,0,4171.282,4166.026,4170.385,4168.718,4170.385,4165.0,4165.513,4169.615,4160.769,4153.974,4148.333,4155.513,4204.615,4130.0,0,0
534,30,0,0,4170.641,4166.154,4173.205,4170.897,4170.641,4168.333,4167.0509999999995,4169.359,4157.9490000000005,4154.487,4155.128,4157.564,4204.872,4135.255999999999,0,0
535,31,0,0,4161.282,4155.0,4169.359,4159.615,4156.026,4173.718,4167.436,4159.744000000001,4152.436,4145.769,4141.538,4148.462,4179.103,4125.897,0,0
536,32,0,0,4154.231,4152.564,4167.9490000000005,4153.333,4152.0509999999995,4165.255999999999,4158.462,4157.564,4151.923,4138.462,4134.615,4147.692,4170.128,4120.385,0,0
537,33,0,0,4156.667,4156.41,4170.255999999999,4158.718,4156.923,4152.692,4154.103,4165.769,4153.718,4140.128,4140.128,4150.255999999999,4185.897,4123.205,0,0
538,34,0,0,4163.846,4158.462,4168.974,4166.538,4155.255999999999,4156.282,4160.0,4168.333,4159.487,4151.667,4141.795,4149.103,4198.846,4125.385,0,0
539,35,0,0,4168.718,4165.128,4170.255999999999,4169.872,4158.59,4166.538,4166.795,4167.821,4166.923,4168.077,4147.564,4152.9490000000005,4190.641,4132.821,0,0
540,36,0,0,4168.718,4169.744000000001,4173.077,4168.59,4164.103,4167.564,4171.282,4171.667,4168.205,4171.41,4155.897,4158.59,4180.0,4138.205,0,0
541,37,0,0,4168.205,4165.769,4172.692,4168.718,4159.359,4166.795,4172.692,4173.205,4166.154,4166.667,4154.744000000001,4160.128,4199.359,4135.0,0,0
542,38,0,0,4172.692,4165.385,4173.462,4171.154,4159.615,4168.333,4173.077,4172.308,4167.564,4173.333,4155.897,4158.718,4215.641,4135.897,0,0
543,39,0,0,4168.974,4167.436,4169.872,4169.231,4165.513,4167.0509999999995,4171.667,4173.462,4168.59,4178.846,4160.641,4156.026,4197.692,4135.769,0,0
544,40,0,0,4157.436,4165.769,4159.231,4163.333,4161.154,4166.154,4166.667,4172.564,4168.333,4172.564,4157.179,4150.897,4205.641,4128.59,0,0
545,41,0,0,4156.667,4164.231,4153.59,4162.821,4154.103,4167.179,4167.692,4172.436,4169.487,4169.103,4153.462,4150.0,4236.923,4126.154,0,0
546,42,0,0,4167.821,4167.564,4155.769,4165.255999999999,4155.897,4167.436,4172.821,4173.205,4167.308,4169.744000000001,4158.077,4152.436,4210.0,4136.41,0,0
547,43,0,0,4185.897,4182.9490000000005,4160.128,4167.308,4159.872,4167.179,4171.282,4169.872,4165.128,4168.205,4167.0509999999995,4153.846,4166.667,4153.974,0,0
548,44,0,0,4210.255999999999,4206.026,4167.0509999999995,4174.744000000001,4165.769,4166.154,4166.923,4167.564,4169.103,4175.769,4179.487,4158.077,4204.231,4178.974,0,0
549,45,0,0,4237.821,4225.769,4175.0,4184.487,4171.41,4166.026,4170.128,4169.359,4171.154,4190.255999999999,4190.255999999999,4165.0,4242.692,4210.769,0,0
550,46,0,0,4266.026,4247.0509999999995,4180.128,4194.231,4166.923,4167.0509999999995,4172.9490000000005,4170.0,4167.821,4185.255999999999,4198.974,4171.923,4191.795,4246.154,0,0
551,47,0,0,4295.128,4275.769,4189.359,4209.615,4167.692,4169.872,4170.641,4169.103,4168.205,4177.179,4210.513,4178.205,4163.077,4278.846,0,0
552,48,0,0,4318.077,4300.769,4200.513,4221.41,4180.255999999999,4172.564,4173.077,4171.026,4171.923,4193.974,4221.538,4186.795,4206.538,4298.974,0,0
553,49,0,0,4320.641,4309.231,4204.103,4221.667,4187.692,4171.154,4176.154,4172.821,4171.026,4201.795,4226.41,4191.282,4218.974,4302.436,0,0
554,50,0,0,4307.9490000000005,4304.872,4199.359,4221.282,4186.154,4167.436,4172.0509999999995,4170.897,4167.564,4177.692,4218.205,4186.026,4180.769,4292.179,0,0
555,51,0,0,4294.103,4297.308,4191.538,4217.564,4182.0509999999995,4166.282,4168.333,4169.615,4167.308,4168.462,4203.846,4180.128,4178.077,4274.615,0,0
556,52,0,0,4281.923,4283.077,4187.0509999999995,4205.769,4176.667,4168.205,4168.59,4169.103,4169.487,4186.41,4200.385,4177.179,4205.897,4258.846,0,0
557,53,0,0,4264.231,4258.718,4185.769,4198.462,4169.615,4169.103,4170.0,4168.205,4169.487,4190.255999999999,4204.103,4173.462,4199.231,4245.128,0,0
558,54,0,0,4244.487,4238.59,4183.718,4193.59,4171.154,4167.308,4170.769,4170.897,4166.795,4180.513,4195.385,4170.385,4180.641,4228.59,0,0
559,55,0,0,4233.077,4227.308,4177.9490000000005,4187.821,4177.308,4167.436,4169.103,4172.0509999999995,4166.154,4179.487,4182.179,4167.821,4180.513,4209.744000000001,0,0
560,56,0,0,4227.0509999999995,4217.692,4175.513,4188.077,4175.897,4170.255999999999,4168.846,4170.385,4170.255999999999,4185.0,4183.718,4167.0509999999995,4197.564,4200.513,0,0
561,57,0,0,4221.538,4210.641,4175.385,4190.897,4172.9490000000005,4169.103,4171.667,4171.667,4172.564,4185.255999999999,4190.769,4167.0509999999995,4213.718,4196.795,0,0
562,58,0,0,4214.359,4206.41,4172.436,4188.462,4172.308,4165.641,4169.231,4172.564,4169.103,4173.59,4187.0509999999995,4164.487,4203.718,4189.744000000001,0,0
563,59,0,0,4203.846,4197.308,4169.615,4183.846,4169.487,4163.846,4163.718,4168.077,4166.282,4166.923,4178.59,4158.077,4190.128,4180.769,0,0
564,60,0,0,4195.255999999999,4186.41,4167.179,4180.128,4167.436,4165.641,4165.641,4166.41,4168.59,4177.0509999999995,4178.718,4158.718,4206.41,4173.205,0,0
565,61,0,0,4197.821,4184.231,4171.282,4181.923,4171.667,4171.026,4172.692,4172.179,4172.308,4188.718,4187.0509999999995,4165.255999999999,4217.821,4175.769,0,0
566,62,0,0,4202.436,4187.0509999999995,4179.487,4186.154,4175.0,4166.923,4174.615,4174.487,4172.436,4186.667,4190.385,4168.59,4189.615,4182.692,0,0
567,63,0,0,4194.231,4184.103,4178.974,4181.538,4171.667,4157.0509999999995,4169.872,4172.0509999999995,4170.385,4176.667,4184.872,4165.128,4178.205,4177.564,0,0
568,64,0,2502,4186.667,4174.359,4170.255999999999,4172.821,4168.462,4160.513,4167.436,4171.923,4169.615,4173.077,4182.692,4161.026,4197.9490000000005,4164.359,0,0
569,65,0,2860,4188.59,4170.385,4168.846,4172.692,4169.872,4172.179,4173.462,4174.872,4168.718,4178.077,4185.385,4161.026,4192.692,4157.436,0,0
570,66,0,3026,4188.718,4173.333,4171.41,4176.41,4171.667,4172.308,4176.154,4178.974,4169.231,4183.077,4185.128,4163.974,4184.103,4157.564,0,0
571,67,0,3064,4186.667,4172.179,4169.359,4174.872,4165.385,4166.667,4172.308,4181.795,4172.564,4183.59,4180.769,4164.615,4200.385,4154.872,0,0
572,68,0,3546,4182.821,4168.462,4168.462,4171.538,4161.667,4168.462,4178.718,4185.128,4173.59,4183.462,4175.385,4160.255999999999,4206.795,4146.282,0,0
573,69,0,2150,4175.255999999999,4166.41,4169.231,4170.255999999999,4167.821,4172.436,4186.923,4185.513,4172.0509999999995,4183.462,4170.385,4156.923,4210.128,4139.487,0,0
574,70,0,2570,4170.128,4167.308,4169.615,4170.385,4170.897,4168.59,4178.718,4178.718,4171.795,4185.0,4169.231,4158.846,4231.538,4140.128,0,0
575,71,0,1836,4171.923,4169.103,4170.385,4170.641,4168.333,4167.0509999999995,4167.436,4171.154,4171.154,4178.077,4170.769,4162.0509999999995,4209.359,4141.282,0,0
576,72,0,1376,4173.333,4168.462,4168.718,4168.59,4168.333,4176.154,4169.359,4174.744000000001,4168.974,4168.077,4171.282,4158.59,4160.255999999999,4141.41,0,0
577,73,0,3534,4173.974,4166.154,4167.179,4166.41,4168.205,4176.538,4171.026,4182.179,4170.513,4175.641,4176.026,4155.769,4179.231,4142.564,0,0
578,74,0,3146,4174.744000000001,4168.205,4168.718,4168.205,4168.077,4165.641,4165.897,4177.821,4172.179,4191.154,4183.59,4158.205,4230.0,4141.282,0,0
579,75,0,3413,4171.154,4167.179,4170.641,4169.231,4167.179,4165.385,4166.795,4170.897,4168.718,4185.255999999999,4181.026,4156.026,4219.615,4137.692,0,0
580,76,0,3248,4168.462,4161.41,4169.744000000001,4167.564,4164.103,4169.744000000001,4172.0509999999995,4171.923,4166.538,4168.205,4171.41,4152.179,4178.333,4136.282,0,0
581,77,0,1976,4173.462,4163.59,4171.282,4169.231,4164.615,4168.077,4173.462,4173.846,4168.462,4166.026,4168.205,4155.385,4167.436,4135.513,0,0
582,78,0,3146,4182.564,4171.154,4180.128,4172.179,4167.692,4170.641,4173.077,4170.769,4169.615,4171.538,4173.846,4160.128,4177.308,4136.923,0,0
583,79,0,3413,4187.9490000000005,4173.205,4187.9490000000005,4173.205,4170.769,4173.59,4173.333,4169.487,4169.487,4172.9490000000005,4181.795,4164.615,4193.205,4147.564,0,0
584,80,0,3248,4186.538,4170.897,4186.923,4172.692,4170.513,4166.923,4171.538,4172.564,4169.744000000001,4178.333,4187.564,4167.308,4208.205,4157.308,0,0
585,81,0,1976,4186.026,4168.205,4184.103,4170.769,4166.154,4164.872,4169.231,4172.564,4170.255999999999,4182.0509999999995,4183.59,4165.385,4199.103,4151.026,0,0
586,82,0,3146,4184.103,4168.718,4181.154,4172.821,4167.821,4169.103,4169.487,4171.154,4171.026,4178.333,4175.769,4164.103,4188.718,4141.154,0,0
587,83,0,3413,4175.128,4167.179,4173.846,4172.179,4173.333,4168.333,4171.282,4170.769,4170.385,4178.974,4171.026,4161.667,4201.41,4141.154,0,0
588,84,0,3248,4166.538,4157.0509999999995,4169.231,4160.769,4167.179,4166.282,4169.872,4171.282,4168.59,4183.333,4161.795,4155.513,4193.974,4134.103,0,0
589,85,0,1976,4166.538,4150.897,4170.0,4156.795,4155.769,4166.282,4161.026,4171.154,4168.077,4178.462,4154.231,4154.103,4168.462,4121.538,0,0
590,86,0,3146,4168.846,4155.641,4170.0,4166.282,4155.897,4168.974,4158.205,4171.41,4169.872,4172.9490000000005,4159.615,4156.41,4180.769,4126.538,0,0
591,87,0,3413,4166.923,4159.744000000001,4174.487,4169.615,4164.231,4168.205,4167.9490000000005,4170.769,4173.333,4176.41,4166.282,4158.718,4206.282,4136.923,0,0
592,88,0,3248,4173.333,4164.231,4184.359,4167.0509999999995,4170.0,4159.359,4167.821,4170.897,4175.769,4185.255999999999,4172.821,4166.795,4204.872,4139.615,0,0
593,89,0,1976,4182.308,4171.154,4186.41,4168.846,4170.128,4155.128,4154.231,4172.308,4172.692,4188.974,4181.795,4172.564,4188.333,4142.564,0,0
594,90,0,3146,4176.154,4166.923,4183.59,4167.9490000000005,4167.308,4164.359,4150.385,4168.462,4167.9490000000005,4178.205,4178.462,4167.692,4170.255999999999,4141.667,0,0
595,91,0,3413,4168.846,4157.0509999999995,4183.59,4164.872,4166.795,4172.179,4159.487,4165.0,4167.9490000000005,4166.154,4166.795,4159.744000000001,4174.359,4135.0,0,0
596,92,0,3248,4173.59,4155.769,4182.308,4168.333,4169.359,4169.487,4167.564,4168.974,4169.359,4170.769,4169.359,4159.872,4193.205,4134.103,0,0
597,93,0,1976,4175.255999999999,4159.615,4182.179,4169.359,4170.128,4169.103,4171.795,4169.744000000001,4168.333,4178.974,4173.333,4163.846,4179.615,4136.923,0,0
598,94,0,3146,4174.487,4162.308,4186.923,4166.923,4167.0509999999995,4171.923,4171.41,4169.872,4169.103,4176.923,4168.718,4164.487,4165.769,4135.385,0,0
599,95,0,3413,4183.974,4167.308,4190.641,4170.641,4171.154,4173.718,4174.359,4176.41,4172.436,4178.333,4175.0,4166.538,4190.385,4139.231,0,0
600,96,0,3248,4188.59,4171.923,4195.255999999999,4175.769,4178.205,4174.615,4183.846,4178.846,4173.462,4188.59,4182.692,4171.154,4202.436,4143.59,0,0
601,97,0,1976,4183.846,4169.359,4198.333,4173.205,4172.692,4175.255999999999,4186.923,4173.59,4170.897,4184.103,4175.0,4167.9490000000005,4184.487,4140.641,0,0
602,98,0,3146,4187.0509999999995,4169.872,4195.897,4171.154,4167.9490000000005,4180.641,4182.9490000000005,4172.436,4169.487,4174.103,4170.513,4162.9490000000005,4182.564,4143.59,0,0
603,99,0,3413,4186.282,4168.205,4191.154,4172.308,4168.462,4178.974,4177.821,4172.179,4169.103,4175.255999999999,4175.128,4163.718,4190.513,4143.718,0,0
604,100,0,3248,4170.513,4156.282,4186.41,4168.462,4158.974,4165.385,4171.667,4168.718,4167.692,4168.718,4170.0,4159.359,4183.846,4128.077,0,0
605,101,0,1976,4166.41,4155.128,4185.255999999999,4164.872,4155.128,4159.872,4170.385,4168.974,4169.359,4165.128,4166.026,4160.385,4192.179,4121.154,0,0
606,102,0,3146,4178.462,4166.923,4188.59,4168.974,4166.795,4167.564,4176.282,4172.179,4172.564,4188.333,4178.205,4169.615,4213.077,4135.513,0,0
607,103,0,3413,4178.846,4171.154,4188.333,4173.077,4172.821,4170.769,4182.564,4175.255999999999,4174.103,4197.9490000000005,4180.769,4168.974,4198.59,4140.769,0,0
608,104,0,3248,4166.795,4166.923,4180.769,4170.0,4170.641,4169.103,4183.333,4175.128,4172.564,4176.41,4169.872,4158.205,4164.744000000001,4126.41,0,0
609,105,0,1976,4163.462,4163.205,4176.795,4165.769,4168.718,4171.923,4175.513,4168.333,4170.641,4165.385,4168.59,4152.564,4167.9490000000005,4119.103,0,0
610,106,0,3146,4170.128,4159.103,4179.103,4167.308,4162.436,4168.205,4164.615,4166.41,4171.154,4171.154,4173.974,4155.0,4183.205,4128.333,0,0
611,107,0,3413,4173.462,4155.897,4178.974,4165.255999999999,4154.359,4158.333,4160.385,4167.179,4171.923,4173.333,4171.667,4156.795,4182.308,4133.077,0,0
612,108,0,3248,4169.615,4158.333,4172.692,4159.615,4151.795,4151.667,4156.282,4160.769,4170.128,4170.897,4167.564,4153.846,4194.744000000001,4124.872,0,0
613,109,0,1976,4169.872,4164.872,4173.077,4162.179,4152.179,4152.564,4153.333,4159.231,4168.846,4167.0509999999995,4164.744000000001,4154.872,4199.615,4125.385,0,0
614,110,0,3146,4180.769,4170.128,4182.692,4169.615,4156.282,4162.564,4161.538,4167.9490000000005,4168.974,4164.744000000001,4160.897,4161.154,4168.974,4138.077,0,0
615,111,0,3413,4188.077,4169.103,4186.538,4170.128,4163.974,4169.359,4168.59,4169.744000000001,4169.359,4167.564,4163.974,4163.59,4161.282,4142.179,0,0
616,112,0,3248,4183.846,4169.487,4184.615,4170.769,4168.718,4166.026,4165.128,4167.9490000000005,4173.333,4171.667,4169.615,4161.923,4197.692,4136.667,0,0
617,113,0,1976,4182.436,4171.923,4184.872,4174.103,4170.641,4171.795,4172.436,4173.846,4175.513,4174.103,4171.667,4163.718,4202.692,4136.923,0,0
618,114,0,3146,4188.205,4172.9490000000005,4188.846,4175.255999999999,4177.0509999999995,4186.538,4186.282,4176.795,4173.077,4181.026,4180.255999999999,4165.513,4183.205,4143.333,0,0
619,115,0,3413,4184.231,4171.923,4187.692,4172.564,4177.436,4177.9490000000005,4178.718,4171.667,4171.282,4178.077,4184.231,4162.308,4183.718,4141.154,0,0
620,116,0,3248,4170.385,4162.821,4178.077,4162.692,4162.9490000000005,4155.255999999999,4162.308,4167.179,4169.615,4155.897,4170.513,4156.538,4175.385,4127.436,0,0
621,117,0,1976,4166.923,4158.59,4175.513,4158.333,4158.846,4156.154,4164.872,4167.308,4170.0,4155.255999999999,4163.718,4157.564,4166.923,4126.923,0,0
622,118,0,3146,4172.0509999999995,4166.923,4184.231,4167.9490000000005,4170.255999999999,4169.359,4174.103,4170.128,4174.872,4180.641,4175.128,4163.462,4189.615,4139.744000000001,0,0
623,119,0,3413,4172.308,4170.769,4185.641,4173.205,4172.0509999999995,4170.0,4172.821,4170.128,4175.255999999999,4183.718,4177.436,4161.41,4199.744000000001,4136.282,0,0
624,120,0,3248,4170.255999999999,4163.077,4178.59,4167.0509999999995,4166.026,4166.667,4169.615,4168.077,4169.103,4166.795,4162.564,4155.769,4170.128,4123.205,0,0
625,121,0,1976,4170.769,4158.846,4176.795,4164.615,4167.436,4171.154,4168.718,4168.846,4168.846,4165.385,4157.9490000000005,4155.513,4164.744000000001,4122.692,0,0
626,122,0,3146,4173.974,4164.872,4178.333,4170.0,4172.0509999999995,4173.718,4168.205,4170.897,4173.077,4170.769,4167.179,4157.821,4192.0509999999995,4128.333,0,0
627,123,0,3413,4178.59,4170.641,4178.718,4170.0,4171.795,4169.487,4169.744000000001,4170.513,4172.436,4169.872,4168.077,4158.974,4198.462,4128.59,0,0
628,124,0,3248,4177.0509999999995,4164.615,4176.282,4166.026,4164.872,4167.692,4169.359,4169.744000000001,4170.513,4169.744000000001,4156.923,4156.41,4191.923,4125.128,0,0
629,125,0,1976,4170.255999999999,4158.077,4170.0,4166.538,4160.513,4168.846,4168.462,4170.897,4169.359,4166.923,4152.564,4152.179,4183.59,4122.179,0,0
630,126,0,3146,4169.103,4164.231,4173.205,4169.103,4165.128,4169.103,4169.231,4170.641,4169.359,4162.179,4159.231,4155.385,4165.255999999999,4123.077,0,0
631,127,0,53,4178.333,4171.538,4186.41,4170.385,4171.282,4171.41,4172.436,4170.513,4177.692,4165.641,4166.538,4162.9490000000005,4179.359,4131.923,0,0
632,0,0,2503,4185.641,4170.897,4186.538,4173.718,4171.41,4172.564,4170.255999999999,4171.667,4181.41,4175.128,4172.308,4160.0,4209.103,4141.667,0,0
633,1,0,2861,4177.564,4164.615,4173.718,4168.718,4162.308,4167.564,4158.59,4166.282,4169.615,4168.333,4166.795,4151.282,4182.436,4133.846,0,0
634,2,0,3028,4167.179,4158.462,4168.718,4160.128,4151.795,4166.795,4154.359,4161.538,4165.513,4151.795,4157.436,4153.846,4167.692,4123.205,0,0
635,3,0,3069,4170.513,4157.0509999999995,4171.538,4163.718,4153.846,4171.795,4164.103,4167.692,4173.462,4151.282,4159.103,4162.436,4192.692,4132.436,0,0
636,4,0,3545,4175.255999999999,4157.564,4171.795,4166.923,4160.897,4170.128,4170.0,4173.846,4173.974,4159.359,4161.026,4159.231,4178.462,4140.255999999999,0,0
637,5,0,2149,4171.667,4156.154,4173.205,4160.641,4155.769,4165.385,4166.538,4171.667,4170.128,4159.359,4155.769,4153.077,4153.59,4128.974,0,0
638,6,0,2572,4168.333,4153.974,4175.641,4154.744000000001,4149.103,4166.154,4165.641,4170.385,4170.897,4153.974,4150.0,4154.872,4162.9490000000005,4125.255999999999,0,0
639,7,0,1837,4168.333,4154.487,4172.0509999999995,4154.231,4150.641,4168.59,4169.487,4171.538,4170.385,4150.513,4150.255999999999,4157.692,4171.026,4134.359,0,0
640,8,0,1380,4171.538,4153.846,4168.846,4155.769,4153.205,4169.487,4171.795,4168.077,4169.487,4156.282,4155.385,4160.128,4180.641,4141.41,0,0
641,9,0,3534,4173.846,4155.769,4175.769,4157.692,4156.282,4171.795,4174.615,4168.59,4171.923,4167.821,4159.103,4164.103,4201.026,4144.487,0,0
642,10,0,3140,4171.538,4161.923,4181.923,4161.41,4158.59,4173.077,4167.564,4170.513,4174.872,4170.641,4155.641,4163.077,4207.564,4142.0509999999995,0,0
643,11,0,3416,4169.103,4162.436,4180.513,4163.718,4157.179,4169.231,4155.385,4163.205,4173.718,4163.462,4153.846,4161.026,4199.487,4137.9490000000005,0,0
644,12,0,3250,4168.846,4160.641,4178.462,4161.667,4154.103,4168.077,4159.487,4159.615,4169.872,4156.795,4156.795,4159.615,4188.59,4138.462,0,0
645,13,0,1982,4170.513,4162.0509999999995,4183.205,4157.692,4155.513,4169.872,4170.128,4166.795,4169.103,4154.872,4155.0,4158.974,4183.974,4139.231,0,0
646,14,0,3140,4171.795,4161.667,4183.846,4157.436,4157.308,4167.0509999999995,4167.821,4168.846,4169.872,4156.282,4152.0509999999995,4159.872,4190.0,4136.795,0,0
647,15,0,3416,4169.744000000001,4157.308,4179.744000000001,4156.538,4155.769,4162.564,4165.769,4165.897,4168.974,4157.0509999999995,4153.974,4160.255999999999,4197.9490000000005,4135.897,0,0
648,16,0,0,4167.564,4154.487,4178.59,4154.359,4154.359,4168.59,4168.718,4166.026,4170.0,4153.077,4155.128,4158.077,4192.0509999999995,4137.0509999999995,0,0
649,17,0,0,4169.615,4154.615,4174.744000000001,4154.744000000001,4157.308,4178.974,4162.692,4162.436,4171.923,4150.255999999999,4154.359,4157.9490000000005,4186.282,4137.821,0,0
650,18,0,0,4171.282,4155.513,4171.538,4154.615,4159.615,4175.641,4155.128,4156.795,4170.255999999999,4152.821,4155.769,4160.255999999999,4201.538,4137.0509999999995,0,0
651,19,0,0,4167.308,4155.641,4173.59,4152.179,4156.154,4165.769,4155.897,4157.436,4168.205,4148.59,4153.462,4158.59,4199.487,4136.538,0,0
652,20,0,0,4163.974,4153.59,4172.564,4150.255999999999,4156.026,4166.41,4157.179,4156.154,4167.436,4139.872,4150.641,4156.026,4162.308,4138.333,0,0
653,21,0,0,4173.59,4162.308,4171.795,4159.872,4162.9490000000005,4172.436,4156.795,4154.615,4168.59,4146.795,4157.179,4160.513,4161.538,4140.128,0,0
654,22,0,0,4185.897,4175.0,4181.795,4173.333,4170.513,4171.282,4154.231,4159.872,4171.41,4159.231,4162.564,4167.564,4193.718,4142.179,0,0
655,23,0,0,4179.744000000001,4173.718,4186.41,4172.179,4169.103,4170.0,4152.308,4161.538,4170.385,4152.821,4157.179,4165.128,4176.667,4141.667,0,0
656,24,0,0,4168.333,4167.308,4175.385,4165.769,4159.231,4174.103,4155.897,4159.872,4167.564,4148.974,4154.103,4159.487,4161.795,4139.359,0,0
657,25,0,0,4177.0509999999995,4169.615,4170.897,4168.846,4159.615,4170.641,4157.179,4165.769,4169.872,4164.359,4159.487,4160.513,4198.846,4145.255999999999,0,0
658,26,0,0,4185.0,4171.667,4178.59,4168.718,4166.154,4165.128,4155.897,4171.667,4173.846,4167.564,4161.538,4162.692,4207.179,4149.487,0,0
659,27,0,0,4173.077,4161.282,4176.538,4159.359,4158.718,4166.923,4156.282,4162.692,4171.667,4158.077,4159.872,4162.308,4187.308,4141.282,0,0
660,28,0,0,4166.41,4155.255999999999,4169.872,4154.872,4151.41,4169.487,4155.897,4156.667,4168.077,4157.821,4158.846,4164.615,4187.564,4138.077,0,0
661,29,0,0,4172.308,4162.308,4175.385,4161.282,4162.179,4167.9490000000005,4155.128,4161.795,4169.872,4164.872,4160.769,4164.487,4192.564,4145.513,0,0
662,30,0,0,4173.077,4169.359,4176.923,4168.718,4169.487,4169.615,4155.513,4159.615,4172.9490000000005,4172.308,4166.923,4162.436,4189.103,4145.385,0,0
663,31,0,0,4169.487,4169.359,4170.255999999999,4166.41,4161.41,4172.692,4156.41,4156.282,4172.436,4172.308,4170.769,4163.974,4191.41,4139.231,0,0
664,32,0,0,4167.821,4161.923,4168.205,4156.282,4152.179,4168.333,4153.333,4157.9490000000005,4170.641,4157.821,4164.103,4163.077,4185.769,4136.282,0,0
665,33,0,0,4167.0509999999995,4157.692,4172.179,4154.615,4151.923,4164.487,4151.41,4157.179,4168.077,4153.077,4160.255999999999,4161.667,4173.974,4138.718,0,0
666,34,0,0,4169.872,4165.385,4172.821,4165.0,4160.255999999999,4168.846,4156.538,4158.718,4168.077,4165.641,4164.615,4162.564,4183.462,4149.487,0,0
667,35,0,0,4173.846,4169.487,4168.974,4166.282,4160.255999999999,4171.282,4160.0,4165.769,4169.615,4164.231,4164.487,4167.308,4186.667,4155.0,0,0
668,36,0,0,4171.667,4163.077,4165.255999999999,4160.0,4153.718,4169.872,4160.897,4167.179,4170.255999999999,4157.821,4162.692,4168.59,4177.436,4150.769,0,0
669,37,0,0,4170.769,4164.744000000001,4167.308,4165.513,4161.795,4172.0509999999995,4164.615,4165.641,4174.872,4167.564,4168.077,4168.846,4193.205,4151.795,0,0
670,38,0,0,4178.333,4172.436,4169.744000000001,4171.923,4170.385,4172.9490000000005,4166.667,4168.462,4178.205,4172.692,4172.9490000000005,4168.077,4204.615,4153.718,0,0
671,39,0,0,4182.179,4170.255999999999,4168.333,4168.59,4164.103,4169.103,4165.0,4170.255999999999,4173.718,4169.359,4167.308,4168.718,4182.9490000000005,4150.385,0,0
672,40,0,0,4176.282,4167.0509999999995,4169.359,4166.154,4162.0509999999995,4167.9490000000005,4166.282,4170.0,4169.744000000001,4168.462,4158.974,4169.872,4164.615,4150.641,0,0
673,41,0,0,4173.077,4168.59,4170.769,4167.692,4167.821,4167.9490000000005,4167.9490000000005,4168.077,4172.179,4166.154,4158.077,4167.692,4181.538,4150.128,0,0
674,42,0,0,4174.359,4168.59,4167.821,4165.897,4168.974,4170.385,4165.897,4167.564,4172.0509999999995,4164.744000000001,4163.718,4168.077,4195.641,4146.282,0,0
675,43,0,0,4172.436,4166.795,4167.179,4165.255999999999,4168.077,4177.564,4165.897,4169.487,4167.308,4168.205,4168.077,4168.846,4180.513,4148.462,0,0
676,44,0,0,4177.0509999999995,4169.359,4170.513,4167.821,4169.615,4176.282,4168.59,4170.128,4174.103,4177.179,4171.282,4168.462,4181.795,4157.0509999999995,0,0
677,45,0,0,4181.538,4173.462,4171.41,4169.744000000001,4171.538,4168.718,4166.154,4169.103,4184.231,4184.231,4173.462,4168.974,4210.769,4156.538,0,0
678,46,0,0,4173.077,4168.462,4168.462,4169.359,4168.59,4169.615,4161.795,4168.974,4180.385,4178.718,4165.897,4164.615,4215.769,4143.462,0,0
679,47,0,0,4167.436,4163.846,4166.923,4166.538,4166.795,4173.333,4165.385,4168.974,4170.897,4166.923,4158.462,4162.179,4184.744000000001,4136.667,0,0
680,48,0,0,4171.795,4168.59,4164.872,4166.41,4168.205,4170.897,4172.692,4167.0509999999995,4168.718,4158.718,4158.59,4163.846,4167.179,4139.615,0,0
681,49,0,0,4170.385,4165.897,4159.615,4164.103,4165.513,4170.255999999999,4167.308,4168.205,4169.231,4155.0,4155.769,4162.308,4170.769,4138.718,0,0
682,50,1,0,4169.615,4163.846,4158.974,4162.821,4165.641,4170.255999999999,4165.897,4168.333,4169.872,4154.615,4155.641,4161.923,4171.538,4138.718,0,0
683,51,1,0,4168.846,4161.795,4158.333,4161.538,4165.769,4170.255999999999,4164.487,4168.462,4170.513,4154.231,4155.513,4161.538,4172.308,4138.718,0,0
684,52,1,0,4168.077,4159.744000000001,4157.692,4160.255999999999,4165.897,4170.255999999999,4163.077,4168.59,4171.154,4153.846,4155.385,4161.154,4173.077,4138.718,0,0
685,53,1,0,4167.308,4157.692,4157.0509999999995,4158.974,4166.026,4170.255999999999,4161.667,4168.718,4171.795,4153.462,4155.255999999999,4160.769,4173.846,4138.718,0,0
686,54,1,0,4166.538,4155.641,4156.41,4157.692,4166.154,4170.255999999999,4160.255999999999,4168.846,4172.436,4153.077,4155.128,4160.385,4174.615,4138.718,0,0
687,55,1,0,4165.769,4153.59,4155.769,4156.41,4166.282,4170.255999999999,4158.846,4168.974,4173.077,4152.692,4155.0,4160.0,4175.385,4138.718,0,0
688,56,0,0,4164.872,4151.026,4154.359,4154.744000000001,4166.41,4169.487,4157.436,4169.103,4174.103,4151.667,4154.872,4158.974,4176.282,4138.846,0,0
689,57,0,0,4169.615,4157.9490000000005,4156.41,4156.026,4170.0,4173.333,4159.231,4171.538,4174.359,4168.462,4165.897,4160.0,4190.0,4141.538,0,0
690,58,0,0,4170.641,4157.9490000000005,4156.795,4154.744000000001,4166.154,4173.846,4158.462,4168.974,4174.487,4176.923,4166.795,4160.0,4171.026,4138.077,0,0
691,59,0,0,4165.0,4149.615,4153.846,4151.154,4154.231,4169.744000000001,4153.718,4166.41,4172.821,4165.513,4159.872,4155.128,4167.9490000000005,4132.308,0,0
692,60,0,0,4166.923,4153.462,4160.0,4153.59,4152.692,4166.667,4158.59,4167.308,4171.667,4175.897,4166.538,4157.308,4203.462,4136.41,0,0
693,61,0,0,4171.667,4159.872,4168.205,4158.333,4165.385,4170.513,4166.667,4170.513,4171.795,4187.821,4173.205,4163.59,4200.897,4143.077,0,0
694,62,0,0,4167.692,4157.0509999999995,4162.0509999999995,4157.564,4169.231,4180.128,4169.231,4172.436,4173.59,4173.333,4162.564,4157.692,4167.9490000000005,4138.333,0,0
695,63,0,0,4165.0,4157.564,4153.077,4155.0,4162.821,4178.974,4171.538,4173.077,4175.385,4164.744000000001,4156.026,4151.923,4166.538,4134.231,0,0
696,64,0,2503,4166.667,4161.282,4156.667,4155.255999999999,4163.077,4174.872,4170.385,4170.641,4173.974,4169.872,4161.795,4154.872,4183.077,4138.333,0,0
697,65,0,2863,4168.462,4158.077,4165.641,4155.385,4168.077,4180.0,4165.255999999999,4168.718,4171.41,4167.564,4168.333,4157.0509999999995,4195.513,4140.897,0,0
698,66,0,3031,4170.255999999999,4160.641,4168.462,4156.282,4169.359,4180.769,4165.897,4170.641,4171.282,4170.641,4173.077,4158.59,4191.923,4140.897,0,0
699,67,0,3071,4165.513,4167.564,4160.641,4157.436,4169.744000000001,4170.0,4169.359,4172.308,4173.077,4177.308,4168.462,4162.308,4173.718,4139.487,0,0
700,68,0,3544,4157.0509999999995,4163.846,4155.641,4155.769,4170.128,4170.255999999999,4168.205,4172.308,4172.179,4167.0509999999995,4160.897,4155.128,4173.077,4137.308,0,0
701,69,0,2146,4161.538,4159.103,4164.615,4156.282,4167.564,4181.154,4166.923,4171.795,4173.846,4164.744000000001,4163.718,4149.615,4188.846,4138.462,0,0
702,70,0,2571,4172.564,4161.026,4171.795,4159.744000000001,4168.59,4183.718,4170.0,4172.179,4182.179,4178.718,4172.308,4156.026,4190.385,4140.385,0,0
703,71,0,1838,4166.282,4156.795,4165.641,4157.821,4172.179,4186.282,4176.667,4173.205,4183.077,4177.564,4171.795,4157.564,4181.026,4138.59,0,0
704,72,0,1380,4158.333,4157.821,4157.564,4159.487,4171.282,4180.897,4175.0,4174.615,4174.359,4169.744000000001,4167.179,4153.846,4182.9490000000005,4139.359,0,0
705,73,0,3536,4167.821,4168.333,4156.923,4165.897,4167.9490000000005,4166.282,4161.795,4169.615,4169.487,4168.462,4170.255999999999,4154.872,4188.718,4144.103,0,0
706,74,0,3138,4170.385,4166.154,4155.385,4161.923,4164.487,4172.9490000000005,4153.718,4161.154,4168.974,4159.872,4172.0509999999995,4153.59,4177.692,4143.462,0,0
707,75,0,3411,4155.513,4149.359,4149.872,4152.692,4161.026,4184.615,4155.385,4161.154,4167.821,4149.359,4164.744000000001,4147.821,4159.872,4133.718,0,0
708,76,0,3245,4148.974,4138.718,4146.538,4151.667,4162.692,4174.359,4158.718,4162.692,4168.205,4150.769,4153.333,4144.103,4154.103,4123.59,0,0
709,77,0,1974,4154.487,4140.513,4147.179,4151.795,4164.231,4170.769,4160.641,4162.564,4170.128,4155.255999999999,4151.282,4144.103,4171.282,4121.026,0,0
710,78,0,3138,4153.333,4141.923,4147.9490000000005,4149.359,4157.821,4180.0,4158.333,4161.538,4170.641,4153.846,4153.974,4144.359,4190.769,4123.333,0,0
711,79,0,3411,4150.385,4136.667,4147.436,4149.872,4151.923,4172.821,4154.872,4161.154,4169.231,4154.744000000001,4147.9490000000005,4144.872,4184.872,4123.333,0,0
712,80,0,3245,4153.462,4134.231,4148.718,4151.026,4152.692,4165.897,4156.795,4163.974,4168.205,4154.103,4143.333,4142.179,4160.897,4122.564,0,0
713,81,0,1974,4154.615,4137.436,4152.0509999999995,4152.821,4156.282,4172.179,4159.615,4168.077,4170.128,4152.179,4151.795,4143.974,4156.282,4123.59,0,0
714,82,0,3138,4153.333,4133.077,4156.795,4152.9490000000005,4157.564,4171.282,4161.795,4168.59,4172.692,4158.846,4158.974,4149.359,4182.564,4126.795,0,0
715,83,0,3411,4152.821,4128.59,4157.821,4152.821,4155.385,4170.128,4168.718,4167.436,4170.385,4169.103,4157.308,4149.487,4188.974,4134.359,0,0
716,84,0,3245,4154.744000000001,4131.282,4156.923,4153.718,4153.718,4173.077,4172.9490000000005,4171.538,4170.641,4170.128,4157.0509999999995,4150.513,4168.462,4137.9490000000005,0,0
717,85,0,1974,4159.744000000001,4132.179,4156.538,4151.923,4156.795,4175.769,4167.9490000000005,4174.744000000001,4178.077,4166.795,4156.667,4154.231,4176.154,4136.41,0,0
718,86,0,3138,4166.667,4133.205,4156.41,4152.821,4158.974,4181.026,4166.538,4174.487,4180.0,4172.821,4158.718,4155.769,4205.255999999999,4139.103,0,0
719,87,0,3411,4169.744000000001,4136.154,4157.308,4154.872,4156.538,4177.308,4171.026,4172.179,4172.0509999999995,4173.205,4166.41,4153.59,4197.308,4142.179,0,0
720,88,0,3245,4164.487,4136.41,4157.0509999999995,4152.0509999999995,4156.667,4166.154,4166.538,4172.692,4168.846,4158.205,4162.9490000000005,4153.846,4163.077,4138.974,0,0
721,89,0,1974,4162.179,4138.205,4158.462,4158.846,4164.359,4166.026,4159.615,4177.179,4177.436,4157.308,4161.41,4156.41,4167.436,4140.385,0,0
722,90,0,3138,4162.0509999999995,4142.0509999999995,4163.333,4168.333,4171.923,4176.282,4162.436,4174.872,4181.026,4172.692,4171.026,4155.897,4189.231,4146.154,0,0
723,91,0,3411,4160.128,4137.0509999999995,4162.564,4159.359,4168.462,4177.692,4165.385,4168.974,4176.026,4172.0509999999995,4164.359,4152.9490000000005,4190.128,4142.0509999999995,0,0
724,92,0,3245,4165.128,4134.872,4160.128,4153.974,4163.974,4170.641,4165.897,4168.59,4173.462,4165.255999999999,4151.538,4149.487,4184.744000000001,4136.154,0,0
725,93,0,1974,4172.0509999999995,4138.718,4161.795,4167.0509999999995,4168.59,4171.923,4170.641,4170.255999999999,4174.872,4178.846,4162.9490000000005,4152.308,4193.59,4138.846,0,0
726,94,0,3138,4170.385,4135.385,4164.615,4168.974,4171.026,4177.9490000000005,4172.564,4168.462,4177.179,4184.744000000001,4171.923,4156.538,4199.872,4143.333,0,0
727,95,0,3411,4167.308,4128.205,4161.154,4157.821,4164.872,4170.641,4168.846,4163.205,4173.59,4164.103,4159.744000000001,4152.692,4176.923,4141.795,0,0
728,96,0,3245,4169.103,4126.795,4159.744000000001,4160.255999999999,4163.974,4169.744000000001,4167.692,4163.718,4169.103,4148.205,4154.487,4147.308,4141.923,4139.103,0,0
729,97,0,1974,4168.59,4129.359,4164.487,4170.128,4171.41,4182.436,4171.026,4164.231,4170.897,4153.59,4161.41,4151.154,4150.513,4139.872,0,0
730,98,0,3138,4167.692,4128.333,4165.897,4166.795,4169.359,4177.692,4168.59,4157.821,4170.0,4163.205,4163.718,4155.897,4184.744000000001,4140.385,0,0
731,99,0,3411,4165.513,4124.103,4161.795,4158.205,4156.795,4167.692,4162.9490000000005,4156.923,4169.487,4168.333,4161.538,4155.255999999999,4193.462,4141.667,0,0
732,100,0,3245,4162.564,4122.564,4156.538,4156.795,4157.692,4172.436,4163.974,4165.128,4179.872,4170.641,4163.718,4152.692,4194.231,4142.692,0,0
733,101,0,1974,4165.897,4125.513,4161.154,4157.436,4169.359,4173.462,4170.255999999999,4170.513,4183.077,4172.308,4169.615,4153.333,4187.308,4142.821,0,0
734,102,0,3138,4167.436,4125.769,4168.205,4155.641,4169.231,4173.59,4173.333,4169.615,4175.0,4175.0,4168.59,4153.205,4171.923,4145.0,0,0
735,103,0,3411,4167.0509999999995,4124.103,4168.846,4156.795,4168.333,4181.282,4173.974,4168.846,4179.487,4177.179,4166.667,4154.359,4172.308,4152.308,0,0
736,104,0,3245,4171.154,4125.128,4165.769,4157.436,4172.821,4177.308,4171.795,4168.333,4184.231,4179.615,4170.385,4154.872,4182.308,4157.179,0,0
737,105,0,1974,4171.667,4124.103,4162.9490000000005,4154.615,4166.154,4167.436,4167.564,4167.179,4173.718,4178.077,4171.795,4151.795,4186.667,4148.718,0,0
738,106,0,3138,4167.564,4126.026,4165.0,4155.255999999999,4162.308,4169.103,4165.641,4166.538,4167.564,4168.846,4167.0509999999995,4152.821,4181.795,4143.846,0,0
739,107,0,3411,4169.615,4130.897,4167.692,4157.436,4170.641,4170.385,4162.821,4166.154,4172.564,4161.923,4162.308,4155.255999999999,4171.795,4146.41,0,0
740,108,0,3245,4172.692,4131.41,4170.897,4161.538,4172.308,4171.282,4162.436,4164.744000000001,4173.077,4163.718,4164.231,4153.205,4163.846,4145.897,0,0
741,109,0,1974,4170.897,4128.205,4170.897,4164.103,4167.564,4174.744000000001,4165.769,4157.308,4170.897,4162.821,4165.128,4156.026,4171.026,4145.513,0,0
742,110,0,3138,4171.795,4131.667,4170.255999999999,4161.795,4169.359,4171.667,4164.231,4153.846,4171.026,4161.795,4161.795,4161.154,4183.59,4151.154,0,0
743,111,0,3411,4172.564,4133.718,4169.487,4157.9490000000005,4168.333,4165.385,4157.9490000000005,4160.897,4171.923,4170.0,4165.513,4162.9490000000005,4189.231,4154.872,0,0
744,112,0,3245,4171.282,4125.0,4166.923,4155.0,4158.846,4164.487,4154.615,4166.923,4171.923,4170.128,4171.667,4160.128,4185.128,4153.718,0,0
745,113,0,1974,4174.744000000001,4121.154,4171.026,4158.59,4154.872,4167.0509999999995,4158.846,4168.333,4172.564,4164.872,4168.718,4161.538,4187.436,4157.308,0,0
746,114,0,3138,4177.9490000000005,4130.128,4179.103,4164.103,4161.154,4167.9490000000005,4165.128,4169.103,4173.205,4173.077,4167.564,4164.103,4201.41,4158.462,0,0
747,115,0,3411,4172.9490000000005,4132.564,4177.308,4161.667,4166.41,4167.308,4165.897,4167.436,4170.897,4174.231,4168.462,4161.026,4198.59,4155.255999999999,0,0
748,116,0,3245,4166.923,4122.179,4167.564,4152.564,4165.255999999999,4171.41,4165.513,4164.872,4167.564,4154.103,4158.846,4152.564,4170.255999999999,4149.744000000001,0,0
749,117,0,1974,4168.205,4125.897,4168.077,4157.179,4167.564,4175.641,4170.641,4166.923,4169.615,4153.205,4156.41,4153.205,4148.077,4150.0,0,0
750,118,0,3138,4172.308,4139.359,4176.795,4169.231,4173.333,4170.385,4173.077,4169.487,4172.436,4169.872,4168.718,4164.615,4158.333,4160.897,0,0
751,119,0,3411,4170.897,4138.333,4176.026,4166.667,4170.769,4164.103,4171.282,4166.795,4170.255999999999,4165.769,4172.308,4163.974,4181.795,4163.718,0,0
752,120,0,3245,4167.821,4132.0509999999995,4170.641,4161.41,4165.641,4167.179,4171.667,4166.667,4168.077,4151.154,4163.59,4156.282,4189.359,4156.538,0,0
753,121,0,1974,4168.846,4134.103,4172.692,4165.255999999999,4167.0509999999995,4171.026,4171.538,4167.9490000000005,4169.487,4155.385,4162.179,4157.308,4181.538,4155.513,0,0
754,122,0,3138,4170.513,4135.769,4176.923,4171.538,4171.667,4169.615,4171.41,4167.0509999999995,4170.769,4169.359,4168.333,4159.872,4187.821,4159.103,0,0
755,123,0,3411,4168.846,4133.333,4172.436,4166.282,4171.667,4167.9490000000005,4171.282,4168.462,4169.744000000001,4169.744000000001,4168.077,4156.538,4201.923,4156.026,0,0
756,124,0,3245,4166.41,4130.897,4169.744000000001,4157.308,4165.385,4170.0,4169.615,4164.487,4168.718,4167.564,4168.333,4157.821,4196.538,4153.462,0,0
757,125,0,1974,4164.744000000001,4126.154,4175.128,4156.41,4159.744000000001,4171.41,4164.359,4157.179,4167.436,4170.128,4169.231,4161.154,4192.821,4151.282,0,0
758,126,0,3138,4167.564,4128.077,4175.385,4163.974,4163.718,4168.205,4163.718,4161.795,4167.9490000000005,4165.641,4161.795,4160.897,4199.615,4150.897,0,0
759,127,0,53,4168.974,4140.385,4173.205,4171.026,4171.538,4167.179,4172.179,4172.692,4171.154,4157.179,4160.0,4162.436,4192.692,4157.436,0,0
760,0,0,2497,4157.308,4138.846,4166.923,4161.923,4164.744000000001,4168.205,4168.077,4171.154,4171.282,4156.667,4165.255999999999,4162.0509999999995,4180.255999999999,4151.795,0,0
761,1,0,2858,4149.872,4125.385,4156.282,4153.205,4152.821,4165.897,4154.359,4164.487,4167.9490000000005,4157.0509999999995,4159.487,4159.103,4188.974,4141.795,0,0
762,2,0,3025,4163.077,4129.487,4159.744000000001,4159.487,4154.744000000001,4167.179,4160.128,4166.154,4166.795,4153.205,4154.231,4158.718,4182.692,4150.513,0,0
763,3,0,3067,4168.333,4135.385,4167.308,4161.026,4158.333,4169.231,4172.9490000000005,4168.462,4168.077,4154.744000000001,4157.179,4159.359,4156.667,4159.359,0,0
764,4,0,3538,4160.0,4128.59,4158.333,4152.564,4152.436,4166.282,4168.974,4166.41,4169.359,4157.179,4156.282,4155.897,4172.9490000000005,4150.513,0,0
