,COUNTER, INTERPOLATED, RAW_CQ, AF3, F7, F3, FC5, T7, P7, O1, O2, P8, T8, FC6, F4, F8, AF4, MARKER_HARDWARE, MARKER
0,32,0,0,4198.205,4198.59,4183.205,4184.615,4180.128,4183.205,4189.103,4188.205,4184.487,4189.615,4205.513,4176.923,4187.9490000000005,4200.897,0,0
1,33,0,0,4200.897,4199.231,4185.513,4185.897,4184.872,4183.205,4193.718,4186.795,4184.487,4190.385,4202.0509999999995,4179.872,4191.026,4202.821,0,0
2,34,0,0,4200.513,4198.718,4183.59,4186.154,4188.077,4180.769,4197.308,4184.103,4182.692,4179.103,4197.308,4176.282,4187.821,4204.615,0,0
3,35,0,0,4197.9490000000005,4195.513,4178.59,4187.692,4187.692,4178.846,4196.026,4185.513,4183.462,4176.282,4198.205,4171.026,4186.538,4200.513,0,0
4,36,0,0,4198.205,4195.385,4177.9490000000005,4192.564,4181.667,4182.564,4195.513,4187.9490000000005,4184.615,4180.897,4202.692,4175.513,4195.385,4198.59,0,0
5,37,0,0,4198.974,4198.846,4180.641,4199.487,4182.0509999999995,4189.103,4203.077,4189.744000000001,4183.462,4183.205,4203.846,4179.744000000001,4202.692,4201.538,0,0
6,38,0,0,4197.0509999999995,4200.769,4181.026,4198.974,4191.667,4186.795,4211.282,4192.0509999999995,4183.205,4188.846,4198.59,4176.538,4200.255999999999,4202.692,0,0
7,39,0,0,4197.9490000000005,4200.385,4180.513,4196.795,4199.487,4185.128,4210.641,4192.692,4185.385,4197.564,4202.436,4178.333,4202.0509999999995,4202.436,0,0
8,40,0,0,4198.205,4201.41,4185.128,4195.769,4198.846,4188.974,4204.615,4190.769,4187.564,4204.103,4210.897,4181.923,4209.615,4202.9490000000005,0,0
9,41,0,0,4191.923,4201.41,4181.667,4192.9490000000005,4192.821,4184.231,4198.974,4187.692,4186.026,4202.308,4207.436,4178.205,4205.769,4203.462,0,0
10,42,0,0,4185.769,4198.205,4171.923,4190.513,4189.231,4179.744000000001,4197.436,4187.0509999999995,4184.872,4196.282,4203.846,4175.769,4199.359,4200.385,0,0
11,43,0,0,4188.846,4198.718,4173.846,4190.641,4191.795,4186.667,4201.538,4188.205,4185.255999999999,4198.333,4207.308,4178.974,4203.077,4201.538,0,0
12,44,0,0,4193.077,4201.923,4179.615,4191.282,4191.41,4189.231,4200.641,4189.359,4184.615,4197.821,4203.462,4176.923,4206.154,4203.077,0,0
13,45,0,0,4187.564,4197.821,4179.872,4194.487,4182.436,4181.795,4187.692,4185.513,4182.9490000000005,4185.385,4193.718,4171.923,4200.513,4193.846,0,0
14,46,0,0,4184.487,4193.718,4180.769,4198.718,4183.974,4182.0509999999995,4186.41,4185.0,4184.231,4183.718,4199.487,4172.308,4199.744000000001,4193.077,0,0
15,47,0,0,4189.359,4197.9490000000005,4186.667,4196.026,4197.564,4190.255999999999,4201.282,4193.462,4186.41,4197.0509999999995,4206.282,4175.769,4202.179,4200.128,0,0
16,48,0,0,4189.487,4200.769,4186.795,4192.821,4195.769,4187.179,4202.692,4192.308,4184.359,4190.128,4192.821,4173.59,4195.769,4195.128,0,0
17,49,0,0,4187.179,4198.59,4183.462,4194.487,4182.308,4183.077,4195.385,4185.128,4183.718,4174.615,4186.795,4173.333,4191.795,4192.821,0,0
18,50,0,0,4188.59,4199.615,4185.897,4197.179,4186.41,4191.538,4197.9490000000005,4186.026,4185.769,4188.974,4201.154,4179.615,4198.205,4203.205,0,0
19,51,0,0,4187.692,4201.538,4188.333,4196.667,4196.667,4193.205,4197.0509999999995,4187.564,4184.744000000001,4202.692,4204.103,4180.128,4202.821,4199.103,0,0
20,52,0,0,4189.231,4200.255999999999,4186.282,4195.513,4190.769,4185.0,4194.744000000001,4186.282,4182.9490000000005,4190.128,4192.821,4173.974,4198.974,4188.462,0,0
21,53,0,0,4193.205,4196.667,4182.436,4193.59,4182.436,4184.359,4194.487,4186.667,4184.487,4178.846,4197.179,4174.103,4197.692,4196.41,0,0
22,54,0,0,4189.231,4194.744000000001,4185.128,4191.026,4188.462,4187.179,4189.231,4189.103,4184.744000000001,4187.564,4205.255999999999,4180.641,4200.897,4203.077,0,0
23,55,0,0,4192.436,4199.615,4187.564,4195.897,4198.077,4185.769,4191.538,4191.154,4184.359,4197.0509999999995,4201.282,4183.205,4201.667,4199.615,0,0
24,56,0,0,4199.872,4200.0,4185.769,4201.667,4198.59,4185.513,4201.538,4192.179,4189.103,4193.718,4200.769,4180.0,4199.487,4199.487,0,0
25,57,0,0,4193.077,4190.897,4183.846,4198.333,4192.0509999999995,4185.385,4203.718,4189.231,4190.385,4186.41,4197.564,4177.692,4198.333,4197.821,0,0
26,58,0,0,4184.615,4183.974,4182.308,4188.974,4187.436,4191.923,4193.077,4188.59,4184.231,4178.333,4188.846,4175.385,4198.462,4191.41,0,0
27,59,0,0,4186.154,4183.846,4182.308,4186.923,4195.128,4200.769,4187.436,4188.974,4182.821,4176.923,4187.9490000000005,4172.436,4197.179,4190.897,0,0
28,60,0,0,4187.692,4186.923,4186.026,4193.077,4202.308,4193.333,4194.359,4187.564,4186.538,4183.59,4191.923,4175.0,4196.923,4191.923,0,0
29,61,0,0,4186.41,4188.077,4187.436,4199.487,4199.872,4182.308,4198.205,4187.692,4186.154,4185.0,4192.564,4177.0509999999995,4196.795,4187.436,0,0
30,62,0,0,4186.795,4187.821,4183.718,4200.128,4199.359,4184.744000000001,4190.513,4188.205,4184.359,4175.513,4190.641,4172.692,4191.154,4183.974,0,0
31,63,0,0,4185.513,4190.769,4181.795,4198.333,4201.538,4186.538,4183.462,4187.0509999999995,4184.744000000001,4172.436,4183.846,4170.897,4183.333,4184.231,0,0
32,64,0,2100,4188.718,4193.718,4186.026,4199.103,4198.462,4185.255999999999,4186.923,4188.205,4185.0,4184.487,4183.59,4175.385,4185.769,4189.103,0,0
33,65,0,2561,4190.769,4190.128,4188.846,4197.9490000000005,4193.59,4189.744000000001,4191.667,4192.9490000000005,4186.026,4188.718,4196.41,4176.154,4195.0,4196.923,0,0
34,66,0,2950,4185.769,4184.487,4186.41,4198.077,4192.308,4187.692,4196.41,4198.974,4188.462,4182.308,4199.231,4176.667,4199.359,4199.231,0,0
35,67,0,3052,4187.564,4187.564,4185.0,4201.026,4186.41,4187.436,4201.026,4202.436,4189.487,4187.692,4192.692,4179.872,4200.641,4196.026,0,0
36,68,0,3530,4194.487,4193.846,4186.154,4198.462,4182.179,4199.872,4200.897,4199.103,4188.718,4197.692,4198.59,4181.795,4203.718,4197.692,0,0
37,69,0,2044,4190.255999999999,4191.923,4185.641,4195.0,4187.436,4200.641,4200.385,4192.564,4187.0509999999995,4189.615,4206.282,4181.026,4205.128,4199.872,0,0
38,70,0,2462,4182.308,4184.744000000001,4184.487,4196.795,4191.795,4186.795,4200.513,4187.9490000000005,4186.795,4180.0,4199.872,4177.308,4202.308,4197.821,0,0
39,71,0,1725,4191.154,4189.744000000001,4186.667,4200.385,4196.538,4185.385,4199.872,4186.026,4188.462,4195.513,4199.359,4176.538,4200.897,4197.821,0,0
40,72,0,1345,4200.128,4202.564,4188.974,4203.59,4201.282,4196.154,4196.923,4188.718,4187.821,4213.846,4208.333,4179.744000000001,4204.359,4201.154,0,0
41,73,0,3525,4191.667,4199.615,4187.436,4198.718,4195.128,4200.769,4194.487,4192.564,4186.923,4206.667,4207.0509999999995,4179.615,4203.59,4201.026,0,0
42,74,0,3108,4183.974,4189.231,4186.026,4190.255999999999,4187.308,4197.821,4200.255999999999,4196.795,4189.872,4196.282,4202.692,4177.821,4199.103,4198.333,0,0
43,75,0,3405,4187.564,4190.513,4185.0,4191.667,4191.538,4191.026,4200.641,4197.436,4191.154,4204.231,4204.103,4182.9490000000005,4199.487,4201.154,0,0
44,76,0,3199,4195.255999999999,4198.205,4183.846,4197.692,4199.487,4183.974,4190.0,4192.564,4188.077,4212.0509999999995,4208.59,4184.487,4202.9490000000005,4208.846,0,0
45,77,0,1763,4200.513,4201.667,4186.538,4198.59,4201.923,4186.538,4190.0,4187.308,4186.026,4206.026,4214.487,4181.923,4202.692,4213.333,0,0
46,78,0,3108,4202.0509999999995,4202.9490000000005,4191.154,4200.897,4203.205,4194.103,4198.718,4189.872,4191.667,4203.205,4214.872,4185.128,4202.0509999999995,4212.821,0,0
47,79,0,3405,4200.641,4203.205,4191.154,4203.205,4197.308,4193.462,4196.41,4199.359,4197.821,4209.103,4208.718,4186.923,4202.821,4211.795,0,0
48,80,0,3199,4201.154,4201.154,4188.205,4199.231,4193.59,4186.154,4191.795,4199.615,4193.718,4207.0509999999995,4208.077,4181.923,4202.308,4212.821,0,0
49,81,0,1763,4196.41,4193.718,4187.436,4197.9490000000005,4196.538,4180.641,4191.41,4188.974,4185.255999999999,4194.872,4202.9490000000005,4180.641,4194.103,4209.103,0,0
50,82,0,3108,4184.359,4191.795,4187.9490000000005,4199.359,4183.846,4179.872,4185.641,4183.333,4183.846,4189.872,4192.564,4180.128,4186.154,4198.462,0,0
51,83,0,3405,4182.821,4196.026,4187.179,4198.974,4167.436,4182.436,4181.41,4188.462,4186.538,4198.974,4197.308,4178.077,4189.487,4193.077,0,0
52,84,0,3199,4188.462,4192.0509999999995,4184.615,4196.538,4174.231,4185.641,4183.333,4188.333,4184.872,4202.821,4194.615,4177.0509999999995,4192.692,4194.231,0,0
53,85,0,1763,4182.179,4188.974,4183.462,4193.462,4184.103,4184.615,4181.538,4182.308,4184.103,4194.487,4182.692,4175.0,4186.667,4194.359,0,0
54,86,0,3108,4182.308,4201.538,4188.718,4204.744000000001,4183.205,4181.41,4182.9490000000005,4185.513,4187.179,4196.41,4197.179,4179.487,4191.026,4199.744000000001,0,0
55,87,0,3405,4200.255999999999,4211.282,4191.026,4217.564,4191.795,4184.487,4185.769,4189.487,4189.231,4210.385,4205.769,4188.59,4200.641,4209.744000000001,0,0
56,88,0,3199,4201.41,4205.385,4187.179,4208.205,4200.385,4186.41,4179.615,4185.0,4186.538,4205.255999999999,4183.846,4183.974,4192.821,4205.769,0,0
57,89,0,1763,4186.923,4202.308,4186.026,4196.795,4194.744000000001,4182.436,4171.282,4181.923,4182.308,4189.744000000001,4181.154,4175.513,4181.282,4198.718,0,0
58,90,0,3108,4185.513,4205.385,4187.692,4202.179,4188.59,4182.821,4172.692,4185.255999999999,4182.436,4188.974,4198.974,4178.462,4184.744000000001,4202.692,0,0
59,91,0,3405,4188.846,4201.41,4184.872,4204.487,4185.769,4186.538,4180.0,4187.0509999999995,4184.103,4190.255999999999,4194.359,4180.0,4191.667,4201.282,0,0
60,92,0,3199,4183.974,4195.0,4181.795,4197.692,4187.0509999999995,4181.282,4181.282,4186.026,4183.59,4182.9490000000005,4186.923,4176.026,4190.385,4189.231,0,0
61,93,0,1763,4184.487,4195.255999999999,4182.308,4196.026,4191.538,4176.923,4179.231,4186.026,4181.41,4183.077,4197.821,4175.769,4187.0509999999995,4187.692,0,0
62,94,0,3108,4186.282,4196.282,4181.667,4197.821,4188.333,4183.205,4180.513,4185.769,4180.769,4186.026,4195.897,4175.769,4187.564,4195.0,0,0
63,95,0,3405,4187.564,4197.0509999999995,4184.487,4203.205,4189.359,4190.385,4188.077,4187.0509999999995,4183.333,4187.308,4184.872,4177.436,4190.255999999999,4201.154,0,0
64,96,0,3199,4189.359,4195.897,4189.615,4200.641,4196.923,4189.872,4189.487,4187.308,4182.821,4186.026,4186.154,4179.231,4189.615,4198.846,0,0
65,97,0,1763,4180.513,4187.179,4185.513,4188.205,4191.282,4189.615,4179.359,4183.718,4180.0,4177.0509999999995,4185.0,4173.077,4182.821,4185.769,0,0
66,98,0,3108,4174.487,4182.821,4178.59,4188.974,4181.282,4188.846,4174.231,4180.385,4179.744000000001,4175.255999999999,4179.615,4170.769,4180.513,4179.103,0,0
67,99,0,3405,4184.487,4188.077,4180.0,4201.154,4184.487,4177.692,4182.692,4182.436,4182.9490000000005,4187.821,4185.0,4176.026,4188.462,4187.436,0,0
68,100,0,3199,4185.513,4189.103,4183.077,4198.718,4184.231,4165.897,4183.718,4187.308,4184.744000000001,4190.128,4191.026,4172.9490000000005,4193.333,4191.923,0,0
69,101,0,1763,4171.923,4184.615,4177.179,4186.923,4169.359,4167.692,4171.41,4185.128,4179.231,4178.205,4182.0509999999995,4166.667,4186.795,4184.872,0,0
70,102,0,3108,4174.359,4186.154,4176.667,4188.59,4164.103,4172.308,4173.205,4180.385,4171.41,4177.564,4181.923,4172.9490000000005,4184.359,4183.333,0,0
71,103,0,3405,4187.692,4188.974,4184.615,4197.179,4176.154,4168.59,4182.0509999999995,4182.308,4174.744000000001,4183.462,4188.462,4180.255999999999,4185.641,4192.9490000000005,0,0
72,104,0,3199,4189.744000000001,4193.718,4188.974,4201.41,4190.513,4172.692,4181.667,4186.923,4184.872,4182.0509999999995,4186.667,4179.103,4183.333,4201.41,0,0
73,105,0,1763,4189.103,4198.974,4190.255999999999,4201.795,4193.846,4186.795,4184.359,4186.026,4185.769,4186.41,4186.923,4178.718,4185.255999999999,4199.872,0,0
74,106,0,3108,4189.872,4194.872,4189.359,4203.205,4184.872,4186.41,4188.462,4183.846,4178.846,4187.0509999999995,4187.436,4175.897,4189.231,4191.154,0,0
75,107,0,3405,4187.692,4187.821,4183.718,4202.436,4176.154,4174.487,4187.179,4186.795,4179.103,4176.923,4185.128,4172.436,4187.308,4186.41,0,0
76,108,0,3199,4184.487,4183.846,4181.282,4190.385,4175.897,4171.154,4185.0,4188.59,4183.205,4173.846,4188.974,4175.0,4183.205,4188.462,0,0
77,109,0,1763,4186.667,4186.41,4187.436,4182.821,4187.179,4173.333,4186.923,4188.846,4183.974,4184.744000000001,4193.974,4179.872,4185.641,4192.692,0,0
78,110,0,3108,4190.128,4194.359,4190.513,4192.308,4197.308,4171.538,4191.154,4193.59,4182.821,4194.231,4189.744000000001,4178.205,4195.641,4194.359,0,0
79,111,0,3405,4189.359,4197.0509999999995,4191.41,4200.897,4195.255999999999,4178.846,4193.59,4200.0,4185.128,4194.103,4183.846,4177.564,4198.718,4188.846,0,0
80,112,0,3199,4185.769,4195.641,4194.744000000001,4199.615,4193.333,4189.231,4189.615,4197.564,4186.795,4191.795,4185.385,4180.255999999999,4189.487,4184.615,0,0
81,113,0,1763,4187.436,4197.0509999999995,4197.308,4200.385,4192.821,4182.179,4186.667,4189.487,4184.615,4188.462,4188.846,4182.0509999999995,4183.205,4187.821,0,0
82,114,0,3108,4190.0,4194.103,4198.59,4198.718,4185.641,4167.308,4188.205,4189.487,4183.59,4186.923,4194.103,4180.255999999999,4186.026,4189.359,0,0
83,115,0,3405,4184.744000000001,4185.641,4200.128,4188.077,4183.462,4166.154,4185.128,4193.718,4184.359,4187.436,4194.872,4179.487,4186.154,4184.487,0,0
84,116,0,3199,4187.821,4190.769,4203.205,4188.846,4190.769,4177.821,4187.564,4194.359,4184.359,4197.308,4196.026,4181.538,4184.487,4189.231,0,0
85,117,0,1763,4196.795,4200.385,4203.59,4195.769,4190.385,4183.846,4196.154,4192.692,4184.615,4205.385,4198.205,4181.667,4187.0509999999995,4198.974,0,0
86,118,0,3108,4191.923,4192.179,4200.385,4189.872,4183.59,4180.255999999999,4191.026,4188.974,4183.974,4192.179,4187.821,4178.718,4184.872,4191.026,0,0
87,119,0,3405,4183.462,4185.255999999999,4198.333,4187.564,4185.897,4182.308,4183.205,4185.769,4183.59,4187.564,4178.462,4177.179,4181.026,4182.179,0,0
88,120,0,3199,4186.282,4191.667,4201.795,4194.487,4191.41,4190.513,4188.718,4186.923,4184.487,4196.795,4188.462,4178.846,4187.308,4188.333,0,0
89,121,0,1763,4188.59,4192.436,4201.538,4190.513,4187.436,4188.846,4193.59,4188.333,4184.487,4192.821,4196.282,4178.462,4193.462,4190.255999999999,0,0
90,122,0,3108,4185.128,4183.974,4195.128,4181.282,4178.077,4183.59,4186.923,4186.538,4182.436,4181.154,4186.795,4174.744000000001,4186.795,4181.923,0,0
91,123,0,3405,4184.103,4182.179,4194.231,4182.564,4174.872,4181.282,4182.564,4186.795,4182.692,4182.179,4178.205,4171.667,4181.41,4182.9490000000005,0,0
92,124,0,3199,4187.436,4186.667,4198.59,4185.385,4175.769,4175.385,4183.974,4187.436,4184.231,4187.308,4179.744000000001,4176.667,4187.436,4193.718,0,0
93,125,0,1763,4195.0,4191.282,4203.718,4189.359,4178.846,4177.564,4183.205,4186.667,4184.487,4189.103,4191.282,4186.026,4189.744000000001,4198.077,0,0
94,126,0,3108,4201.154,4194.744000000001,4208.59,4199.231,4185.769,4187.0509999999995,4182.179,4186.923,4184.103,4189.872,4203.077,4187.0509999999995,4185.255999999999,4200.255999999999,0,0
95,127,0,53,4201.923,4194.872,4206.923,4197.9490000000005,4188.205,4184.615,4182.821,4186.026,4184.487,4184.359,4196.154,4180.385,4181.923,4204.359,0,0
96,0,0,2105,4200.641,4192.179,4199.744000000001,4187.436,4185.0,4180.769,4186.154,4185.385,4184.359,4182.564,4183.077,4178.205,4180.897,4196.795,0,0
97,1,0,2561,4198.077,4191.41,4196.538,4182.179,4190.385,4186.538,4187.821,4186.795,4183.59,4186.795,4188.205,4179.231,4181.026,4191.41,0,0
98,2,0,2950,4198.974,4195.897,4199.103,4188.205,4198.077,4188.59,4189.615,4188.205,4184.744000000001,4186.923,4200.641,4180.769,4184.615,4219.487,0,0
99,3,0,3051,4201.795,4200.897,4200.769,4197.179,4197.308,4185.641,4192.692,4187.308,4186.795,4185.641,4195.255999999999,4180.769,4190.897,4255.897,0,0
100,4,0,3527,4200.513,4200.769,4199.872,4197.179,4198.205,4181.154,4188.846,4186.026,4185.769,4189.872,4182.179,4178.077,4191.923,4262.436,0,0
101,5,0,2043,4201.538,4200.641,4200.641,4195.513,4197.0509999999995,4179.744000000001,4186.667,4187.821,4184.872,4200.255999999999,4190.641,4178.205,4193.718,4269.487,0,0
102,6,0,2459,4205.0,4203.59,4203.077,4195.897,4186.795,4178.077,4191.923,4189.615,4186.282,4203.077,4204.359,4181.923,4196.41,4286.667,0,0
103,7,0,1726,4200.0,4199.359,4198.462,4190.897,4179.744000000001,4177.436,4192.308,4187.179,4186.538,4192.564,4192.564,4179.615,4194.103,4288.718,0,0
104,8,0,1346,4196.154,4196.41,4190.641,4189.872,4188.205,4183.718,4191.154,4185.641,4185.513,4189.615,4183.718,4177.692,4190.385,4287.821,0,0
105,9,0,3528,4200.897,4200.641,4195.0,4198.205,4199.487,4182.0509999999995,4198.077,4189.615,4185.385,4201.667,4201.282,4188.59,4192.179,4297.0509999999995,0,0
106,10,0,3110,4202.692,4199.744000000001,4202.821,4200.128,4194.744000000001,4173.59,4199.359,4190.128,4185.0,4202.0509999999995,4206.154,4190.897,4192.821,4298.846,0,0
107,11,0,3405,4200.0,4195.641,4201.923,4197.0509999999995,4185.769,4178.205,4191.026,4185.385,4183.846,4188.077,4190.255999999999,4183.846,4188.59,4295.641,0,0
108,12,0,3196,4202.308,4199.103,4203.077,4201.795,4187.564,4186.923,4188.59,4185.641,4183.846,4188.59,4191.026,4186.282,4188.718,4304.615,0,0
109,13,0,1765,4203.333,4199.359,4203.077,4200.128,4191.026,4179.872,4187.564,4186.795,4183.59,4192.308,4196.538,4185.385,4184.744000000001,4298.59,0,0
110,14,0,3110,4200.0,4194.359,4195.897,4193.333,4194.103,4177.308,4191.026,4184.103,4183.718,4184.103,4192.436,4173.205,4184.231,4301.923,0,0
111,15,0,3405,4195.385,4197.179,4192.308,4191.026,4201.026,4186.026,4197.179,4183.718,4183.846,4187.179,4190.513,4171.667,4192.308,4358.718,0,0
112,16,0,0,4194.231,4200.769,4193.077,4186.282,4204.872,4188.59,4192.692,4185.513,4184.744000000001,4202.0509999999995,4188.333,4176.538,4191.41,4402.436,0,0
113,17,0,0,4194.744000000001,4197.821,4194.744000000001,4183.846,4201.923,4188.462,4185.255999999999,4181.026,4182.0509999999995,4196.41,4184.615,4171.538,4184.615,4377.821,0,0
114,18,0,0,4192.9490000000005,4197.821,4192.436,4189.103,4197.308,4187.564,4185.641,4174.744000000001,4173.846,4174.872,4183.333,4170.0,4183.718,4353.462,0,0
115,19,0,0,4191.154,4198.333,4191.41,4192.308,4198.333,4185.385,4185.255999999999,4173.846,4169.615,4176.795,4181.667,4171.923,4186.282,4336.795,0,0
116,20,0,0,4196.026,4197.308,4191.667,4190.255999999999,4202.821,4179.359,4181.795,4172.692,4176.667,4188.462,4181.923,4167.9490000000005,4183.59,4264.103,0,0
117,21,0,0,4196.795,4198.59,4191.923,4188.718,4198.718,4179.103,4184.359,4176.538,4183.846,4186.795,4189.615,4166.667,4184.872,4190.897,0,0
118,22,0,0,4187.308,4198.462,4190.769,4187.436,4188.462,4182.308,4185.513,4186.026,4185.128,4192.692,4191.667,4168.59,4188.718,4178.59,0,0
119,23,0,0,4182.9490000000005,4191.41,4190.769,4186.923,4192.179,4173.205,4181.923,4184.231,4181.923,4200.0,4187.308,4167.0509999999995,4180.385,4181.282,0,0
120,24,0,0,4187.0509999999995,4187.436,4191.795,4189.744000000001,4200.0,4169.103,4182.179,4176.026,4178.462,4186.538,4186.667,4164.487,4170.128,4173.333,0,0
121,25,0,0,4187.308,4194.615,4191.026,4196.026,4201.026,4182.0509999999995,4188.462,4181.026,4180.513,4177.692,4187.564,4163.333,4176.923,4169.744000000001,0,0
122,26,0,0,4185.255999999999,4200.128,4191.667,4199.872,4202.308,4184.744000000001,4190.385,4185.513,4183.333,4185.641,4185.255999999999,4167.308,4186.026,4165.128,0,0
123,27,0,0,4185.897,4194.615,4189.744000000001,4193.846,4193.846,4173.718,4186.41,4174.487,4177.9490000000005,4177.179,4182.179,4171.026,4178.077,4161.154,0,0
124,28,0,0,4185.255999999999,4187.179,4188.205,4186.026,4178.462,4169.872,4182.564,4168.205,4172.308,4164.744000000001,4182.564,4169.103,4168.077,4165.128,0,0
125,29,0,0,4183.462,4187.179,4189.487,4185.128,4180.385,4172.564,4177.821,4173.077,4173.718,4174.487,4186.538,4168.462,4167.821,4166.026,0,0
126,30,0,0,4182.0509999999995,4186.026,4188.59,4183.59,4183.462,4172.179,4172.0509999999995,4173.205,4172.692,4177.436,4183.077,4173.333,4168.974,4160.255999999999,0,0
127,31,0,0,4181.026,4180.385,4186.923,4179.872,4174.615,4168.846,4168.59,4170.385,4172.436,4167.9490000000005,4176.154,4173.205,4168.205,4153.59,0,0
128,32,0,0,4181.154,4181.538,4186.667,4185.128,4180.255999999999,4174.231,4175.641,4177.179,4181.154,4170.769,4179.872,4168.462,4170.385,4151.538,0,0
129,33,0,0,4178.846,4186.41,4186.282,4189.872,4190.769,4181.282,4185.255999999999,4185.641,4186.41,4181.282,4185.255999999999,4164.872,4177.564,4153.462,0,0
130,34,0,0,4172.821,4183.59,4183.462,4186.026,4180.641,4174.744000000001,4180.0,4184.615,4182.564,4186.923,4179.615,4164.744000000001,4179.103,4148.846,0,0
131,35,0,0,4173.205,4179.487,4185.255999999999,4182.436,4180.641,4167.821,4174.359,4180.385,4180.0,4189.103,4177.0509999999995,4166.41,4171.282,4137.308,0,0
132,36,0,0,4174.103,4178.974,4186.923,4184.744000000001,4186.538,4169.615,4176.41,4180.0,4181.41,4181.795,4180.255999999999,4164.744000000001,4167.436,4134.872,0,0
133,37,0,0,4173.333,4180.769,4186.795,4188.718,4165.255999999999,4173.718,4178.59,4182.9490000000005,4182.821,4174.359,4180.897,4164.615,4172.9490000000005,4142.179,0,0
134,38,0,0,4178.205,4181.795,4186.41,4187.564,4153.846,4179.872,4181.154,4180.128,4180.641,4172.9490000000005,4180.128,4170.513,4176.026,4144.487,0,0
135,39,0,0,4176.026,4178.333,4186.282,4184.359,4167.179,4185.513,4183.846,4176.154,4176.282,4161.41,4177.436,4170.0,4170.641,4140.769,0,0
136,40,0,0,4167.821,4175.897,4185.641,4182.821,4172.692,4180.641,4179.872,4177.179,4172.0509999999995,4157.179,4173.333,4163.077,4165.255999999999,4138.205,0,0
137,41,0,0,4169.744000000001,4177.179,4184.231,4177.0509999999995,4170.513,4172.179,4181.41,4177.692,4174.359,4169.615,4170.0,4159.615,4165.897,4131.282,0,0
138,42,0,0,4174.487,4174.231,4183.974,4168.974,4170.128,4167.692,4187.0509999999995,4173.205,4181.154,4170.128,4166.538,4158.718,4169.103,4126.795,0,0
139,43,0,0,4169.359,4167.564,4186.795,4169.231,4167.179,4166.923,4177.564,4170.769,4176.154,4165.0,4167.308,4161.795,4169.872,4132.308,0,0
140,44,0,0,4171.026,4172.436,4188.59,4174.231,4176.026,4170.769,4172.9490000000005,4177.692,4170.897,4178.205,4179.103,4169.615,4175.385,4140.255999999999,0,0
141,45,0,0,4179.744000000001,4180.385,4186.923,4172.179,4186.41,4171.538,4182.179,4184.231,4179.615,4188.718,4189.615,4174.872,4180.385,4142.821,0,0
142,46,0,0,4175.385,4174.359,4185.0,4167.436,4176.538,4173.59,4183.846,4183.718,4187.179,4183.718,4187.308,4173.077,4178.846,4140.385,0,0
143,47,0,0,4169.872,4169.359,4185.897,4171.41,4173.205,4182.564,4180.641,4184.744000000001,4184.487,4183.846,4187.0509999999995,4171.282,4176.795,4139.744000000001,0,0
144,48,0,0,4175.641,4178.718,4187.9490000000005,4181.923,4183.974,4189.359,4183.974,4190.641,4184.487,4189.487,4190.385,4172.564,4179.744000000001,4143.205,0,0
145,49,0,0,4179.615,4184.359,4188.59,4185.769,4186.923,4182.692,4183.077,4189.103,4186.282,4185.255999999999,4184.487,4173.333,4179.231,4143.205,0,0
146,50,0,0,4176.026,4177.308,4186.41,4182.0509999999995,4183.077,4170.769,4177.0509999999995,4180.385,4182.564,4171.026,4176.154,4170.255999999999,4170.641,4140.897,0,0
147,51,0,0,4180.385,4180.897,4185.769,4184.231,4184.872,4171.538,4182.821,4181.41,4181.667,4167.308,4182.436,4172.179,4167.308,4146.923,0,0
148,52,0,0,4189.359,4189.487,4187.179,4188.462,4189.872,4176.026,4184.231,4181.795,4177.308,4174.615,4190.769,4177.821,4171.923,4151.41,0,0
149,53,0,0,4179.487,4178.846,4184.872,4183.718,4182.821,4172.692,4172.564,4175.0,4170.385,4172.436,4179.487,4171.538,4164.231,4139.872,0,0
150,54,0,0,4169.615,4170.513,4184.231,4181.282,4173.333,4169.231,4168.462,4176.154,4174.231,4165.769,4173.846,4166.154,4156.667,4133.846,0,0
151,55,0,0,4181.538,4183.077,4188.846,4185.641,4182.308,4169.359,4172.9490000000005,4183.846,4182.308,4175.255999999999,4190.769,4171.026,4173.333,4146.538,0,0
152,56,0,0,4191.026,4190.897,4188.846,4185.769,4187.308,4169.231,4172.692,4185.255999999999,4185.385,4188.077,4197.692,4172.821,4184.359,4153.462,0,0
153,57,0,0,4184.103,4183.718,4186.282,4183.462,4169.615,4169.359,4171.282,4183.846,4184.103,4187.179,4184.872,4171.282,4171.41,4148.077,0,0
154,58,0,0,4183.205,4184.487,4190.0,4185.0,4165.128,4166.282,4171.154,4185.385,4179.872,4184.487,4183.59,4171.923,4168.846,4148.333,0,0
155,59,0,0,4191.154,4195.0,4193.462,4186.538,4188.846,4163.205,4172.179,4185.385,4178.718,4188.205,4193.333,4172.821,4182.436,4155.128,0,0
156,60,0,0,4190.255999999999,4193.462,4191.667,4185.513,4200.513,4173.974,4178.846,4182.692,4178.718,4188.077,4190.0,4174.103,4181.154,4157.564,0,0
157,61,0,0,4185.897,4186.923,4188.718,4186.026,4190.513,4186.795,4183.846,4183.077,4175.128,4185.385,4183.205,4175.513,4169.615,4155.513,0,0
158,62,0,0,4185.128,4187.821,4186.923,4187.308,4185.255999999999,4180.897,4182.692,4185.641,4173.718,4183.333,4185.641,4172.9490000000005,4170.385,4149.103,0,0
159,63,0,0,4181.667,4186.154,4186.795,4185.641,4190.385,4172.821,4183.846,4184.872,4180.641,4175.641,4187.436,4170.769,4173.718,4142.821,0,0
160,64,0,2106,4179.231,4181.282,4187.9490000000005,4186.538,4194.103,4181.282,4188.59,4183.333,4182.0509999999995,4169.487,4182.308,4173.846,4170.897,4147.0509999999995,0,0
161,65,0,2567,4182.179,4181.667,4184.103,4189.872,4195.769,4190.0,4189.231,4184.359,4176.795,4170.255999999999,4175.0,4173.974,4170.385,4150.641,0,0
162,66,0,2952,4180.513,4184.231,4180.255999999999,4186.154,4192.9490000000005,4187.692,4186.667,4184.872,4180.0,4170.513,4173.462,4169.103,4172.564,4143.462,0,0
163,67,0,3056,4175.513,4185.128,4184.231,4182.179,4189.103,4183.718,4185.513,4184.615,4184.615,4175.513,4180.0,4167.179,4174.744000000001,4143.59,0,0
164,68,0,3535,4180.0,4188.333,4187.821,4192.9490000000005,4191.923,4180.128,4185.385,4186.41,4184.744000000001,4185.255999999999,4182.9490000000005,4168.974,4180.385,4150.0,0,0
165,69,0,2046,4187.564,4187.692,4186.667,4200.513,4195.0,4177.436,4184.872,4187.9490000000005,4182.821,4187.564,4178.718,4170.897,4182.308,4149.744000000001,0,0
166,70,0,2463,4186.282,4185.0,4184.359,4191.41,4190.0,4181.026,4181.923,4186.282,4182.692,4187.308,4180.513,4171.026,4181.282,4148.59,0,0
167,71,0,1730,4179.103,4186.795,4184.231,4190.769,4192.821,4186.026,4183.333,4185.769,4185.897,4184.231,4186.282,4172.0509999999995,4186.026,4149.615,0,0
168,72,0,1348,4172.692,4187.436,4183.462,4201.923,4193.974,4186.795,4188.333,4185.255999999999,4182.821,4171.667,4177.9490000000005,4170.385,4181.538,4143.333,0,0
169,73,0,3527,4171.795,4183.59,4182.821,4206.538,4181.923,4185.0,4182.564,4180.128,4176.026,4167.9490000000005,4166.923,4167.436,4172.0509999999995,4136.538,0,0
170,74,0,3117,4172.179,4182.436,4183.59,4197.821,4178.333,4180.897,4171.795,4176.795,4178.333,4180.513,4173.333,4165.0,4174.487,4144.231,0,0
171,75,0,3414,4170.769,4183.974,4184.359,4187.821,4182.308,4180.0,4174.359,4180.255999999999,4184.231,4186.667,4182.692,4165.897,4176.282,4153.846,0,0
172,76,0,3203,4176.795,4186.41,4185.769,4190.128,4182.308,4187.0509999999995,4183.205,4183.974,4181.538,4184.872,4179.872,4170.0,4176.923,4154.359,0,0
173,77,0,1766,4186.538,4187.436,4186.026,4197.0509999999995,4185.513,4185.769,4178.846,4183.333,4182.308,4184.231,4174.615,4171.282,4182.692,4154.359,0,0
174,78,0,3117,4185.385,4186.923,4186.026,4197.436,4192.564,4173.077,4175.255999999999,4182.179,4184.615,4175.769,4172.436,4169.359,4179.103,4154.487,0,0
175,79,0,3414,4183.59,4187.9490000000005,4191.154,4195.513,4192.692,4167.308,4180.128,4182.308,4177.436,4165.897,4171.282,4171.538,4170.0,4153.59,0,0
176,80,0,3203,4189.744000000001,4192.179,4197.179,4198.846,4190.769,4173.59,4179.744000000001,4184.744000000001,4178.077,4173.718,4176.538,4175.897,4174.872,4161.923,0,0
177,81,0,1766,4188.462,4189.744000000001,4191.282,4196.026,4188.077,4173.077,4172.564,4184.103,4183.59,4173.974,4180.897,4173.59,4179.744000000001,4165.513,0,0
178,82,0,3117,4172.692,4180.769,4176.282,4185.769,4175.385,4166.41,4169.615,4177.179,4177.308,4154.872,4170.128,4163.59,4168.333,4147.308,0,0
179,83,0,3414,4165.641,4176.795,4176.154,4184.359,4168.718,4167.308,4172.0509999999995,4173.59,4169.872,4153.462,4162.821,4163.59,4162.9490000000005,4138.59,0,0
180,84,0,3203,4171.026,4175.513,4182.821,4186.41,4171.667,4169.615,4171.538,4173.59,4170.0,4163.846,4170.128,4167.564,4168.974,4148.205,0,0
181,85,0,1766,4167.179,4170.897,4180.769,4179.359,4171.282,4170.0,4168.59,4171.538,4170.769,4156.923,4170.513,4163.077,4166.282,4143.59,0,0
182,86,0,3117,4160.0,4168.846,4175.769,4174.487,4166.026,4171.538,4167.9490000000005,4171.667,4170.513,4157.0509999999995,4163.974,4156.923,4157.436,4136.795,0,0
183,87,0,3414,4164.744000000001,4171.667,4177.821,4180.513,4167.821,4168.205,4170.897,4173.077,4173.333,4170.513,4166.795,4160.513,4161.923,4144.872,0,0
184,88,0,3203,4171.154,4172.179,4182.9490000000005,4184.615,4164.103,4154.231,4169.615,4170.769,4172.179,4171.41,4167.179,4163.846,4169.103,4143.205,0,0
185,89,0,1766,4170.513,4169.872,4180.513,4184.231,4148.077,4146.538,4166.026,4169.487,4170.769,4164.744000000001,4162.436,4160.255999999999,4162.9490000000005,4140.255999999999,0,0
186,90,0,3117,4168.077,4173.333,4177.692,4186.154,4152.0509999999995,4157.436,4167.0509999999995,4169.487,4171.538,4158.974,4163.462,4156.41,4156.923,4150.385,0,0
187,91,0,3414,4174.872,4183.077,4185.513,4192.564,4178.718,4169.744000000001,4171.026,4171.538,4171.923,4160.513,4169.872,4160.255999999999,4165.385,4157.692,0,0
188,92,0,3203,4184.359,4188.974,4190.255999999999,4196.154,4191.538,4174.615,4174.615,4176.538,4172.821,4169.615,4172.9490000000005,4168.59,4172.179,4156.923,0,0
189,93,0,1766,4176.923,4184.744000000001,4180.641,4189.487,4184.231,4175.513,4173.077,4175.128,4171.282,4167.564,4169.487,4163.59,4164.359,4153.333,0,0
190,94,0,3117,4164.872,4180.769,4177.9490000000005,4183.205,4182.9490000000005,4171.667,4170.128,4169.359,4167.821,4155.641,4160.128,4157.0509999999995,4155.641,4148.846,0,0
191,95,0,3414,4175.897,4183.846,4188.205,4187.308,4186.538,4166.538,4170.897,4168.974,4168.205,4155.0,4157.179,4167.821,4160.385,4151.41,0,0
192,96,0,3203,4187.308,4186.667,4190.0,4190.255999999999,4180.513,4167.0509999999995,4173.077,4172.821,4172.821,4161.41,4166.154,4174.872,4168.718,4159.359,0,0
193,97,0,1766,4180.769,4185.385,4186.154,4192.436,4178.205,4172.179,4174.103,4174.231,4174.103,4166.282,4172.436,4168.846,4169.359,4157.436,0,0
194,98,0,3117,4176.538,4183.974,4187.692,4195.769,4181.667,4172.179,4174.103,4172.0509999999995,4170.0,4167.9490000000005,4169.872,4165.641,4163.462,4152.179,0,0
195,99,0,3414,4182.564,4185.255999999999,4190.641,4192.308,4181.026,4167.0509999999995,4171.154,4170.0,4169.103,4163.205,4165.769,4166.154,4158.59,4154.231,0,0
196,100,0,3203,4183.846,4186.282,4191.154,4187.564,4178.59,4165.385,4167.564,4171.026,4172.9490000000005,4161.795,4166.41,4165.128,4160.897,4157.821,0,0
197,101,0,1766,4176.795,4185.128,4187.564,4186.154,4184.615,4168.462,4174.615,4172.308,4172.821,4165.255999999999,4167.692,4164.615,4165.128,4156.41,0,0
198,102,0,3117,4174.872,4185.385,4187.179,4184.359,4188.846,4173.462,4182.179,4173.205,4171.154,4170.513,4169.359,4163.59,4167.436,4153.846,0,0
199,103,0,3414,4184.103,4191.667,4194.103,4187.0509999999995,4178.846,4170.897,4177.564,4177.0509999999995,4179.615,4176.41,4173.333,4168.846,4171.282,4159.872,0,0
200,104,0,3203,4187.564,4196.667,4192.821,4192.692,4170.769,4167.564,4174.103,4176.538,4182.179,4173.974,4173.846,4171.41,4171.41,4163.462,0,0
201,105,0,1766,4177.821,4192.0509999999995,4185.255999999999,4190.255999999999,4182.564,4177.0509999999995,4180.897,4172.436,4173.974,4169.231,4169.615,4165.897,4168.205,4156.923,0,0
202,106,0,3117,4177.436,4186.41,4187.308,4186.026,4199.615,4183.205,4188.59,4173.59,4175.513,4170.513,4168.59,4168.333,4171.538,4154.872,0,0
203,107,0,3414,4180.897,4186.667,4189.744000000001,4185.897,4194.615,4172.564,4184.487,4174.359,4180.255999999999,4170.0,4168.718,4170.769,4172.0509999999995,4154.359,0,0
204,108,0,3203,4172.692,4183.59,4183.077,4184.359,4183.718,4165.641,4175.769,4175.385,4178.077,4169.103,4167.564,4160.769,4166.538,4145.128,0,0
205,109,0,1766,4162.9490000000005,4176.026,4178.59,4179.872,4182.0509999999995,4172.308,4173.59,4177.9490000000005,4180.769,4167.179,4164.872,4156.026,4167.179,4138.718,0,0
206,110,0,3117,4161.41,4171.41,4176.923,4178.846,4175.385,4173.333,4175.128,4174.487,4185.0,4163.718,4158.462,4158.974,4171.154,4138.205,0,0
207,111,0,3414,4165.0,4171.667,4169.487,4183.462,4169.103,4166.795,4173.846,4169.872,4179.103,4165.641,4155.255999999999,4158.59,4169.103,4139.615,0,0
208,112,0,3203,4168.333,4177.436,4168.333,4184.615,4176.282,4169.487,4171.41,4170.769,4177.692,4169.487,4163.718,4159.359,4167.821,4147.692,0,0
209,113,0,1766,4171.538,4181.667,4177.436,4180.641,4180.641,4174.872,4172.564,4174.103,4180.385,4172.564,4168.59,4158.974,4170.769,4152.821,0,0
210,114,0,3117,4171.154,4179.615,4180.385,4180.255999999999,4170.769,4165.897,4169.872,4176.795,4176.538,4170.897,4162.436,4154.744000000001,4168.333,4150.385,0,0
211,115,0,3414,4171.667,4177.9490000000005,4178.974,4182.692,4166.026,4154.615,4165.255999999999,4175.897,4170.641,4157.821,4162.179,4157.821,4165.513,4150.897,0,0
212,116,0,3203,4171.282,4176.538,4178.333,4177.692,4169.103,4160.255999999999,4166.282,4172.0509999999995,4169.359,4149.487,4171.667,4161.154,4167.692,4148.846,0,0
213,117,0,1766,4169.359,4171.795,4177.179,4174.103,4168.718,4170.769,4167.692,4171.667,4177.564,4159.872,4166.538,4158.077,4165.769,4143.205,0,0
214,118,0,3117,4170.255999999999,4172.179,4179.359,4181.026,4175.641,4171.795,4170.769,4173.974,4182.179,4172.564,4151.667,4156.923,4167.179,4147.308,0,0
215,119,0,3414,4172.308,4180.385,4184.872,4190.769,4184.359,4170.897,4175.769,4173.205,4181.154,4171.795,4156.026,4161.026,4176.667,4154.744000000001,0,0
216,120,0,3203,4173.59,4185.513,4187.436,4199.359,4180.513,4171.154,4176.667,4172.9490000000005,4180.128,4163.59,4169.103,4163.718,4177.821,4155.513,0,0
217,121,0,1766,4171.154,4184.744000000001,4180.897,4203.718,4180.513,4169.359,4171.41,4173.462,4176.282,4158.718,4169.103,4159.487,4169.487,4155.513,0,0
218,122,0,3117,4168.718,4183.077,4176.667,4198.59,4184.615,4171.026,4167.179,4172.308,4170.769,4163.205,4170.0,4157.692,4169.359,4154.359,0,0
219,123,0,3414,4171.154,4185.385,4176.795,4192.564,4176.795,4167.821,4169.487,4173.077,4172.308,4174.359,4176.282,4161.282,4175.128,4154.231,0,0
220,124,0,3203,4173.077,4182.436,4175.513,4190.897,4170.513,4157.308,4171.026,4173.59,4174.615,4175.255999999999,4172.9490000000005,4163.462,4167.436,4157.564,0,0
221,125,0,1766,4168.846,4172.308,4170.385,4185.385,4175.128,4157.179,4168.59,4170.385,4168.462,4161.923,4176.282,4159.359,4158.462,4157.179,0,0
222,126,0,3117,4161.923,4167.9490000000005,4166.282,4177.436,4173.205,4166.282,4168.333,4167.821,4166.795,4151.41,4183.077,4156.667,4162.436,4150.0,0,0
223,127,0,53,4161.795,4169.359,4165.897,4176.795,4170.513,4168.462,4170.385,4169.872,4170.641,4157.0509999999995,4171.282,4157.0509999999995,4168.59,4146.667,0,0
224,0,0,2105,4168.333,4175.0,4168.205,4185.385,4177.564,4165.0,4172.308,4172.436,4173.077,4168.333,4169.231,4157.692,4169.872,4154.872,0,0
225,1,0,2563,4172.9490000000005,4182.308,4173.077,4189.103,4181.026,4167.9490000000005,4170.255999999999,4171.795,4171.795,4168.59,4183.59,4158.974,4166.923,4159.872,0,0
226,2,0,2952,4168.846,4181.154,4174.487,4184.615,4177.436,4171.667,4166.41,4169.744000000001,4169.487,4167.308,4183.718,4160.641,4163.718,4152.821,0,0
227,3,0,3054,4168.333,4177.821,4172.692,4186.154,4179.744000000001,4170.0,4166.154,4168.974,4172.692,4167.821,4176.282,4160.769,4167.821,4153.333,0,0
228,4,0,3528,4175.641,4181.026,4177.692,4191.538,4180.513,4168.846,4170.641,4171.026,4174.615,4168.59,4183.205,4162.436,4176.923,4166.923,0,0
229,5,0,2044,4176.923,4181.026,4182.179,4189.103,4176.667,4169.359,4173.846,4175.769,4174.231,4170.513,4192.436,4166.795,4175.769,4173.333,0,0
230,6,0,2454,4175.255999999999,4178.59,4178.462,4188.59,4176.667,4168.974,4171.923,4173.462,4175.0,4168.846,4191.154,4165.769,4168.59,4165.385,0,0
231,7,0,1722,4179.231,4184.615,4173.205,4195.0,4174.359,4169.744000000001,4172.692,4169.872,4178.846,4169.615,4189.231,4164.744000000001,4167.9490000000005,4162.0509999999995,0,0
232,8,0,1338,4184.231,4191.282,4175.897,4198.846,4172.0509999999995,4173.333,4176.538,4176.538,4180.255999999999,4176.667,4188.333,4168.59,4170.513,4175.0,0,0
233,9,0,3520,4184.615,4190.128,4185.385,4202.179,4180.641,4171.795,4179.615,4181.923,4175.513,4179.231,4189.359,4171.667,4172.436,4183.462,0,0
234,10,0,3109,4183.333,4186.282,4185.255999999999,4203.077,4189.744000000001,4166.41,4183.077,4176.026,4173.205,4172.9490000000005,4194.487,4168.333,4173.205,4174.359,0,0
235,11,0,3404,4182.308,4184.359,4172.9490000000005,4196.026,4176.538,4165.897,4181.41,4171.026,4172.9490000000005,4168.59,4195.255999999999,4165.128,4171.154,4163.59,0,0
236,12,0,3195,4183.59,4189.744000000001,4171.795,4192.9490000000005,4165.769,4171.154,4176.026,4172.308,4169.615,4175.385,4190.513,4167.179,4168.974,4168.846,0,0
237,13,0,1763,4188.59,4198.077,4184.359,4199.615,4182.0509999999995,4176.282,4173.333,4172.308,4171.667,4180.128,4186.282,4171.282,4169.231,4178.077,0,0
238,14,0,3109,4187.821,4198.333,4182.9490000000005,4203.59,4197.179,4180.128,4173.205,4171.795,4175.128,4174.359,4186.538,4167.564,4175.385,4175.641,0,0
239,15,0,3404,4181.41,4189.615,4170.769,4197.308,4189.744000000001,4181.923,4171.282,4172.436,4171.282,4168.462,4185.0,4158.59,4180.641,4164.231,0,0
240,16,0,0,4172.692,4176.923,4169.103,4188.333,4174.615,4177.564,4170.128,4172.179,4175.513,4168.205,4176.41,4157.436,4175.897,4153.59,0,0
241,17,0,0,4160.897,4168.974,4168.718,4184.103,4170.897,4170.513,4172.564,4173.077,4184.615,4165.641,4170.0,4161.667,4168.974,4151.282,0,0
242,18,0,0,4155.0,4168.333,4167.308,4182.9490000000005,4170.385,4168.846,4173.462,4172.9490000000005,4176.538,4165.255999999999,4174.615,4159.872,4168.974,4153.974,0,0
243,19,0,0,4161.538,4170.255999999999,4170.769,4182.0509999999995,4170.128,4171.41,4174.487,4172.564,4167.692,4172.9490000000005,4186.154,4160.255999999999,4170.769,4155.128,0,0
244,20,0,0,4168.59,4173.333,4171.795,4183.846,4172.564,4170.385,4171.795,4173.846,4177.0509999999995,4175.0,4188.077,4163.718,4167.821,4157.436,0,0
245,21,0,0,4168.974,4179.487,4171.538,4185.128,4176.923,4169.231,4168.205,4171.795,4181.795,4169.359,4183.846,4163.205,4167.564,4161.026,0,0
246,22,0,0,4171.538,4184.744000000001,4178.077,4183.462,4182.436,4170.897,4171.923,4171.923,4173.077,4166.667,4182.0509999999995,4158.846,4172.0509999999995,4159.744000000001,0,0
247,23,0,0,4173.333,4184.487,4184.103,4189.872,4170.641,4171.282,4179.744000000001,4177.179,4174.487,4172.308,4184.359,4160.0,4172.308,4161.154,0,0
248,24,0,0,4169.487,4181.026,4182.0509999999995,4200.255999999999,4156.026,4172.436,4181.923,4175.641,4184.231,4180.0,4184.231,4164.231,4171.154,4169.359,0,0
249,25,0,0,4173.333,4177.821,4178.718,4200.897,4168.846,4170.641,4180.513,4174.359,4185.385,4183.077,4180.897,4161.282,4173.077,4168.205,0,0
250,26,0,0,4182.821,4180.513,4181.795,4200.641,4186.667,4167.692,4181.923,4177.692,4180.641,4183.077,4184.744000000001,4160.513,4176.41,4165.255999999999,0,0
251,27,0,0,4186.026,4189.615,4187.564,4211.026,4183.974,4168.718,4183.718,4177.0509999999995,4181.154,4185.0,4191.538,4166.026,4178.205,4174.487,0,0
252,28,0,0,4185.128,4191.667,4189.615,4220.0,4175.897,4164.744000000001,4185.513,4178.974,4184.231,4182.0509999999995,4186.41,4168.462,4175.641,4178.333,0,0
253,29,0,0,4187.179,4187.821,4189.231,4218.077,4174.872,4159.744000000001,4185.385,4182.308,4185.769,4173.59,4181.795,4166.795,4171.41,4172.308,0,0
254,30,0,0,4184.359,4187.308,4185.513,4211.154,4172.436,4164.744000000001,4177.564,4176.026,4179.615,4170.513,4185.769,4167.308,4172.436,4171.282,0,0
255,31,0,0,4176.538,4185.255999999999,4182.436,4205.385,4169.744000000001,4169.231,4175.128,4173.59,4173.59,4172.308,4185.128,4166.41,4174.231,4170.255999999999,0,0
256,32,0,0,4179.103,4183.974,4185.641,4202.9490000000005,4169.872,4165.769,4180.513,4179.487,4183.59,4174.359,4181.154,4165.513,4171.282,4171.026,0,0
257,33,0,0,4186.795,4188.077,4182.179,4201.538,4171.282,4167.564,4177.436,4175.769,4185.769,4175.641,4177.821,4164.487,4168.974,4173.974,0,0
258,34,0,0,4179.744000000001,4185.769,4172.308,4201.154,4174.231,4173.077,4173.59,4173.59,4171.923,4167.9490000000005,4169.744000000001,4159.487,4166.923,4163.333,0,0
259,35,0,0,4166.923,4177.0509999999995,4172.821,4200.0,4170.641,4171.923,4180.128,4182.308,4171.282,4154.615,4171.41,4157.0509999999995,4165.255999999999,4151.282,0,0
260,36,0,0,4168.077,4181.154,4182.179,4198.846,4167.692,4168.59,4185.513,4184.615,4183.718,4158.077,4184.487,4162.308,4169.231,4161.795,0,0
261,37,0,0,4172.436,4187.692,4181.667,4199.231,4168.718,4167.436,4184.615,4182.564,4184.103,4171.667,4180.641,4165.0,4169.487,4172.436,0,0
262,38,0,0,4169.744000000001,4184.231,4176.026,4200.255999999999,4168.077,4172.821,4187.308,4183.077,4179.359,4171.795,4169.103,4160.128,4166.026,4166.41,0,0
263,39,0,0,4171.026,4185.0,4180.0,4200.255999999999,4170.128,4176.795,4188.59,4181.923,4182.179,4167.0509999999995,4179.872,4163.974,4167.179,4165.769,0,0
264,40,0,0,4177.564,4189.487,4185.255999999999,4197.9490000000005,4178.59,4170.385,4182.821,4181.282,4182.308,4170.128,4191.667,4171.667,4169.103,4178.462,0,0
265,41,0,0,4181.154,4189.359,4185.255999999999,4198.333,4186.282,4165.0,4182.0509999999995,4181.282,4181.282,4174.615,4189.487,4172.436,4167.9490000000005,4186.795,0,0
266,42,0,0,4184.487,4187.436,4186.026,4199.615,4186.282,4166.026,4182.308,4176.026,4183.205,4178.462,4192.308,4171.41,4167.308,4184.872,0,0
267,43,0,0,4186.282,4187.821,4188.974,4196.538,4183.462,4168.077,4175.385,4170.0,4178.974,4184.615,4193.462,4172.179,4168.846,4184.359,0,0
268,44,0,0,4184.615,4192.564,4188.333,4193.333,4183.718,4166.026,4171.923,4171.667,4174.487,4186.667,4183.333,4172.436,4170.385,4185.513,0,0
269,45,0,0,4184.615,4195.769,4190.128,4196.667,4188.846,4168.205,4181.026,4175.513,4181.282,4184.359,4185.0,4173.718,4170.0,4184.359,0,0
270,46,0,0,4187.308,4195.897,4196.795,4201.026,4188.333,4175.897,4187.179,4174.231,4187.564,4182.308,4199.103,4175.769,4174.359,4191.026,0,0
271,47,0,0,4190.769,4194.744000000001,4200.128,4198.205,4175.255999999999,4176.538,4184.487,4174.872,4183.59,4183.333,4205.769,4177.436,4182.308,4199.103,0,0
272,48,0,0,4189.744000000001,4193.59,4197.436,4193.077,4176.282,4168.718,4183.718,4181.282,4182.821,4186.282,4199.615,4178.718,4179.744000000001,4193.846,0,0
273,49,0,0,4186.667,4190.769,4195.641,4188.974,4188.59,4163.462,4180.897,4184.615,4183.59,4188.077,4189.231,4175.641,4171.41,4186.667,0,0
274,50,0,0,4184.359,4186.795,4193.846,4184.487,4178.333,4166.538,4172.821,4178.077,4173.974,4179.872,4183.333,4166.026,4169.872,4184.231,0,0
275,51,0,0,4177.436,4182.821,4186.41,4180.769,4163.974,4173.333,4168.974,4170.897,4166.923,4165.128,4181.41,4159.744000000001,4167.692,4174.744000000001,0,0
276,52,0,0,4174.615,4183.077,4182.564,4181.282,4175.513,4176.538,4170.897,4175.897,4174.872,4170.255999999999,4183.077,4163.718,4167.9490000000005,4176.282,0,0
277,53,0,0,4183.846,4187.9490000000005,4189.231,4186.026,4187.9490000000005,4172.9490000000005,4172.821,4184.615,4183.974,4188.846,4193.077,4172.0509999999995,4174.744000000001,4193.846,0,0
278,54,0,0,4189.103,4187.179,4194.487,4186.667,4183.59,4169.103,4174.615,4183.077,4182.9490000000005,4187.9490000000005,4203.718,4173.846,4175.255999999999,4192.308,0,0
279,55,0,0,4185.128,4187.564,4197.436,4185.0,4180.513,4172.308,4180.0,4179.487,4179.359,4180.255999999999,4199.872,4173.077,4172.308,4179.872,0,0
280,56,0,0,4183.59,4188.718,4200.513,4184.615,4180.513,4172.308,4186.154,4183.59,4181.538,4184.359,4190.641,4174.487,4174.872,4185.385,0,0
281,57,0,0,4183.205,4185.128,4193.974,4183.974,4183.077,4170.769,4187.0509999999995,4185.255999999999,4185.641,4186.795,4193.205,4171.667,4175.128,4192.564,0,0
282,58,0,0,4183.974,4185.769,4190.897,4183.462,4183.59,4172.564,4184.744000000001,4180.255999999999,4181.795,4183.718,4200.0,4172.564,4170.128,4190.255999999999,0,0
283,59,0,0,4187.9490000000005,4188.077,4198.718,4185.513,4175.769,4172.179,4185.385,4177.564,4175.897,4185.769,4202.692,4177.179,4169.103,4188.333,0,0
284,60,0,0,4186.41,4183.718,4199.103,4185.641,4170.641,4168.333,4185.255999999999,4178.077,4179.231,4186.026,4199.872,4175.0,4169.487,4184.487,0,0
285,61,0,0,4183.974,4183.846,4191.923,4186.795,4181.154,4167.9490000000005,4187.564,4175.897,4185.897,4185.385,4198.59,4172.821,4170.255999999999,4188.718,0,0
286,62,0,0,4187.179,4190.0,4188.974,4188.462,4190.897,4170.897,4188.077,4173.59,4184.872,4188.974,4201.41,4174.615,4173.718,4196.667,0,0
287,63,0,0,4186.667,4186.795,4183.077,4181.667,4180.255999999999,4171.41,4176.923,4172.436,4182.0509999999995,4189.359,4201.667,4170.385,4172.0509999999995,4187.692,0,0
288,64,0,2101,4178.718,4182.436,4177.179,4174.744000000001,4164.744000000001,4169.487,4166.026,4171.538,4183.205,4185.641,4195.641,4165.641,4166.282,4177.821,0,0
289,65,0,2562,4177.436,4187.436,4180.897,4173.205,4166.41,4165.0,4169.744000000001,4172.0509999999995,4181.795,4184.615,4188.718,4170.128,4170.897,4185.897,0,0
290,66,0,2947,4179.744000000001,4183.205,4184.487,4168.846,4174.231,4163.718,4174.487,4173.205,4178.974,4184.744000000001,4187.179,4171.282,4179.487,4188.077,0,0
291,67,0,3049,4177.179,4174.231,4183.846,4167.821,4173.718,4169.872,4169.872,4173.59,4182.564,4188.205,4187.308,4170.0,4176.667,4177.564,0,0
292,68,0,3528,4170.128,4174.103,4176.667,4169.231,4172.0509999999995,4166.538,4167.0509999999995,4173.974,4183.462,4186.795,4187.564,4170.255999999999,4167.308,4171.667,0,0
293,69,0,2044,4164.487,4174.231,4167.821,4168.077,4168.333,4156.026,4165.385,4171.282,4171.923,4171.923,4185.0,4165.255999999999,4162.564,4167.0509999999995,0,0
294,70,0,2453,4170.385,4178.462,4169.744000000001,4176.41,4169.487,4163.59,4167.821,4171.41,4170.128,4166.667,4181.923,4158.974,4165.513,4171.538,0,0
295,71,0,1718,4181.026,4188.462,4180.513,4184.615,4183.59,4175.513,4173.974,4176.026,4185.641,4181.282,4185.128,4164.872,4176.154,4181.795,0,0
296,72,0,1338,4182.564,4188.974,4183.846,4174.487,4191.282,4172.692,4173.205,4175.255999999999,4185.769,4190.641,4192.821,4170.385,4184.744000000001,4180.385,0,0
297,73,0,3516,4178.333,4183.718,4180.769,4167.308,4187.692,4170.255999999999,4169.359,4169.872,4172.179,4182.821,4192.179,4168.333,4185.128,4176.026,0,0
298,74,0,3106,4182.0509999999995,4186.154,4185.255999999999,4173.205,4186.538,4171.795,4170.513,4171.026,4174.615,4180.128,4185.513,4168.718,4184.487,4183.59,0,0
299,75,0,3399,4183.846,4186.026,4189.103,4172.179,4183.077,4167.179,4171.282,4175.769,4179.872,4187.179,4187.436,4170.255999999999,4180.897,4188.974,0,0
300,76,0,3191,4180.128,4182.436,4187.436,4171.154,4173.59,4164.872,4169.359,4180.513,4178.077,4188.462,4191.154,4170.769,4170.641,4183.718,0,0
301,77,0,1763,4183.59,4186.026,4192.692,4178.462,4167.436,4167.0509999999995,4171.026,4187.0509999999995,4181.282,4187.692,4185.897,4173.974,4170.385,4185.897,0,0
302,78,0,3106,4185.513,4185.769,4196.795,4179.103,4169.231,4166.026,4171.282,4182.0509999999995,4182.0509999999995,4186.923,4175.128,4173.462,4179.359,4188.462,0,0
303,79,0,3399,4181.026,4184.231,4187.179,4173.718,4181.282,4167.0509999999995,4170.897,4171.538,4181.538,4183.718,4171.667,4170.385,4178.333,4181.282,0,0
304,80,0,3191,4177.308,4185.641,4180.641,4170.769,4187.308,4171.923,4173.974,4174.487,4186.795,4188.077,4179.615,4166.667,4175.769,4177.308,0,0
305,81,0,1763,4175.385,4186.282,4187.308,4172.308,4180.513,4165.513,4172.564,4178.077,4181.923,4192.436,4181.41,4164.744000000001,4181.026,4178.846,0,0
306,82,0,3106,4171.667,4183.974,4185.255999999999,4173.077,4182.9490000000005,4155.128,4168.077,4171.923,4168.59,4180.385,4173.718,4163.205,4181.282,4172.9490000000005,0,0
307,83,0,3399,4170.255999999999,4183.59,4172.821,4171.795,4192.692,4161.282,4175.897,4175.255999999999,4168.846,4175.769,4172.436,4162.308,4177.0509999999995,4165.0,0,0
308,84,0,3191,4168.333,4185.385,4166.923,4170.255999999999,4191.41,4166.923,4182.179,4183.205,4175.385,4186.667,4178.077,4159.359,4180.769,4164.487,0,0
309,85,0,1763,4164.103,4181.154,4169.615,4168.333,4183.333,4159.744000000001,4173.333,4178.077,4172.308,4182.179,4172.436,4159.872,4183.077,4164.872,0,0
310,86,0,3106,4165.641,4177.821,4175.0,4168.205,4185.128,4163.077,4173.59,4177.0509999999995,4169.359,4181.282,4169.487,4162.9490000000005,4183.205,4166.026,0,0
311,87,0,3399,4170.255999999999,4181.154,4175.0,4169.359,4195.0,4175.0,4185.769,4185.897,4173.205,4200.385,4179.359,4162.564,4190.641,4168.846,0,0
312,88,0,3191,4169.744000000001,4185.897,4170.513,4172.564,4198.718,4172.821,4190.385,4182.179,4173.333,4199.359,4178.333,4162.692,4188.846,4170.385,0,0
313,89,0,1763,4170.255999999999,4187.0509999999995,4172.564,4177.821,4195.897,4170.0,4183.846,4170.641,4167.9490000000005,4182.308,4170.641,4163.718,4180.897,4172.564,0,0
314,90,0,3106,4169.103,4180.385,4177.692,4177.564,4191.795,4175.0,4173.462,4169.231,4165.255999999999,4177.436,4170.0,4160.641,4178.333,4164.615,0,0
315,91,0,3399,4166.41,4176.795,4177.564,4179.103,4188.462,4170.0,4168.59,4171.41,4166.667,4180.128,4171.795,4156.538,4180.255999999999,4157.821,0,0
316,92,0,3191,4174.231,4183.974,4182.308,4183.974,4188.205,4167.308,4174.231,4170.128,4168.718,4185.385,4172.9490000000005,4160.385,4183.59,4168.333,0,0
317,93,0,1763,4179.487,4188.718,4183.718,4179.744000000001,4187.0509999999995,4175.128,4176.667,4169.487,4168.462,4187.9490000000005,4172.308,4166.026,4185.897,4175.513,0,0
318,94,0,3106,4169.487,4181.795,4174.744000000001,4173.718,4178.333,4175.385,4170.0,4170.255999999999,4165.769,4180.513,4170.641,4165.769,4181.538,4167.9490000000005,0,0
319,95,0,3399,4171.026,4183.333,4175.128,4182.308,4182.564,4169.487,4170.255999999999,4172.821,4166.667,4181.026,4175.641,4165.0,4179.615,4170.513,0,0
320,96,0,3191,4183.333,4187.692,4185.0,4183.846,4194.103,4168.846,4172.308,4173.846,4168.205,4183.462,4182.692,4166.41,4186.154,4180.513,0,0
321,97,0,1763,4178.59,4180.255999999999,4179.103,4170.0,4190.897,4171.282,4168.846,4171.154,4164.103,4174.872,4177.308,4165.128,4185.513,4182.564,0,0
322,98,0,3106,4169.103,4178.718,4169.615,4167.692,4188.846,4176.026,4172.436,4169.744000000001,4163.718,4178.718,4171.026,4162.308,4183.718,4179.744000000001,0,0
323,99,0,3399,4173.077,4183.077,4178.718,4172.9490000000005,4193.205,4183.462,4180.641,4172.436,4168.59,4190.255999999999,4172.9490000000005,4161.41,4186.154,4175.255999999999,0,0
324,100,0,3191,4176.538,4183.462,4189.231,4172.0509999999995,4193.462,4187.308,4187.0509999999995,4175.513,4169.231,4183.846,4175.897,4162.692,4187.179,4175.769,0,0
325,101,0,1763,4171.667,4184.744000000001,4184.872,4170.897,4191.154,4180.641,4191.41,4175.897,4167.692,4174.744000000001,4177.179,4163.718,4186.923,4177.564,0,0
326,102,0,3106,4166.538,4181.538,4172.821,4169.744000000001,4186.41,4171.41,4182.564,4173.462,4165.769,4175.255999999999,4175.385,4161.282,4181.538,4170.385,0,0
327,103,0,3399,4163.077,4174.872,4170.769,4168.333,4185.128,4169.359,4172.564,4171.538,4163.333,4174.615,4170.0,4160.897,4176.41,4165.255999999999,0,0
328,104,0,3191,4161.795,4173.974,4173.846,4167.564,4193.718,4172.436,4178.718,4173.205,4166.282,4174.744000000001,4166.41,4159.103,4179.872,4169.487,0,0
329,105,0,1763,4162.0509999999995,4176.41,4169.872,4165.128,4188.205,4170.0,4180.0,4173.205,4166.026,4174.359,4166.923,4155.641,4181.923,4166.026,0,0
330,106,0,3106,4163.462,4177.179,4166.41,4164.231,4166.923,4167.821,4167.179,4168.077,4157.436,4169.359,4167.308,4154.231,4179.615,4160.513,0,0
331,107,0,3399,4163.462,4175.641,4168.462,4164.615,4166.41,4171.026,4165.128,4167.564,4153.462,4169.615,4166.41,4156.795,4181.41,4166.667,0,0
332,108,0,3191,4164.231,4173.59,4168.59,4163.333,4179.744000000001,4169.359,4171.667,4172.308,4158.333,4172.0509999999995,4165.641,4156.41,4181.795,4169.487,0,0
333,109,0,1763,4166.795,4175.769,4168.718,4165.0,4180.128,4166.795,4170.385,4170.385,4158.333,4169.231,4165.255999999999,4154.231,4178.462,4164.744000000001,0,0
334,110,0,3106,4170.641,4182.9490000000005,4172.692,4171.154,4175.128,4170.0,4170.0,4165.513,4158.205,4173.333,4163.846,4155.897,4181.41,4165.385,0,0
335,111,0,3399,4175.128,4183.974,4173.205,4174.231,4178.205,4172.308,4169.872,4168.462,4160.769,4180.641,4165.255999999999,4154.872,4187.0509999999995,4173.205,0,0
336,112,0,3191,4176.154,4180.385,4171.795,4172.821,4185.897,4171.282,4171.667,4172.308,4158.59,4175.769,4175.255999999999,4153.718,4188.205,4177.692,0,0
337,113,0,1763,4172.179,4182.308,4170.897,4171.923,4192.308,4174.359,4174.615,4169.487,4154.744000000001,4171.41,4179.231,4158.333,4186.41,4174.359,0,0
338,114,0,3106,4168.59,4184.359,4170.255999999999,4171.282,4190.641,4184.359,4175.513,4170.255999999999,4157.436,4174.359,4172.0509999999995,4162.564,4186.282,4168.077,0,0
339,115,0,3399,4168.846,4182.0509999999995,4169.615,4170.255999999999,4185.128,4184.103,4181.154,4175.897,4160.255999999999,4171.41,4173.077,4162.821,4186.538,4172.692,0,0
340,116,0,3191,4170.641,4179.359,4168.205,4167.692,4184.615,4173.205,4182.436,4173.846,4160.385,4170.897,4182.692,4161.667,4185.897,4183.462,0,0
341,117,0,1763,4175.897,4183.974,4170.385,4168.974,4186.667,4173.846,4177.9490000000005,4169.615,4164.487,4182.308,4187.179,4164.103,4192.9490000000005,4186.154,0,0
342,118,0,3106,4182.0509999999995,4187.564,4174.744000000001,4173.077,4186.667,4183.462,4180.385,4175.641,4168.59,4184.744000000001,4187.9490000000005,4164.359,4195.385,4185.128,0,0
343,119,0,3399,4180.513,4183.974,4175.769,4177.692,4193.846,4185.513,4186.795,4185.0,4167.179,4174.487,4186.282,4162.564,4187.564,4185.385,0,0
344,120,0,3191,4176.795,4184.231,4176.923,4184.487,4198.846,4185.769,4187.692,4183.333,4162.821,4173.59,4179.231,4162.9490000000005,4186.41,4186.154,0,0
345,121,0,1763,4178.718,4188.718,4177.692,4182.0509999999995,4191.795,4185.385,4186.667,4172.9490000000005,4160.385,4180.897,4180.513,4163.718,4190.897,4189.872,0,0
346,122,0,3106,4178.59,4185.0,4171.154,4169.487,4184.615,4175.128,4178.846,4168.462,4157.692,4176.41,4182.821,4162.0509999999995,4186.538,4191.538,0,0
347,123,0,3399,4175.897,4178.718,4166.41,4165.385,4185.769,4168.974,4168.718,4170.255999999999,4154.231,4163.974,4173.974,4157.564,4182.564,4186.154,0,0
348,124,0,3191,4180.641,4181.667,4176.026,4170.641,4188.59,4171.282,4175.641,4171.538,4159.744000000001,4166.795,4176.923,4163.462,4187.436,4184.359,0,0
349,125,0,1763,4186.795,4185.513,4183.462,4175.513,4183.846,4170.385,4184.359,4171.026,4167.692,4174.615,4188.077,4169.359,4187.692,4189.103,0,0
350,126,0,3106,4185.385,4183.59,4180.385,4180.897,4184.359,4175.255999999999,4180.897,4170.385,4167.821,4169.231,4182.821,4165.385,4182.564,4190.385,0,0
351,127,0,53,4184.872,4185.255999999999,4181.795,4185.513,4193.077,4185.513,4180.769,4171.282,4165.128,4168.718,4182.0509999999995,4166.154,4186.41,4194.231,0,0
352,0,0,2101,4189.487,4189.359,4186.41,4185.641,4193.59,4183.846,4186.795,4172.564,4167.308,4181.538,4200.513,4173.205,4194.872,4202.0509999999995,0,0
353,1,0,2562,4188.974,4186.795,4186.667,4184.103,4185.897,4173.333,4184.744000000001,4171.538,4167.179,4182.179,4201.923,4175.385,4189.744000000001,4203.718,0,0
354,2,0,2946,4187.308,4183.718,4185.0,4183.462,4178.462,4169.744000000001,4181.154,4171.026,4164.487,4179.103,4186.795,4169.231,4180.385,4199.872,0,0
355,3,0,3050,4186.154,4183.205,4179.872,4181.923,4173.846,4170.513,4182.179,4172.821,4165.385,4185.385,4188.462,4166.667,4184.103,4197.436,0,0
356,4,0,3528,4185.513,4181.538,4172.564,4182.0509999999995,4176.282,4175.897,4182.0509999999995,4175.385,4167.179,4186.667,4200.0,4170.897,4188.974,4198.846,0,0
357,5,0,2043,4187.308,4180.513,4177.179,4182.308,4184.103,4187.179,4181.923,4179.744000000001,4167.692,4183.077,4202.564,4176.154,4190.385,4199.103,0,0
358,6,0,2456,4186.667,4177.9490000000005,4184.103,4181.41,4176.154,4185.128,4183.974,4182.564,4167.179,4183.462,4195.385,4173.974,4191.923,4197.821,0,0
359,7,0,1719,4183.59,4173.718,4181.795,4183.333,4163.846,4173.077,4183.59,4181.154,4167.308,4181.538,4188.59,4171.282,4191.154,4197.179,0,0
360,8,0,1343,4186.795,4176.282,4181.923,4186.538,4177.0509999999995,4167.179,4182.0509999999995,4183.974,4170.255999999999,4180.641,4194.615,4174.487,4192.692,4199.487,0,0
361,9,0,3520,4192.179,4178.59,4185.128,4185.769,4186.538,4168.077,4184.872,4183.205,4168.718,4179.615,4202.308,4173.59,4187.821,4201.282,0,0
362,10,0,3106,4193.846,4178.462,4183.846,4183.59,4175.769,4169.103,4183.077,4173.974,4158.974,4177.0509999999995,4197.0509999999995,4171.667,4176.154,4201.667,0,0
363,11,0,3400,4197.821,4180.897,4183.718,4186.795,4176.538,4169.359,4180.897,4174.103,4157.179,4176.538,4193.846,4175.0,4179.231,4203.718,0,0
364,12,0,3195,4197.436,4177.436,4187.0509999999995,4187.692,4189.359,4169.103,4185.769,4178.333,4168.974,4173.205,4199.231,4175.641,4187.9490000000005,4202.821,0,0
365,13,0,1761,4187.0509999999995,4167.9490000000005,4185.897,4182.9490000000005,4188.333,4169.615,4181.667,4172.564,4170.128,4168.077,4195.385,4173.59,4182.564,4199.872,0,0
366,14,0,3106,4188.846,4171.795,4183.077,4182.692,4182.821,4170.769,4170.385,4168.718,4157.692,4171.923,4189.615,4174.231,4180.641,4200.641,0,0
367,15,0,3400,4199.744000000001,4180.0,4185.385,4185.897,4189.487,4170.769,4170.255999999999,4171.667,4159.103,4178.333,4195.128,4178.077,4189.359,4203.333,0,0
368,16,0,0,4194.487,4176.667,4185.128,4186.026,4190.513,4169.744000000001,4176.41,4173.077,4170.255999999999,4176.282,4200.897,4177.9490000000005,4186.795,4201.538,0,0
369,17,0,0,4183.846,4174.744000000001,4183.846,4187.179,4182.179,4163.077,4174.231,4172.564,4165.385,4171.667,4195.641,4174.487,4180.385,4195.897,0,0
370,18,0,0,4188.333,4175.641,4189.872,4188.462,4182.692,4153.59,4170.641,4171.282,4159.872,4175.255999999999,4189.103,4172.821,4185.385,4196.538,0,0
371,19,0,0,4193.718,4174.103,4193.462,4184.615,4186.41,4156.026,4174.487,4171.282,4165.255999999999,4181.41,4196.795,4176.154,4187.821,4201.154,0,0
372,20,0,0,4189.487,4171.923,4187.564,4185.255999999999,4176.667,4160.385,4174.487,4174.744000000001,4161.923,4179.872,4203.718,4178.077,4180.0,4198.077,0,0
373,21,0,0,4186.923,4171.795,4181.41,4185.255999999999,4171.282,4152.564,4168.462,4171.282,4150.769,4169.231,4191.923,4172.564,4173.59,4188.59,0,0
374,22,0,0,4187.179,4166.026,4182.179,4173.077,4182.9490000000005,4153.974,4174.231,4169.872,4159.359,4167.0509999999995,4186.667,4173.077,4176.923,4184.359,0,0
375,23,0,0,4188.205,4164.487,4187.179,4166.538,4188.333,4168.846,4187.179,4177.436,4172.821,4178.077,4204.872,4177.9490000000005,4183.333,4189.615,0,0
376,24,0,0,4188.205,4178.718,4185.0,4172.9490000000005,4180.385,4168.59,4180.128,4175.255999999999,4162.436,4174.487,4207.308,4174.744000000001,4179.487,4188.59,0,0
377,25,0,0,4184.487,4185.0,4175.385,4173.846,4175.897,4160.0,4166.538,4165.897,4153.59,4158.974,4183.462,4167.821,4167.436,4175.0,0,0
378,26,0,0,4183.718,4180.128,4174.103,4169.744000000001,4172.179,4162.821,4171.667,4168.333,4164.231,4161.923,4174.231,4169.359,4166.538,4168.333,0,0
379,27,0,0,4182.179,4183.59,4177.821,4172.436,4168.59,4168.333,4170.0,4174.744000000001,4173.462,4174.231,4182.179,4172.179,4175.641,4173.205,0,0
380,28,0,0,4173.077,4186.923,4171.538,4174.231,4170.897,4162.436,4152.9490000000005,4166.923,4163.205,4165.769,4176.41,4166.026,4174.231,4167.308,0,0
381,29,0,0,4165.513,4178.846,4166.667,4170.385,4172.0509999999995,4153.59,4152.564,4159.487,4152.564,4150.128,4164.231,4158.205,4163.59,4151.538,0,0
382,30,0,0,4169.231,4180.0,4173.333,4168.846,4172.821,4151.282,4168.462,4167.179,4160.255999999999,4152.821,4166.282,4160.897,4166.41,4152.692,0,0
383,31,0,0,4173.974,4186.667,4175.385,4172.436,4175.641,4155.897,4172.308,4174.231,4170.128,4162.564,4171.795,4169.103,4178.974,4164.487,0,0
384,32,0,0,4170.897,4183.077,4173.333,4174.231,4178.462,4160.641,4166.154,4172.821,4165.255999999999,4168.974,4172.692,4168.59,4180.769,4167.308,0,0
385,33,0,0,4169.872,4182.308,4175.641,4176.795,4175.769,4156.154,4165.641,4170.769,4158.718,4167.9490000000005,4179.103,4164.744000000001,4178.59,4167.436,0,0
386,34,0,0,4177.9490000000005,4186.026,4180.513,4179.872,4168.077,4151.154,4168.718,4169.872,4165.385,4166.282,4185.255999999999,4167.9490000000005,4178.718,4171.282,0,0
387,35,0,0,4182.692,4186.795,4181.026,4176.923,4174.487,4159.487,4170.769,4171.026,4170.0,4171.795,4176.795,4172.9490000000005,4177.692,4171.923,0,0
388,36,0,0,4175.128,4186.026,4174.744000000001,4171.923,4184.744000000001,4170.385,4169.615,4172.564,4167.308,4174.103,4166.795,4169.615,4175.513,4166.923,0,0
389,37,0,0,4169.359,4183.846,4170.513,4170.255999999999,4177.821,4165.897,4170.128,4171.41,4169.359,4167.692,4167.436,4163.59,4174.744000000001,4164.744000000001,0,0
390,38,0,0,4171.026,4182.9490000000005,4170.897,4172.9490000000005,4173.462,4155.641,4177.9490000000005,4176.538,4171.41,4165.0,4169.744000000001,4165.513,4178.59,4168.205,0,0
391,39,0,0,4172.308,4186.41,4170.128,4179.487,4182.821,4155.128,4182.821,4186.282,4169.103,4166.026,4169.744000000001,4172.179,4183.333,4171.154,0,0
392,40,0,0,4177.564,4188.846,4171.282,4185.513,4184.615,4161.41,4176.667,4187.692,4169.231,4168.974,4177.0509999999995,4173.974,4185.128,4174.615,0,0
393,41,0,0,4184.487,4188.333,4180.128,4183.077,4176.41,4166.282,4170.0,4183.59,4171.41,4181.154,4188.846,4175.128,4182.9490000000005,4182.308,0,0
394,42,0,0,4186.538,4186.923,4187.308,4178.462,4172.0509999999995,4166.41,4174.103,4181.923,4170.0,4190.513,4190.513,4175.641,4183.846,4186.667,0,0
395,43,0,0,4182.179,4185.255999999999,4184.744000000001,4175.0,4170.641,4164.744000000001,4182.0509999999995,4181.795,4169.744000000001,4185.897,4182.308,4173.333,4184.872,4177.9490000000005,0,0
396,44,0,0,4174.359,4183.846,4182.179,4171.795,4174.744000000001,4167.436,4185.128,4183.205,4172.0509999999995,4186.41,4179.872,4172.9490000000005,4184.231,4169.615,0,0
397,45,0,0,4170.641,4180.385,4185.641,4176.795,4180.897,4168.846,4182.821,4183.974,4170.897,4185.0,4186.795,4172.821,4184.103,4171.667,0,0
398,46,0,0,4170.641,4177.564,4184.615,4182.179,4180.128,4165.255999999999,4182.179,4181.667,4167.564,4170.897,4187.179,4167.179,4180.385,4170.641,0,0
399,47,0,0,4169.103,4178.462,4179.359,4182.436,4180.385,4166.154,4186.795,4181.795,4168.59,4168.462,4178.718,4164.744000000001,4177.308,4167.0509999999995,0,0
400,48,0,0,4168.205,4180.641,4178.462,4183.462,4184.359,4170.128,4189.615,4180.385,4172.0509999999995,4175.641,4176.795,4168.077,4178.846,4168.846,0,0
401,49,0,0,4167.564,4180.769,4179.103,4181.154,4184.103,4172.436,4182.179,4172.179,4172.308,4173.333,4180.0,4170.128,4182.9490000000005,4167.692,0,0
402,50,0,0,4168.077,4182.564,4180.513,4177.308,4178.718,4169.487,4175.128,4170.255999999999,4170.0,4179.359,4183.718,4170.255999999999,4185.0,4169.231,0,0
403,51,0,0,4177.564,4186.795,4185.641,4182.179,4176.41,4165.128,4181.538,4177.564,4169.615,4189.359,4191.282,4173.846,4184.615,4181.795,0,0
404,52,0,0,4185.769,4189.872,4190.385,4187.308,4184.359,4167.436,4184.359,4179.359,4171.026,4181.154,4194.487,4176.667,4187.179,4188.846,0,0
405,53,0,0,4184.487,4187.692,4188.205,4183.205,4197.436,4171.41,4175.128,4171.667,4171.282,4175.641,4185.0,4175.0,4191.026,4183.974,0,0
406,54,0,0,4183.333,4186.667,4185.513,4181.795,4195.641,4169.231,4171.41,4168.077,4169.231,4182.692,4178.59,4175.513,4185.128,4180.769,0,0
407,55,0,0,4187.0509999999995,4196.538,4187.821,4187.179,4185.641,4169.231,4180.385,4176.667,4169.231,4190.128,4191.538,4179.103,4181.154,4190.255999999999,0,0
408,56,0,0,4190.385,4199.103,4191.154,4190.513,4187.821,4172.821,4185.769,4183.205,4172.308,4193.333,4201.154,4179.872,4188.718,4201.154,0,0
409,57,0,0,4183.59,4185.769,4189.359,4186.923,4188.59,4169.615,4182.564,4178.846,4172.564,4188.59,4189.231,4173.077,4189.872,4193.077,0,0
410,58,0,0,4171.795,4177.564,4181.026,4182.692,4178.974,4165.897,4180.0,4172.9490000000005,4170.513,4178.974,4174.744000000001,4166.41,4180.255999999999,4172.179,0,0
411,59,0,0,4167.0509999999995,4179.231,4179.487,4182.308,4175.513,4169.359,4182.821,4178.333,4170.897,4171.154,4174.359,4167.692,4177.9490000000005,4166.282,0,0
412,60,0,0,4172.0509999999995,4177.9490000000005,4186.282,4180.897,4176.538,4172.308,4182.308,4184.487,4171.795,4171.41,4183.974,4172.564,4184.744000000001,4175.128,0,0
413,61,0,0,4175.0,4178.718,4180.769,4174.615,4170.255999999999,4166.154,4174.103,4178.077,4169.487,4179.103,4187.821,4169.103,4184.103,4180.641,0,0
414,62,0,0,4172.179,4182.179,4170.255999999999,4170.385,4163.59,4162.436,4169.103,4170.0,4167.821,4180.641,4181.154,4163.718,4181.154,4177.9490000000005,0,0
415,63,0,0,4175.897,4182.179,4174.487,4177.179,4167.308,4171.667,4172.564,4170.255999999999,4169.615,4173.846,4177.692,4166.282,4183.205,4177.9490000000005,0,0
416,64,0,2099,4184.359,4185.513,4180.897,4181.282,4180.897,4177.9490000000005,4176.154,4179.615,4172.436,4179.744000000001,4183.974,4171.923,4184.615,4185.769,0,0
417,65,0,2556,4185.128,4186.923,4174.487,4175.641,4186.923,4169.744000000001,4176.41,4185.513,4172.692,4192.436,4185.128,4175.769,4183.846,4188.974,0,0
418,66,0,2943,4182.179,4184.487,4170.897,4171.923,4183.077,4164.487,4175.769,4182.308,4168.59,4190.641,4181.795,4173.59,4183.846,4185.128,0,0
419,67,0,3047,4183.974,4184.231,4172.436,4172.692,4182.564,4169.872,4175.0,4180.769,4167.0509999999995,4177.9490000000005,4185.641,4170.0,4185.0,4185.513,0,0
420,68,0,3528,4182.436,4182.821,4170.255999999999,4174.103,4184.744000000001,4172.564,4172.9490000000005,4182.9490000000005,4170.769,4166.923,4182.9490000000005,4170.255999999999,4182.179,4184.487,0,0
421,69,0,2043,4178.974,4181.795,4173.59,4179.487,4183.59,4171.538,4173.077,4182.821,4173.846,4175.641,4176.923,4172.9490000000005,4182.692,4183.974,0,0
422,70,0,2458,4185.0,4184.359,4175.641,4188.205,4184.872,4169.615,4170.769,4181.41,4171.538,4197.0509999999995,4182.821,4172.9490000000005,4189.103,4191.41,0,0
423,71,0,1715,4190.0,4188.846,4171.154,4190.513,4188.333,4167.179,4169.231,4183.205,4174.359,4200.897,4187.821,4173.846,4191.282,4194.615,0,0
424,72,0,1334,4188.333,4194.615,4170.641,4189.103,4193.59,4169.359,4178.333,4185.128,4180.255999999999,4193.846,4185.641,4174.487,4187.692,4188.974,0,0
425,73,0,3506,4184.744000000001,4193.718,4173.718,4185.769,4191.41,4173.077,4182.0509999999995,4184.359,4174.103,4189.872,4180.641,4172.436,4183.462,4185.128,0,0
426,74,0,3094,4184.615,4185.128,4173.462,4185.255999999999,4181.026,4171.41,4176.154,4181.795,4171.795,4185.769,4172.821,4171.026,4182.564,4185.513,0,0
427,75,0,3392,4182.564,4184.487,4170.128,4186.667,4179.744000000001,4167.821,4178.718,4181.923,4181.282,4182.821,4168.333,4170.641,4185.255999999999,4182.179,0,0
428,76,0,3187,4172.308,4189.359,4167.692,4176.795,4186.41,4170.769,4184.231,4186.154,4183.846,4181.667,4171.41,4167.564,4185.255999999999,4172.436,0,0
429,77,0,1758,4165.769,4182.179,4166.282,4167.821,4185.385,4176.923,4185.769,4189.872,4182.9490000000005,4183.718,4166.795,4164.615,4181.923,4167.436,0,0
430,78,0,3094,4168.846,4173.205,4168.59,4170.128,4174.103,4175.128,4186.795,4187.821,4181.41,4186.538,4159.615,4163.205,4182.9490000000005,4167.821,0,0
431,79,0,3392,4168.974,4176.154,4170.641,4171.538,4166.41,4168.974,4185.0,4183.462,4173.077,4178.59,4162.564,4162.0509999999995,4186.41,4166.282,0,0
432,80,0,3187,4170.513,4183.462,4170.128,4170.897,4174.615,4168.59,4184.231,4181.795,4174.872,4173.077,4173.718,4165.255999999999,4185.385,4172.308,0,0
433,81,0,1758,4181.282,4185.255999999999,4172.179,4170.641,4185.897,4168.974,4187.9490000000005,4180.255999999999,4182.0509999999995,4179.487,4182.9490000000005,4171.667,4183.974,4185.128,0,0
434,82,0,3094,4187.308,4185.641,4176.923,4174.359,4187.0509999999995,4167.308,4181.538,4179.615,4177.821,4179.615,4178.333,4175.769,4183.333,4186.538,0,0
435,83,0,3392,4187.436,4191.923,4182.0509999999995,4184.103,4187.9490000000005,4173.718,4172.0509999999995,4179.615,4180.513,4182.564,4171.026,4174.744000000001,4185.255999999999,4185.255999999999,0,0
436,84,0,3187,4190.513,4195.255999999999,4180.255999999999,4184.103,4193.205,4184.615,4173.462,4175.513,4183.333,4187.9490000000005,4172.436,4169.615,4186.795,4188.333,0,0
437,85,0,1758,4186.667,4188.333,4173.59,4176.154,4186.795,4179.615,4170.897,4167.9490000000005,4171.282,4174.615,4172.9490000000005,4167.821,4180.0,4183.718,0,0
438,86,0,3094,4179.872,4185.897,4177.692,4181.795,4171.026,4170.385,4167.0509999999995,4172.436,4173.333,4168.59,4174.744000000001,4172.692,4179.359,4181.282,0,0
439,87,0,3392,4188.974,4193.462,4188.846,4189.744000000001,4174.487,4178.333,4178.718,4184.615,4188.974,4185.128,4182.564,4178.718,4191.923,4193.718,0,0
440,88,0,3187,4198.077,4193.718,4187.436,4184.872,4193.974,4185.769,4188.718,4185.255999999999,4186.923,4188.462,4188.974,4182.692,4194.359,4205.0,0,0
441,89,0,1758,4190.385,4186.154,4178.974,4182.692,4196.795,4177.821,4177.692,4183.59,4180.385,4176.538,4189.359,4181.41,4185.769,4203.205,0,0
442,90,0,3094,4182.564,4184.231,4180.641,4186.538,4182.179,4170.385,4167.564,4182.179,4183.846,4172.564,4179.487,4174.872,4180.769,4192.308,0,0
443,91,0,3392,4182.821,4186.026,4182.9490000000005,4183.718,4177.308,4171.026,4176.667,4176.795,4184.359,4173.718,4163.846,4171.538,4174.615,4183.333,0,0
444,92,0,3187,4183.205,4185.385,4180.897,4180.0,4177.9490000000005,4173.077,4181.41,4176.667,4180.769,4166.923,4163.974,4175.641,4169.231,4184.487,0,0
445,93,0,1758,4184.359,4185.0,4184.103,4184.615,4178.974,4179.231,4176.282,4183.205,4181.923,4161.538,4177.436,4177.692,4177.308,4189.231,0,0
446,94,0,3094,4185.0,4185.769,4185.513,4182.436,4183.974,4183.59,4179.744000000001,4182.9490000000005,4183.846,4171.795,4175.513,4175.769,4184.615,4185.641,0,0
447,95,0,3392,4182.436,4185.897,4183.59,4170.641,4183.333,4188.333,4185.897,4180.769,4183.974,4185.128,4167.821,4175.0,4186.795,4184.487,0,0
448,96,0,3187,4184.103,4188.205,4185.385,4175.255999999999,4176.795,4193.205,4182.9490000000005,4185.128,4185.641,4187.308,4173.205,4177.692,4192.436,4193.333,0,0
449,97,0,1758,4185.385,4187.564,4187.436,4186.667,4173.718,4188.718,4180.513,4185.385,4186.538,4182.9490000000005,4177.308,4176.026,4190.769,4192.436,0,0
450,98,0,3094,4182.0509999999995,4185.897,4184.103,4176.795,4177.564,4188.974,4184.744000000001,4182.436,4184.487,4186.154,4174.359,4170.641,4187.0509999999995,4184.744000000001,0,0
451,99,0,3392,4182.179,4186.538,4182.564,4168.077,4185.385,4199.744000000001,4185.128,4183.077,4184.231,4190.385,4171.41,4173.333,4193.077,4186.41,0,0
452,100,0,3187,4185.641,4186.795,4185.255999999999,4181.41,4187.9490000000005,4205.385,4184.615,4186.538,4187.9490000000005,4190.255999999999,4172.9490000000005,4177.9490000000005,4199.744000000001,4192.692,0,0
453,101,0,1758,4184.744000000001,4184.103,4184.359,4185.897,4180.0,4200.0,4186.026,4182.0509999999995,4188.333,4186.923,4174.487,4175.513,4195.128,4191.667,0,0
454,102,0,3094,4180.897,4180.513,4177.0509999999995,4169.103,4176.154,4201.667,4182.821,4171.41,4184.231,4181.282,4173.59,4171.41,4186.923,4183.462,0,0
455,103,0,3392,4183.974,4183.846,4177.179,4166.282,4183.718,4215.641,4182.564,4176.026,4184.231,4180.897,4172.179,4173.974,4187.436,4186.41,0,0
456,104,0,3187,4190.769,4189.487,4181.667,4181.41,4187.179,4216.923,4187.692,4185.0,4188.077,4184.487,4171.795,4175.128,4192.564,4198.846,0,0
457,105,0,1758,4188.718,4182.692,4175.513,4181.923,4178.718,4205.0,4183.974,4176.026,4187.821,4180.641,4171.538,4170.0,4189.615,4195.255999999999,0,0
458,106,0,3094,4182.308,4173.974,4167.179,4173.462,4174.103,4198.718,4172.564,4165.897,4183.846,4169.744000000001,4165.513,4164.359,4181.026,4178.974,0,0
459,107,0,3392,4185.0,4178.718,4173.846,4181.667,4180.641,4202.308,4170.769,4175.385,4185.0,4168.333,4167.179,4165.769,4183.718,4181.154,0,0
460,108,0,3187,4191.026,4185.641,4184.103,4190.897,4183.077,4208.718,4174.615,4182.564,4186.923,4177.0509999999995,4181.154,4170.513,4189.103,4195.128,0,0
461,109,0,1758,4191.026,4184.231,4184.872,4185.769,4183.974,4210.769,4173.462,4174.359,4185.128,4178.718,4184.487,4169.872,4187.0509999999995,4198.077,0,0
462,110,0,3094,4187.9490000000005,4183.205,4180.897,4183.974,4186.41,4202.0509999999995,4172.436,4168.205,4184.103,4178.846,4176.282,4168.718,4186.667,4198.846,0,0
463,111,0,3392,4187.0509999999995,4185.513,4179.103,4189.103,4186.154,4196.026,4172.564,4171.282,4185.128,4177.308,4176.154,4172.0509999999995,4192.0509999999995,4197.821,0,0
464,112,0,3187,4187.9490000000005,4185.897,4182.308,4188.462,4183.718,4203.59,4173.462,4174.615,4185.385,4172.308,4184.359,4175.769,4191.538,4192.9490000000005,0,0
465,113,0,1758,4187.179,4186.026,4185.513,4187.308,4185.255999999999,4206.667,4176.282,4173.718,4185.641,4175.513,4181.538,4172.564,4185.128,4193.205,0,0
466,114,0,3094,4184.359,4185.128,4179.231,4186.282,4186.282,4202.436,4174.359,4173.462,4186.667,4179.744000000001,4172.308,4170.0,4183.846,4192.564,0,0
467,115,0,3392,4182.9490000000005,4181.667,4172.0509999999995,4182.9490000000005,4183.333,4199.872,4170.0,4172.692,4185.0,4174.231,4176.026,4170.385,4185.769,4188.077,0,0
468,116,0,3187,4185.769,4182.564,4171.923,4181.795,4181.538,4198.333,4172.308,4170.513,4185.128,4173.205,4183.333,4170.769,4187.0509999999995,4185.897,0,0
469,117,0,1758,4188.462,4189.744000000001,4175.641,4188.205,4183.205,4199.872,4174.231,4172.9490000000005,4186.538,4182.436,4184.872,4170.513,4190.769,4191.282,0,0
470,118,0,3094,4189.103,4192.179,4178.333,4198.205,4184.359,4201.538,4174.487,4176.154,4187.0509999999995,4185.385,4187.179,4170.128,4194.744000000001,4197.179,0,0
471,119,0,3392,4190.255999999999,4188.462,4176.795,4200.641,4184.744000000001,4200.385,4180.641,4175.255999999999,4190.255999999999,4183.462,4190.641,4171.795,4196.795,4200.897,0,0
472,120,0,3187,4188.077,4185.513,4170.769,4190.513,4186.026,4198.974,4186.154,4172.9490000000005,4191.41,4182.564,4188.718,4173.205,4197.0509999999995,4201.026,0,0
473,121,0,1758,4185.769,4184.231,4168.59,4184.487,4186.41,4200.769,4183.974,4174.359,4188.59,4179.231,4187.0509999999995,4172.9490000000005,4197.179,4198.077,0,0
474,122,0,3094,4191.026,4185.0,4176.667,4193.59,4186.026,4199.359,4183.846,4175.385,4187.436,4178.333,4187.308,4172.692,4196.154,4200.897,0,0
475,123,0,3392,4197.692,4190.0,4182.179,4200.897,4185.897,4189.615,4184.744000000001,4174.231,4186.282,4178.59,4187.564,4172.308,4194.231,4204.744000000001,0,0
476,124,0,3187,4197.9490000000005,4194.359,4181.41,4197.308,4186.795,4182.564,4183.205,4179.359,4189.872,4178.846,4191.795,4175.0,4192.308,4203.846,0,0
477,125,0,1758,4197.0509999999995,4191.538,4182.436,4190.897,4187.179,4183.974,4185.255999999999,4181.795,4196.026,4179.359,4192.0509999999995,4176.026,4194.359,4200.255999999999,0,0
478,126,0,3094,4196.667,4184.359,4181.667,4185.897,4184.103,4185.897,4184.615,4174.615,4190.0,4179.359,4184.744000000001,4175.769,4196.667,4198.846,0,0
479,127,0,53,4197.179,4188.462,4184.231,4186.026,4186.154,4187.308,4187.9490000000005,4175.385,4187.308,4184.103,4181.795,4176.154,4199.231,4201.795,0,0
480,0,0,2107,4200.769,4197.564,4188.718,4188.59,4192.821,4187.308,4196.538,4183.718,4199.231,4187.0509999999995,4184.231,4178.462,4200.897,4205.641,0,0
481,1,0,2562,4200.128,4193.333,4186.538,4183.718,4190.0,4182.564,4194.744000000001,4182.564,4199.487,4175.513,4182.9490000000005,4176.667,4196.41,4202.179,0,0
482,2,0,2948,4196.923,4187.9490000000005,4182.0509999999995,4179.872,4184.744000000001,4181.282,4188.333,4179.487,4190.385,4170.0,4181.154,4175.255999999999,4194.231,4197.9490000000005,0,0
483,3,0,3053,4197.564,4191.026,4184.103,4186.41,4180.513,4185.0,4188.718,4184.615,4195.0,4184.359,4184.231,4177.308,4198.205,4201.282,0,0
484,4,0,3533,4198.59,4186.923,4184.103,4184.103,4170.385,4184.872,4190.128,4186.538,4200.128,4195.128,4191.41,4176.41,4196.538,4202.308,0,0
485,5,0,2043,4198.333,4182.308,4181.538,4172.564,4168.59,4182.9490000000005,4188.846,4186.923,4198.205,4190.255999999999,4197.436,4176.154,4189.872,4201.795,0,0
486,6,0,2467,4199.615,4188.59,4186.026,4172.9490000000005,4182.9490000000005,4181.538,4191.41,4190.0,4199.744000000001,4184.231,4192.692,4177.564,4192.564,4204.872,0,0
487,7,0,1721,4199.615,4192.0509999999995,4187.821,4182.436,4190.641,4184.231,4197.0509999999995,4187.436,4194.615,4184.231,4186.795,4180.0,4197.179,4205.128,0,0
488,8,0,1342,4200.513,4187.564,4180.128,4186.282,4184.872,4185.128,4199.487,4184.744000000001,4191.923,4191.026,4195.385,4180.897,4195.128,4203.974,0,0
489,9,0,3526,4203.205,4186.282,4177.564,4184.231,4179.487,4178.59,4193.974,4181.538,4196.41,4195.385,4200.641,4180.513,4190.513,4205.769,0,0
490,10,0,3104,4201.795,4190.769,4184.487,4186.41,4181.795,4179.872,4185.641,4173.462,4193.333,4189.744000000001,4194.744000000001,4181.667,4185.0,4210.128,0,0
491,11,0,3405,4200.769,4194.359,4191.41,4192.179,4195.641,4185.0,4186.282,4173.846,4184.872,4183.077,4192.308,4183.59,4185.385,4210.769,0,0
492,12,0,3197,4202.308,4197.436,4191.282,4192.308,4206.026,4176.667,4193.718,4183.974,4184.359,4180.385,4190.513,4183.462,4188.333,4207.308,0,0
493,13,0,1765,4200.255999999999,4195.385,4188.205,4184.872,4197.9490000000005,4166.41,4198.077,4186.667,4193.718,4181.026,4184.103,4181.41,4185.385,4204.487,0,0
494,14,0,3104,4198.462,4189.103,4187.436,4181.41,4193.077,4170.769,4194.359,4182.9490000000005,4199.872,4187.308,4184.487,4184.231,4185.641,4211.282,0,0
495,15,0,3405,4201.795,4192.436,4188.333,4188.974,4197.821,4176.154,4188.718,4183.59,4195.128,4190.897,4187.308,4186.538,4193.846,4214.872,0,0
496,16,0,0,4203.974,4197.436,4188.333,4192.564,4195.255999999999,4173.462,4188.718,4183.59,4191.795,4185.769,4182.692,4182.821,4192.9490000000005,4204.103,0,0
497,17,0,0,4197.564,4192.0509999999995,4185.0,4187.821,4188.333,4170.385,4191.154,4182.821,4196.538,4182.692,4182.9490000000005,4179.103,4185.385,4197.9490000000005,0,0
498,18,0,0,4188.974,4184.231,4183.846,4182.564,4187.821,4168.205,4191.538,4182.308,4195.641,4178.462,4184.744000000001,4179.487,4182.0509999999995,4198.974,0,0
499,19,0,0,4187.179,4185.513,4185.641,4181.026,4184.744000000001,4170.769,4191.41,4177.0509999999995,4189.359,4174.615,4180.641,4179.103,4181.795,4199.231,0,0
500,20,0,0,4190.128,4187.179,4186.282,4181.41,4178.462,4172.9490000000005,4187.308,4171.795,4188.974,4184.231,4184.615,4177.179,4184.359,4197.436,0,0
501,21,0,0,4188.59,4186.282,4185.385,4179.744000000001,4179.231,4169.103,4183.333,4171.795,4189.103,4187.821,4188.462,4176.795,4184.487,4198.077,0,0
502,22,0,0,4188.462,4185.897,4185.769,4179.231,4174.487,4166.154,4185.255999999999,4173.333,4187.692,4175.0,4177.821,4179.359,4178.462,4200.0,0,0
503,23,0,0,4190.513,4186.154,4185.897,4181.667,4165.0,4166.41,4185.513,4172.821,4187.564,4173.718,4172.436,4179.487,4177.308,4199.231,0,0
504,24,0,0,4186.667,4186.923,4183.462,4183.333,4167.308,4165.769,4183.974,4171.538,4185.641,4180.641,4181.667,4178.333,4179.872,4196.026,0,0
505,25,0,0,4188.718,4187.821,4183.077,4183.205,4178.718,4165.255999999999,4186.667,4171.795,4186.282,4180.897,4183.462,4178.205,4179.872,4197.179,0,0
506,26,0,0,4196.282,4190.641,4185.385,4183.462,4186.538,4167.9490000000005,4187.9490000000005,4173.077,4187.692,4182.564,4178.59,4181.41,4182.436,4203.077,0,0
507,27,0,0,4197.0509999999995,4195.769,4185.513,4182.9490000000005,4188.846,4168.59,4183.462,4174.615,4185.385,4180.769,4183.846,4182.821,4187.0509999999995,4203.205,0,0
508,28,0,0,4195.897,4200.255999999999,4187.692,4185.513,4183.59,4167.564,4184.359,4179.615,4190.255999999999,4179.359,4191.026,4182.308,4188.077,4199.231,0,0
509,29,0,0,4199.231,4201.282,4191.026,4191.154,4179.615,4170.513,4188.462,4184.231,4199.487,4194.744000000001,4189.872,4181.795,4187.9490000000005,4201.538,0,0
510,30,0,0,4199.103,4199.615,4188.205,4188.077,4187.692,4170.128,4185.769,4182.821,4197.821,4202.0509999999995,4183.974,4179.615,4187.308,4203.205,0,0
511,31,0,0,4197.564,4199.744000000001,4185.255999999999,4181.923,4194.872,4168.333,4188.077,4182.179,4194.103,4192.0509999999995,4183.974,4180.0,4190.769,4199.615,0,0
512,32,0,0,4204.231,4201.538,4186.026,4184.615,4195.641,4177.308,4197.9490000000005,4184.615,4196.795,4194.872,4192.179,4183.333,4194.359,4202.308,0,0
513,33,0,0,4210.128,4202.564,4185.897,4188.077,4199.744000000001,4182.821,4202.9490000000005,4185.0,4200.385,4202.564,4193.59,4188.718,4191.41,4214.359,0,0
514,34,0,0,4210.128,4204.487,4186.667,4188.077,4202.9490000000005,4173.846,4198.718,4185.513,4198.718,4201.538,4190.897,4191.667,4194.872,4222.308,0,0
515,35,0,0,4200.0,4200.897,4185.897,4186.282,4191.41,4164.872,4188.077,4184.872,4192.308,4196.667,4187.564,4184.744000000001,4197.179,4211.282,0,0
516,36,0,0,4192.436,4193.974,4182.821,4184.872,4182.179,4172.0509999999995,4187.564,4181.282,4190.641,4192.821,4182.564,4174.487,4192.0509999999995,4196.667,0,0
517,37,0,0,4195.513,4196.154,4182.9490000000005,4187.179,4186.154,4185.128,4199.103,4181.667,4198.205,4190.641,4183.333,4174.231,4195.641,4196.538,0,0
518,38,0,0,4199.615,4201.026,4187.308,4187.821,4187.9490000000005,4189.103,4202.179,4185.769,4202.821,4187.692,4188.333,4179.872,4202.9490000000005,4199.872,0,0
519,39,0,0,4197.9490000000005,4197.308,4189.744000000001,4187.179,4185.513,4187.692,4195.641,4185.769,4198.846,4190.0,4188.333,4181.41,4201.282,4201.154,0,0
520,40,0,0,4192.0509999999995,4188.846,4190.0,4181.41,4184.231,4187.436,4196.923,4184.487,4199.744000000001,4199.487,4187.436,4179.359,4197.9490000000005,4199.744000000001,0,0
521,41,0,0,4187.564,4184.103,4187.564,4170.385,4182.9490000000005,4186.026,4197.179,4183.974,4198.205,4198.462,4184.231,4178.205,4194.103,4188.462,0,0
522,42,0,0,4185.513,4185.128,4179.487,4171.538,4181.282,4182.692,4195.0,4183.718,4190.0,4184.231,4176.923,4175.128,4185.385,4179.615,0,0
523,43,0,0,4180.641,4181.538,4175.385,4181.026,4184.487,4182.0509999999995,4198.462,4183.974,4187.9490000000005,4182.564,4173.846,4170.128,4185.0,4182.9490000000005,0,0
524,44,0,0,4178.974,4178.205,4182.179,4181.026,4190.0,4181.154,4193.462,4183.59,4188.846,4186.795,4175.513,4171.41,4186.667,4186.667,0,0
525,45,0,0,4185.255999999999,4183.205,4187.821,4175.128,4185.641,4182.9490000000005,4183.846,4180.641,4184.487,4182.692,4174.103,4172.564,4181.795,4180.513,0,0
526,46,0,0,4182.436,4183.462,4179.615,4175.897,4176.667,4186.795,4186.026,4178.59,4183.205,4183.333,4170.769,4168.462,4182.692,4173.462,0,0
527,47,0,0,4177.0509999999995,4179.103,4176.282,4176.026,4175.769,4183.718,4192.692,4181.667,4195.385,4189.744000000001,4172.821,4170.513,4190.641,4178.462,0,0
528,48,0,0,4180.513,4179.487,4181.667,4172.436,4176.154,4180.769,4189.872,4179.872,4200.0,4190.128,4175.641,4177.821,4191.41,4186.282,0,0
529,49,0,0,4178.462,4176.538,4177.0509999999995,4168.846,4165.513,4180.255999999999,4186.282,4173.333,4189.103,4186.795,4172.436,4173.974,4185.385,4183.846,0,0
530,50,0,0,4170.0,4171.795,4170.641,4167.0509999999995,4161.154,4182.821,4189.872,4172.692,4185.769,4188.846,4168.974,4167.692,4186.41,4179.744000000001,0,0
531,51,0,0,4171.026,4174.487,4172.436,4166.538,4175.0,4187.821,4187.308,4172.821,4188.333,4182.692,4167.564,4170.769,4189.103,4181.154,0,0
532,52,0,0,4178.59,4177.9490000000005,4177.9490000000005,4167.179,4185.513,4182.436,4183.077,4171.026,4189.103,4173.205,4168.59,4172.564,4183.59,4183.205,0,0
533,53,0,0,4186.026,4182.692,4183.846,4177.564,4185.255999999999,4174.231,4192.0509999999995,4177.821,4194.615,4187.821,4178.333,4173.718,4184.359,4189.103,0,0
534,54,0,0,4190.513,4187.9490000000005,4186.41,4187.0509999999995,4184.103,4180.769,4202.0509999999995,4187.0509999999995,4195.641,4202.436,4183.462,4177.692,4193.462,4193.974,0,0
535,55,0,0,4183.718,4185.513,4183.59,4182.308,4186.282,4188.333,4199.487,4185.385,4191.667,4190.513,4173.59,4176.795,4194.231,4187.692,0,0
536,56,0,0,4175.513,4180.385,4185.641,4174.744000000001,4187.0509999999995,4183.462,4194.487,4185.128,4196.282,4181.154,4165.641,4172.692,4188.974,4180.255999999999,0,0
537,57,0,0,4170.769,4174.359,4183.333,4171.41,4178.718,4184.231,4190.385,4188.333,4197.821,4187.308,4165.0,4165.513,4185.513,4174.231,0,0
538,58,0,0,4167.436,4167.564,4171.154,4168.462,4170.641,4185.897,4185.897,4187.179,4191.41,4187.0509999999995,4162.692,4160.641,4182.821,4167.9490000000005,0,0
539,59,0,0,4166.538,4168.59,4169.103,4167.564,4169.103,4174.359,4186.538,4185.897,4197.9490000000005,4183.205,4161.538,4162.436,4185.513,4166.667,0,0
540,60,0,0,4165.513,4174.103,4173.718,4169.103,4169.487,4166.667,4187.564,4185.769,4202.821,4185.769,4163.974,4168.59,4192.308,4170.0,0,0
541,61,0,0,4167.692,4173.462,4171.41,4169.231,4169.615,4169.487,4184.231,4183.974,4191.026,4187.308,4167.0509999999995,4169.231,4190.255999999999,4172.0509999999995,0,0
542,62,0,0,4170.513,4170.897,4169.744000000001,4168.974,4171.026,4170.641,4183.205,4181.41,4183.205,4182.9490000000005,4164.872,4162.9490000000005,4179.103,4168.077,0,0
543,63,0,0,4168.59,4176.282,4173.462,4169.359,4171.795,4172.436,4183.718,4182.9490000000005,4188.462,4178.205,4157.564,4163.846,4177.9490000000005,4165.513,0,0
544,64,0,2116,4170.255999999999,4183.333,4178.205,4175.128,4171.026,4177.9490000000005,4187.9490000000005,4186.923,4194.359,4177.692,4158.846,4170.0,4183.077,4173.462,0,0
545,65,0,2565,4177.564,4182.564,4178.718,4182.436,4173.846,4174.359,4190.641,4186.538,4191.41,4179.103,4166.538,4170.641,4178.077,4180.513,0,0
546,66,0,2949,4184.487,4187.9490000000005,4175.128,4185.769,4176.538,4168.205,4185.255999999999,4183.974,4189.487,4177.0509999999995,4167.308,4167.692,4172.436,4184.231,0,0
547,67,0,3055,4196.538,4201.795,4177.0509999999995,4181.026,4173.333,4171.026,4180.641,4184.872,4191.41,4174.744000000001,4168.846,4168.974,4174.872,4198.974,0,0
548,68,0,3535,4217.564,4213.333,4179.744000000001,4177.9490000000005,4167.308,4172.0509999999995,4182.436,4183.974,4186.923,4177.9490000000005,4176.538,4171.538,4172.308,4221.41,0,0
549,69,0,2046,4244.359,4238.462,4178.077,4186.923,4169.615,4173.077,4185.0,4180.385,4188.846,4182.0509999999995,4185.128,4176.667,4169.359,4247.564,0,0
550,70,0,2467,4274.231,4273.974,4180.128,4201.795,4179.487,4179.359,4184.872,4183.205,4200.897,4184.744000000001,4193.846,4182.308,4177.692,4280.641,0,0
551,71,0,1723,4300.255999999999,4296.282,4186.538,4213.462,4183.205,4178.718,4183.846,4186.538,4200.513,4185.385,4200.513,4184.615,4179.872,4308.205,0,0
552,72,0,1342,4317.9490000000005,4310.513,4188.846,4219.615,4189.615,4178.718,4183.846,4183.974,4190.513,4186.667,4208.846,4189.872,4174.487,4325.513,0,0
553,73,0,3524,4324.487,4323.59,4186.667,4221.795,4195.0,4183.077,4185.513,4184.487,4194.487,4190.769,4217.436,4193.333,4175.513,4333.205,0,0
554,74,0,3113,4319.744000000001,4324.231,4186.026,4218.462,4181.026,4178.205,4183.462,4188.205,4201.026,4197.564,4212.821,4188.462,4181.154,4325.128,0,0
555,75,0,3405,4310.897,4316.923,4186.667,4216.538,4170.513,4170.513,4178.974,4187.0509999999995,4200.128,4204.487,4203.59,4185.897,4186.41,4307.179,0,0
556,76,0,3204,4299.103,4307.564,4185.128,4218.077,4186.154,4170.897,4181.41,4182.564,4197.692,4197.9490000000005,4201.538,4184.487,4189.231,4292.0509999999995,0,0
557,77,0,1768,4275.128,4288.205,4178.077,4211.538,4195.641,4172.9490000000005,4179.744000000001,4181.538,4191.538,4181.026,4189.487,4175.128,4187.436,4271.538,0,0
558,78,0,3113,4251.154,4266.026,4173.333,4201.282,4187.9490000000005,4171.667,4174.615,4183.205,4185.0,4172.308,4172.564,4169.103,4183.077,4247.436,0,0
559,79,0,3405,4243.718,4251.154,4178.59,4199.615,4190.0,4171.795,4176.154,4183.718,4187.436,4177.179,4175.897,4173.846,4183.333,4239.103,0,0
560,80,0,3204,4239.359,4242.179,4181.41,4200.513,4193.846,4173.333,4178.718,4184.359,4191.538,4185.255999999999,4178.718,4176.282,4186.026,4235.769,0,0
561,81,0,1768,4224.359,4231.538,4175.513,4191.795,4187.9490000000005,4170.385,4176.667,4183.333,4189.872,4183.59,4167.821,4171.923,4186.667,4219.359,0,0
562,82,0,3113,4208.205,4219.744000000001,4170.255999999999,4182.9490000000005,4185.255999999999,4168.59,4173.974,4181.667,4185.641,4169.872,4163.974,4166.41,4182.179,4203.333,0,0
563,83,0,3405,4196.538,4211.154,4170.513,4182.692,4185.897,4176.667,4171.795,4182.436,4183.59,4159.487,4165.385,4162.821,4179.487,4196.41,0,0
564,84,0,3204,4183.205,4198.462,4170.0,4184.872,4183.205,4179.615,4170.0,4180.769,4188.59,4168.718,4161.154,4162.436,4182.692,4184.615,0,0
565,85,0,1768,4175.641,4188.333,4167.564,4182.692,4177.9490000000005,4169.103,4170.385,4178.333,4190.897,4178.59,4155.0,4161.026,4184.231,4174.487,0,0
566,86,0,3113,4179.359,4189.487,4170.128,4181.795,4177.821,4168.333,4170.641,4181.538,4184.872,4174.231,4153.974,4160.769,4183.718,4179.487,0,0
567,87,0,3405,4184.615,4196.923,4174.103,4192.436,4181.026,4175.255999999999,4176.154,4182.9490000000005,4189.487,4178.59,4160.769,4167.9490000000005,4187.0509999999995,4185.0,0,0
568,88,0,3204,4186.026,4199.103,4172.564,4196.282,4173.974,4171.41,4182.9490000000005,4180.513,4199.231,4186.282,4165.255999999999,4173.974,4191.538,4184.359,0,0
569,89,0,1768,4183.59,4195.513,4170.769,4188.333,4169.872,4175.385,4184.103,4184.744000000001,4194.231,4176.154,4163.974,4168.59,4190.513,4186.923,0,0
570,90,0,3113,4174.872,4185.641,4169.231,4180.769,4180.897,4187.308,4181.41,4183.846,4186.538,4167.9490000000005,4162.564,4162.821,4182.564,4183.462,0,0
571,91,0,3405,4165.897,4176.282,4166.923,4173.718,4179.487,4181.026,4175.0,4174.487,4188.205,4171.282,4159.359,4160.897,4177.308,4169.359,0,0
572,92,0,3204,4169.103,4175.255999999999,4167.692,4172.308,4167.9490000000005,4169.744000000001,4171.026,4176.538,4187.179,4173.59,4155.513,4161.026,4182.308,4164.359,0,0
573,93,0,1768,4169.744000000001,4174.744000000001,4172.0509999999995,4181.923,4169.615,4169.487,4173.59,4185.0,4184.359,4172.308,4157.821,4163.205,4189.615,4163.974,0,0
574,94,0,3113,4158.846,4169.231,4171.538,4184.359,4166.026,4171.026,4173.974,4183.974,4184.744000000001,4164.359,4155.641,4159.359,4187.308,4154.615,0,0
575,95,0,3405,4151.538,4159.615,4163.974,4171.923,4153.077,4169.615,4173.077,4181.282,4184.615,4153.718,4141.026,4153.974,4179.103,4150.128,0,0
576,96,0,3204,4151.154,4153.59,4156.923,4165.513,4154.103,4169.615,4181.154,4184.487,4185.769,4153.462,4133.718,4154.103,4177.0509999999995,4151.923,0,0
577,97,0,1768,4150.641,4154.872,4154.359,4167.692,4161.923,4174.872,4187.179,4185.897,4186.538,4153.718,4141.41,4152.9490000000005,4181.795,4145.0,0,0
578,98,0,3113,4151.282,4157.821,4156.154,4165.769,4164.103,4184.615,4183.718,4183.846,4185.255999999999,4147.9490000000005,4148.077,4146.41,4184.359,4136.41,0,0
579,99,0,3405,4150.0,4155.897,4157.179,4157.436,4162.692,4187.179,4182.564,4182.436,4185.0,4148.718,4141.41,4146.282,4180.0,4139.487,0,0
580,100,0,3204,4148.077,4154.103,4156.538,4154.615,4162.9490000000005,4182.564,4187.692,4183.077,4187.0509999999995,4158.462,4141.026,4152.564,4179.231,4146.154,0,0
581,101,0,1768,4153.974,4158.333,4162.692,4164.231,4167.9490000000005,4183.846,4189.359,4184.744000000001,4189.615,4165.897,4155.641,4157.564,4184.615,4152.308,0,0
582,102,0,3113,4158.077,4163.077,4170.128,4170.513,4172.9490000000005,4186.795,4186.667,4186.41,4188.846,4167.436,4159.231,4157.436,4185.897,4158.846,0,0
583,103,0,3405,4154.872,4165.0,4170.0,4169.615,4169.231,4184.615,4186.538,4185.255999999999,4183.718,4161.026,4153.077,4158.974,4182.564,4158.462,0,0
584,104,0,3204,4154.872,4165.513,4169.872,4170.641,4165.385,4183.462,4188.974,4183.59,4183.974,4160.128,4154.872,4166.154,4182.308,4158.974,0,0
585,105,0,1768,4155.769,4162.821,4172.9490000000005,4169.487,4168.462,4184.359,4189.487,4183.205,4189.615,4167.821,4157.0509999999995,4168.205,4186.026,4164.872,0,0
586,106,0,3113,4159.487,4159.359,4171.282,4166.282,4170.255999999999,4186.667,4185.513,4181.538,4186.795,4170.513,4157.436,4163.846,4186.538,4166.923,0,0
587,107,0,3405,4169.615,4166.282,4173.718,4171.538,4170.255999999999,4182.308,4185.128,4182.0509999999995,4182.436,4171.923,4169.615,4165.128,4186.795,4175.128,0,0
588,108,0,3204,4175.128,4174.872,4184.359,4181.795,4169.359,4173.205,4186.538,4184.231,4187.308,4173.718,4180.641,4171.667,4187.436,4185.0,0,0
589,109,0,1768,4174.872,4173.718,4187.308,4182.564,4169.103,4173.205,4185.128,4184.744000000001,4191.026,4174.615,4175.385,4175.513,4187.179,4179.615,0,0
590,110,0,3113,4173.718,4168.077,4181.026,4175.385,4170.385,4175.0,4184.103,4184.103,4186.923,4176.795,4170.641,4173.846,4186.667,4170.897,0,0
591,111,0,3405,4170.769,4169.487,4180.128,4171.026,4176.154,4174.744000000001,4185.385,4186.923,4190.128,4183.462,4177.564,4172.179,4186.154,4173.462,0,0
592,112,0,3204,4170.769,4173.077,4183.077,4170.897,4185.897,4179.487,4188.846,4191.923,4201.026,4191.923,4179.872,4175.641,4189.872,4165.385,0,0
593,113,0,1768,4167.564,4171.282,4182.0509999999995,4171.41,4187.564,4184.744000000001,4188.59,4192.436,4200.0,4192.564,4170.513,4174.103,4191.41,4144.872,0,0
594,114,0,3113,4157.179,4167.179,4177.692,4168.462,4178.59,4183.205,4186.026,4187.436,4191.154,4186.026,4168.462,4167.821,4187.692,4136.282,0,0
595,115,0,3405,4156.923,4167.821,4173.59,4165.769,4179.872,4184.231,4191.667,4184.615,4191.282,4182.179,4175.255999999999,4167.564,4188.333,4137.0509999999995,0,0
596,116,0,3204,4163.974,4168.718,4177.179,4167.692,4187.179,4189.744000000001,4197.692,4188.974,4198.846,4180.641,4176.41,4169.872,4192.692,4137.436,0,0
597,117,0,1768,4164.103,4165.385,4183.077,4170.385,4174.103,4184.487,4189.487,4188.59,4200.255999999999,4177.9490000000005,4174.744000000001,4163.59,4188.974,4134.872,0,0
598,118,0,3113,4162.692,4165.0,4181.795,4167.179,4161.667,4173.846,4182.179,4185.255999999999,4195.0,4180.769,4177.179,4161.923,4183.462,4136.154,0,0
599,119,0,3405,4165.513,4170.255999999999,4179.359,4168.718,4175.897,4171.795,4189.487,4189.103,4194.744000000001,4188.077,4175.769,4171.154,4192.692,4148.59,0,0
600,120,0,3204,4164.359,4172.179,4181.282,4176.41,4184.359,4173.718,4190.897,4190.641,4197.0509999999995,4187.821,4172.9490000000005,4172.821,4199.487,4153.205,0,0
601,121,0,1768,4161.026,4167.692,4177.692,4178.462,4175.385,4174.487,4187.436,4187.692,4196.154,4185.385,4173.59,4163.846,4190.385,4144.359,0,0
602,122,0,3113,4160.128,4166.41,4174.487,4178.462,4179.872,4179.231,4193.205,4188.077,4196.026,4186.41,4173.846,4161.667,4183.846,4140.769,0,0
603,123,0,3405,4159.615,4169.487,4182.179,4184.615,4188.205,4184.872,4194.872,4188.974,4200.255999999999,4186.154,4172.436,4166.154,4186.795,4142.692,0,0
604,124,0,3204,4157.564,4166.154,4180.641,4183.974,4184.487,4188.462,4188.718,4186.41,4198.077,4182.821,4173.333,4166.026,4186.795,4139.615,0,0
605,125,0,1768,4155.769,4160.897,4168.077,4173.718,4184.103,4192.436,4188.205,4185.255999999999,4190.0,4176.282,4170.128,4163.205,4181.154,4136.795,0,0
606,126,0,3113,4159.359,4164.359,4170.513,4172.692,4182.179,4189.487,4190.255999999999,4187.564,4187.564,4168.718,4167.821,4163.974,4180.513,4138.846,0,0
607,127,0,53,4161.154,4167.692,4184.744000000001,4183.974,4175.255999999999,4181.667,4186.282,4188.077,4186.795,4168.846,4169.615,4165.769,4182.0509999999995,4145.0,0,0
608,0,0,2111,4161.026,4166.667,4186.795,4184.744000000001,4176.41,4181.667,4182.692,4186.795,4186.923,4175.0,4168.462,4167.821,4182.692,4150.513,0,0
609,1,0,2565,4165.0,4168.333,4183.846,4175.0,4177.9490000000005,4184.487,4185.0,4186.923,4189.103,4174.872,4172.308,4171.026,4182.9490000000005,4153.462,0,0
610,2,0,2949,4170.641,4170.385,4188.077,4176.41,4171.795,4185.255999999999,4184.487,4188.974,4189.872,4174.872,4186.026,4173.718,4183.974,4162.564,0,0
611,3,0,3055,4170.513,4169.231,4187.0509999999995,4179.872,4170.897,4185.128,4176.282,4189.487,4187.821,4184.487,4187.692,4175.769,4185.897,4167.436,0,0
612,4,0,3532,4164.103,4169.231,4177.564,4177.0509999999995,4178.462,4182.564,4168.974,4186.923,4186.41,4189.744000000001,4175.897,4172.692,4186.923,4157.564,0,0
613,5,0,2050,4158.846,4168.718,4176.154,4181.282,4184.615,4180.897,4171.026,4186.026,4188.718,4176.538,4171.026,4167.179,4182.692,4151.41,0,0
614,6,0,2465,4160.0,4167.0509999999995,4180.0,4189.744000000001,4186.026,4182.308,4173.846,4184.231,4188.59,4162.308,4171.667,4166.026,4171.41,4155.385,0,0
615,7,0,1724,4167.308,4168.718,4181.154,4187.436,4180.255999999999,4183.718,4174.744000000001,4181.538,4185.255999999999,4166.026,4170.769,4169.744000000001,4167.821,4155.897,0,0
616,8,0,1340,4170.641,4171.026,4179.615,4182.9490000000005,4169.487,4182.692,4182.564,4188.462,4189.872,4176.667,4172.436,4170.255999999999,4178.974,4155.513,0,0
617,9,0,3529,4166.41,4166.282,4175.0,4185.255999999999,4160.255999999999,4181.538,4190.513,4201.538,4199.359,4183.077,4169.872,4167.0509999999995,4186.538,4155.513,0,0
618,10,0,3111,4156.154,4155.897,4169.487,4181.026,4160.128,4183.205,4186.538,4199.103,4195.769,4183.718,4164.872,4164.231,4183.974,4151.282,0,0
619,11,0,3407,4149.872,4152.308,4169.103,4170.769,4168.205,4185.897,4182.0509999999995,4188.462,4187.564,4182.308,4171.538,4164.359,4183.333,4151.026,0,0
620,12,0,3203,4158.59,4161.538,4170.641,4169.103,4175.0,4188.077,4183.59,4193.205,4194.231,4187.564,4184.872,4169.744000000001,4186.282,4155.385,0,0
621,13,0,1769,4167.821,4166.795,4172.179,4178.205,4177.564,4188.077,4184.872,4200.0,4201.923,4197.564,4189.231,4173.333,4188.205,4160.769,0,0
622,14,0,3111,4160.255999999999,4159.872,4175.128,4177.308,4175.255999999999,4185.255999999999,4185.128,4191.795,4200.128,4193.59,4181.154,4170.769,4187.436,4160.0,0,0
623,15,0,3407,4150.255999999999,4155.385,4173.205,4168.077,4167.436,4185.128,4181.795,4182.821,4196.795,4181.795,4171.923,4164.744000000001,4182.9490000000005,4154.487,0,0
624,16,0,0,4160.769,4164.103,4172.179,4174.872,4167.821,4187.564,4180.0,4183.846,4192.0509999999995,4185.513,4172.821,4164.872,4181.538,4157.9490000000005,0,0
625,17,0,0,4169.615,4171.538,4173.462,4186.795,4179.487,4187.692,4181.154,4185.513,4187.436,4188.077,4175.513,4169.744000000001,4181.795,4162.564,0,0
626,18,0,0,4158.846,4169.103,4171.923,4187.0509999999995,4184.103,4186.667,4176.795,4183.205,4185.897,4178.205,4172.692,4170.128,4177.436,4157.564,0,0
627,19,0,0,4152.179,4167.436,4169.744000000001,4185.128,4182.179,4187.436,4168.462,4181.667,4184.872,4175.897,4171.667,4164.103,4172.564,4152.179,0,0
628,20,0,0,4152.9490000000005,4167.692,4169.487,4186.795,4176.282,4185.0,4166.282,4181.795,4185.0,4175.128,4170.128,4164.487,4168.974,4155.769,0,0
629,21,0,0,4151.795,4167.308,4171.667,4185.0,4167.564,4181.282,4172.436,4184.615,4186.923,4172.564,4170.255999999999,4170.385,4174.744000000001,4161.538,0,0
630,22,0,0,4157.308,4168.59,4174.359,4185.641,4168.462,4185.255999999999,4181.538,4188.205,4188.333,4177.821,4178.333,4170.769,4183.59,4165.255999999999,0,0
631,23,0,0,4163.974,4169.231,4173.846,4188.077,4174.872,4186.026,4187.564,4189.103,4189.231,4186.923,4185.255999999999,4169.744000000001,4179.103,4166.667,0,0
632,24,0,0,4157.564,4165.769,4168.974,4181.026,4170.0,4181.795,4184.615,4185.769,4189.615,4185.769,4180.513,4169.487,4167.692,4161.795,0,0
633,25,0,0,4152.0509999999995,4163.718,4169.231,4174.103,4165.0,4185.897,4181.795,4184.872,4188.462,4174.872,4174.103,4168.462,4170.385,4159.103,0,0
634,26,0,0,4162.179,4167.564,4177.692,4180.897,4172.0509999999995,4186.667,4184.231,4187.436,4189.103,4172.308,4172.179,4168.846,4179.615,4166.026,0,0
635,27,0,0,4171.282,4171.026,4180.769,4187.308,4175.769,4177.821,4185.255999999999,4187.564,4188.718,4182.564,4173.077,4168.077,4180.513,4171.923,0,0
636,28,0,0,4168.59,4169.872,4177.692,4185.255999999999,4179.487,4178.333,4180.513,4184.615,4185.0,4187.436,4172.821,4165.513,4174.231,4166.026,0,0
637,29,0,0,4164.359,4167.821,4175.897,4190.897,4186.154,4185.255999999999,4175.641,4182.308,4184.744000000001,4179.231,4170.769,4165.255999999999,4170.641,4165.0,0,0
638,30,0,0,4169.744000000001,4172.9490000000005,4177.308,4200.641,4181.41,4182.179,4174.615,4183.333,4187.179,4181.41,4176.923,4167.564,4177.9490000000005,4179.103,0,0
639,31,0,0,4176.026,4183.59,4178.846,4198.846,4175.641,4182.308,4174.744000000001,4185.513,4186.538,4189.487,4189.103,4170.385,4185.255999999999,4187.0509999999995,0,0
640,32,0,0,4172.9490000000005,4184.231,4181.154,4192.821,4184.103,4182.692,4175.128,4186.667,4185.641,4184.872,4189.872,4171.923,4184.103,4181.41,0,0
641,33,0,0,4169.744000000001,4174.615,4183.846,4189.103,4184.231,4171.923,4176.026,4187.179,4189.487,4180.0,4177.308,4170.513,4180.255999999999,4174.103,0,0
642,34,0,0,4170.513,4174.615,4183.718,4186.667,4173.077,4172.692,4172.436,4185.0,4191.795,4182.308,4172.179,4169.103,4178.333,4176.538,0,0
643,35,0,0,4170.897,4183.974,4183.974,4187.436,4178.077,4185.513,4169.615,4183.333,4188.846,4184.231,4180.513,4170.0,4177.308,4183.333,0,0
644,36,0,0,4174.359,4187.564,4186.538,4188.974,4190.255999999999,4186.667,4179.872,4187.179,4187.9490000000005,4179.487,4187.9490000000005,4172.692,4179.231,4186.282,0,0
645,37,0,0,4171.282,4180.769,4184.359,4184.487,4185.897,4179.872,4184.744000000001,4186.154,4188.077,4171.154,4181.41,4170.641,4176.154,4181.41,0,0
646,38,0,0,4158.974,4172.308,4174.744000000001,4181.667,4178.205,4181.154,4178.333,4181.026,4184.615,4166.667,4162.821,4161.795,4168.077,4166.282,0,0
647,39,0,0,4152.692,4167.9490000000005,4172.564,4183.974,4177.0509999999995,4187.9490000000005,4181.795,4183.59,4183.718,4165.0,4154.103,4160.385,4168.333,4155.385,0,0
648,40,0,0,4154.359,4167.821,4181.667,4183.077,4178.718,4187.821,4190.255999999999,4189.231,4187.436,4166.923,4163.718,4166.667,4170.641,4161.282,0,0
649,41,0,0,4158.846,4171.154,4185.513,4182.179,4178.205,4187.9490000000005,4191.154,4193.59,4187.308,4178.59,4172.0509999999995,4167.308,4170.385,4172.692,0,0
650,42,0,0,4168.205,4172.821,4185.255999999999,4188.077,4178.462,4197.0509999999995,4194.103,4196.795,4191.538,4189.359,4168.205,4165.128,4176.282,4174.872,0,0
651,43,0,0,4169.872,4169.615,4187.692,4193.205,4182.436,4199.872,4198.077,4194.103,4198.205,4183.974,4167.9490000000005,4168.077,4181.026,4169.359,0,0
652,44,0,0,4156.282,4168.077,4182.9490000000005,4183.59,4179.487,4187.9490000000005,4190.128,4186.026,4194.487,4173.462,4170.769,4164.872,4173.718,4159.744000000001,0,0
653,45,0,0,4148.846,4164.744000000001,4173.205,4170.897,4168.718,4180.513,4181.923,4183.462,4189.615,4173.59,4165.641,4156.282,4166.538,4155.385,0,0
654,46,0,0,4149.744000000001,4156.795,4169.231,4170.769,4167.821,4183.974,4179.103,4183.718,4190.641,4174.615,4156.41,4154.231,4166.282,4156.026,0,0
655,47,0,0,4147.692,4159.872,4168.846,4173.333,4179.359,4183.59,4178.462,4181.282,4187.308,4171.41,4152.179,4155.769,4166.667,4153.718,0,0
656,48,0,0,4148.077,4168.718,4167.692,4169.615,4180.255999999999,4179.359,4181.282,4180.0,4182.9490000000005,4166.795,4153.205,4155.128,4169.231,4152.564,0,0
657,49,0,0,4150.897,4167.821,4170.513,4172.179,4170.0,4176.41,4182.821,4182.436,4185.128,4165.769,4154.487,4157.436,4169.231,4160.385,0,0
658,50,0,0,4154.744000000001,4166.795,4178.846,4182.9490000000005,4166.667,4171.795,4182.436,4187.308,4187.692,4170.128,4154.615,4163.205,4169.103,4168.59,0,0
659,51,0,0,4156.282,4171.923,4179.487,4185.255999999999,4168.462,4175.513,4185.641,4187.821,4192.821,4170.255999999999,4159.487,4163.333,4172.821,4169.615,0,0
660,52,0,0,4154.359,4171.923,4177.179,4180.641,4169.744000000001,4183.462,4187.308,4187.821,4197.436,4173.077,4166.41,4163.974,4173.846,4167.564,0,0
661,53,0,0,4157.821,4168.974,4181.282,4179.231,4172.308,4183.59,4183.846,4190.0,4194.872,4191.154,4170.769,4166.538,4176.282,4167.436,0,0
662,54,0,0,4167.821,4170.255999999999,4185.385,4179.103,4179.744000000001,4180.255999999999,4185.0,4189.615,4196.667,4204.872,4172.308,4167.436,4184.872,4174.487,0,0
663,55,0,0,4172.9490000000005,4173.59,4187.436,4178.718,4185.128,4183.974,4189.615,4187.821,4202.179,4195.513,4172.0509999999995,4169.744000000001,4190.513,4184.744000000001,0,0
664,56,0,0,4171.41,4172.564,4188.077,4173.462,4181.667,4187.179,4186.667,4186.538,4195.641,4183.846,4172.308,4170.0,4180.513,4184.744000000001,0,0
665,57,0,0,4170.385,4168.846,4183.333,4169.231,4177.308,4182.821,4180.513,4186.154,4187.308,4184.872,4171.41,4163.59,4170.385,4179.103,0,0
666,58,0,0,4169.872,4173.077,4179.487,4173.846,4182.564,4185.641,4181.41,4190.769,4194.872,4185.641,4170.255999999999,4160.128,4177.564,4180.769,0,0
667,59,0,0,4167.9490000000005,4180.0,4182.692,4176.667,4189.615,4191.026,4184.744000000001,4196.282,4203.974,4186.795,4169.615,4161.154,4186.667,4176.795,0,0
668,60,0,0,4167.179,4176.923,4184.487,4170.513,4186.282,4185.641,4183.205,4192.564,4197.308,4191.282,4167.9490000000005,4160.769,4181.282,4166.41,0,0
669,61,0,0,4169.615,4177.564,4185.769,4170.255999999999,4181.923,4180.255999999999,4182.9490000000005,4186.667,4186.282,4190.897,4167.0509999999995,4162.436,4177.179,4175.255999999999,0,0
670,62,0,0,4171.795,4181.026,4187.0509999999995,4176.667,4184.103,4182.692,4186.41,4185.769,4187.0509999999995,4186.282,4169.359,4163.462,4183.333,4187.9490000000005,0,0
671,63,0,0,4168.333,4175.128,4182.9490000000005,4177.821,4188.974,4184.103,4185.897,4185.385,4191.026,4184.231,4170.0,4160.641,4185.385,4179.359,0,0
672,64,0,2114,4167.179,4174.872,4183.333,4175.769,4194.103,4184.487,4183.59,4185.897,4189.872,4185.897,4166.667,4160.641,4181.795,4170.641,0,0
673,65,0,2566,4171.41,4182.0509999999995,4190.0,4174.103,4192.564,4185.641,4186.667,4187.436,4188.718,4185.513,4166.795,4163.718,4177.308,4174.103,0,0
674,66,0,2958,4171.538,4178.077,4188.718,4173.718,4187.692,4182.436,4188.974,4186.41,4189.103,4184.487,4170.128,4160.897,4171.667,4174.231,0,0
675,67,0,3059,4164.487,4169.744000000001,4182.564,4175.641,4187.308,4182.436,4185.128,4186.795,4186.923,4185.513,4168.077,4158.205,4170.385,4172.179,0,0
676,68,0,3535,4156.282,4168.077,4182.0509999999995,4172.436,4186.923,4185.769,4183.59,4187.9490000000005,4185.513,4183.974,4161.538,4157.821,4170.641,4170.385,0,0
677,69,0,2052,4157.9490000000005,4170.0,4183.846,4169.615,4182.308,4180.128,4187.436,4186.923,4190.513,4182.436,4161.923,4160.897,4172.692,4169.615,0,0
678,70,0,2465,4168.077,4174.487,4183.974,4178.462,4179.744000000001,4175.897,4188.205,4186.923,4196.154,4187.564,4173.462,4168.077,4179.487,4176.282,0,0
679,71,0,1724,4172.9490000000005,4182.0509999999995,4183.974,4184.359,4182.564,4183.205,4185.897,4188.333,4195.897,4198.462,4179.359,4171.538,4185.385,4183.718,0,0
680,72,0,1346,4172.564,4185.0,4183.205,4179.872,4186.538,4186.41,4187.564,4188.205,4196.154,4205.513,4173.846,4169.872,4186.41,4185.769,0,0
681,73,0,3526,4173.077,4181.538,4186.667,4179.359,4183.59,4181.41,4186.282,4187.308,4195.128,4197.9490000000005,4168.974,4167.436,4182.0509999999995,4185.769,0,0
682,74,0,3111,4174.231,4182.0509999999995,4194.487,4185.769,4176.538,4182.564,4186.667,4188.974,4188.846,4191.154,4170.641,4169.615,4180.385,4188.462,0,0
683,75,0,3410,4174.359,4183.974,4193.462,4187.9490000000005,4178.077,4187.692,4193.718,4190.769,4185.128,4193.59,4171.538,4172.436,4180.255999999999,4186.538,0,0
684,76,0,3203,4171.667,4177.179,4181.795,4180.255999999999,4186.282,4187.179,4190.897,4186.795,4185.897,4189.744000000001,4169.103,4166.538,4174.872,4180.513,0,0
685,77,0,1770,4167.692,4172.9490000000005,4181.667,4175.769,4187.308,4184.359,4182.0509999999995,4182.821,4184.872,4181.026,4165.769,4159.872,4174.872,4178.205,0,0
686,78,0,3111,4174.103,4181.41,4193.205,4180.255999999999,4185.897,4186.795,4190.385,4190.128,4189.615,4189.231,4168.462,4168.846,4182.692,4183.974,0,0
687,79,0,3410,4187.308,4187.436,4196.667,4188.205,4194.872,4187.9490000000005,4202.692,4198.59,4200.641,4203.333,4183.333,4179.872,4187.179,4197.821,0,0
688,80,0,3203,4189.744000000001,4185.0,4191.282,4189.231,4202.0509999999995,4185.385,4201.538,4195.255999999999,4200.385,4201.282,4188.59,4175.769,4185.385,4200.897,0,0
689,81,0,1770,4185.641,4186.923,4189.487,4185.641,4202.179,4193.462,4195.769,4188.077,4192.308,4196.282,4172.308,4170.128,4183.205,4190.255999999999,0,0
690,82,0,3111,4184.744000000001,4181.795,4190.255999999999,4182.9490000000005,4200.769,4198.718,4189.872,4187.0509999999995,4189.103,4188.462,4168.462,4169.359,4176.538,4183.718,0,0
691,83,0,3410,4182.436,4174.872,4190.255999999999,4182.564,4192.564,4186.667,4184.359,4186.795,4186.154,4178.205,4179.615,4167.564,4170.897,4185.255999999999,0,0
692,84,0,3203,4181.538,4180.769,4192.821,4186.795,4185.769,4178.718,4186.282,4186.795,4184.103,4184.615,4176.667,4170.385,4171.538,4186.538,0,0
693,85,0,1770,4185.641,4186.282,4193.462,4187.0509999999995,4194.231,4182.821,4188.205,4187.692,4192.564,4190.255999999999,4172.692,4173.846,4174.359,4186.795,0,0
694,86,0,3111,4186.154,4185.641,4191.667,4184.615,4200.641,4184.615,4187.0509999999995,4187.9490000000005,4199.359,4182.436,4182.179,4171.795,4181.026,4188.846,0,0
695,87,0,3410,4185.128,4185.255999999999,4192.821,4186.41,4193.974,4183.077,4191.538,4190.513,4195.897,4189.359,4179.744000000001,4170.769,4186.795,4185.641,0,0
696,88,0,3203,4191.923,4185.897,4190.641,4186.154,4193.718,4188.462,4195.385,4192.821,4195.513,4202.9490000000005,4169.872,4170.128,4185.769,4184.103,0,0
697,89,0,1770,4198.718,4188.718,4188.974,4187.436,4199.487,4193.974,4197.179,4195.0,4199.231,4194.615,4176.795,4168.846,4184.103,4191.154,0,0
698,90,0,3111,4200.769,4197.0509999999995,4197.179,4193.718,4201.154,4192.179,4201.154,4197.9490000000005,4200.255999999999,4191.538,4185.255999999999,4173.974,4188.462,4201.154,0,0
699,91,0,3410,4203.205,4202.821,4198.462,4192.0509999999995,4201.795,4186.795,4206.41,4197.436,4199.744000000001,4210.385,4187.9490000000005,4179.872,4195.769,4204.872,0,0
700,92,0,3203,4202.0509999999995,4196.026,4188.205,4184.872,4194.872,4186.154,4208.077,4198.462,4200.641,4218.333,4190.897,4178.333,4197.436,4199.487,0,0
701,93,0,1770,4199.615,4187.0509999999995,4188.974,4188.205,4179.359,4190.513,4206.667,4199.487,4200.255999999999,4209.487,4190.128,4175.641,4194.872,4198.718,0,0
702,94,0,3111,4201.282,4185.128,4194.487,4186.026,4168.077,4188.846,4200.769,4190.641,4199.359,4201.41,4188.462,4174.615,4190.641,4203.077,0,0
703,95,0,3410,4199.744000000001,4182.821,4190.897,4173.333,4166.923,4181.154,4187.821,4181.538,4197.0509999999995,4192.821,4184.615,4170.513,4181.154,4197.692,0,0
704,96,0,3203,4196.923,4180.128,4191.795,4175.385,4176.282,4183.974,4184.615,4186.282,4196.538,4191.282,4185.385,4172.436,4179.359,4193.077,0,0
705,97,0,1770,4199.487,4181.795,4199.487,4185.0,4183.846,4193.718,4192.436,4189.231,4197.564,4200.897,4192.9490000000005,4176.667,4188.077,4199.872,0,0
706,98,0,3111,4200.769,4185.0,4196.795,4183.846,4184.487,4189.872,4193.718,4186.282,4197.308,4206.154,4198.846,4174.359,4190.897,4206.026,0,0
707,99,0,3410,4201.026,4185.128,4193.59,4179.744000000001,4185.0,4177.9490000000005,4187.9490000000005,4189.487,4199.872,4196.795,4197.308,4174.231,4188.077,4203.59,0,0
708,100,0,3203,4201.154,4182.564,4198.974,4179.359,4183.462,4180.385,4185.255999999999,4190.385,4199.872,4191.538,4190.385,4176.282,4185.128,4198.077,0,0
709,101,0,1770,4199.487,4180.385,4200.641,4181.282,4184.103,4188.077,4188.077,4186.538,4197.564,4195.385,4185.641,4173.205,4185.769,4195.641,0,0
710,102,0,3111,4200.769,4181.538,4199.359,4184.487,4193.205,4188.462,4191.154,4187.9490000000005,4197.821,4194.103,4190.897,4170.897,4192.692,4198.974,0,0
711,103,0,3410,4204.103,4185.641,4201.667,4184.872,4196.026,4189.744000000001,4191.795,4192.179,4198.077,4197.308,4196.538,4174.872,4197.179,4203.333,0,0
712,104,0,3203,4202.179,4186.282,4200.769,4186.026,4191.282,4190.385,4190.128,4192.0509999999995,4197.692,4206.282,4190.385,4175.769,4192.692,4199.103,0,0
713,105,0,1770,4192.436,4180.0,4187.9490000000005,4183.333,4191.667,4184.487,4185.641,4186.795,4194.872,4195.513,4184.615,4168.333,4182.692,4188.718,0,0
714,106,0,3111,4184.231,4176.795,4179.615,4173.462,4190.255999999999,4180.769,4185.769,4186.41,4192.436,4181.667,4186.282,4163.462,4176.154,4182.179,0,0
715,107,0,3410,4186.538,4182.308,4191.667,4175.897,4181.795,4183.077,4194.231,4195.641,4194.359,4190.897,4191.538,4170.897,4182.821,4183.846,0,0
716,108,0,3203,4190.513,4185.128,4201.667,4187.179,4181.538,4186.538,4195.769,4198.077,4199.487,4198.718,4201.41,4178.59,4191.667,4187.0509999999995,0,0
717,109,0,1770,4186.538,4179.744000000001,4191.282,4183.462,4186.538,4183.974,4186.154,4187.692,4198.205,4190.128,4202.436,4170.897,4186.154,4185.641,0,0
718,110,0,3111,4184.744000000001,4181.154,4183.205,4175.385,4190.769,4184.615,4184.359,4183.974,4189.615,4188.974,4192.179,4167.308,4179.744000000001,4185.385,0,0
719,111,0,3410,4187.692,4186.923,4188.333,4174.744000000001,4194.744000000001,4192.692,4188.846,4188.59,4185.641,4194.615,4187.179,4170.385,4185.641,4187.179,0,0
720,112,0,3203,4184.103,4180.0,4189.103,4174.103,4190.128,4192.821,4186.795,4186.923,4191.923,4191.154,4187.308,4169.359,4187.436,4184.359,0,0
721,113,0,1770,4181.026,4175.128,4184.872,4177.692,4186.026,4186.154,4188.718,4186.923,4201.154,4191.795,4191.667,4168.718,4184.487,4183.333,0,0
722,114,0,3111,4182.564,4180.769,4185.897,4184.615,4184.103,4183.846,4189.744000000001,4191.026,4198.205,4196.667,4200.128,4170.385,4185.255999999999,4187.0509999999995,0,0
723,115,0,3410,4184.872,4186.923,4187.436,4186.282,4180.385,4187.436,4187.436,4190.128,4193.333,4196.41,4202.179,4166.923,4190.641,4187.179,0,0
724,116,0,3203,4187.308,4188.205,4186.282,4185.897,4183.718,4188.718,4193.846,4189.359,4197.179,4199.615,4196.538,4165.385,4192.564,4186.154,0,0
725,117,0,1770,4185.769,4187.692,4186.795,4188.077,4193.59,4184.231,4199.615,4189.359,4201.282,4202.0509999999995,4198.462,4171.282,4192.308,4192.179,0,0
726,118,0,3111,4188.974,4189.487,4193.077,4193.846,4199.103,4188.974,4198.462,4189.103,4198.846,4195.897,4208.974,4177.308,4194.359,4200.641,0,0
727,119,0,3410,4198.077,4191.795,4195.897,4199.487,4199.103,4196.923,4196.667,4188.718,4191.538,4191.923,4209.487,4177.9490000000005,4197.9490000000005,4202.821,0,0
728,120,0,3203,4197.0509999999995,4191.282,4188.59,4199.744000000001,4204.487,4193.974,4200.641,4191.154,4188.333,4201.923,4203.333,4174.615,4199.359,4201.667,0,0
729,121,0,1770,4185.385,4185.769,4183.205,4193.205,4205.385,4184.103,4200.0,4191.667,4193.846,4204.231,4199.103,4169.103,4195.385,4196.538,0,0
730,122,0,3111,4176.41,4182.308,4184.103,4185.385,4191.667,4182.308,4190.641,4187.179,4199.359,4193.974,4195.769,4170.128,4187.692,4183.462,0,0
731,123,0,3410,4180.128,4184.231,4185.385,4189.872,4188.462,4192.308,4190.255999999999,4190.255999999999,4199.103,4201.538,4198.974,4176.154,4193.462,4185.769,0,0
732,124,0,3203,4183.462,4186.41,4188.333,4198.846,4198.846,4198.077,4199.615,4196.41,4198.59,4212.308,4199.872,4176.41,4203.846,4197.436,0,0
733,125,0,1770,4176.41,4183.205,4190.641,4194.103,4191.154,4193.333,4201.154,4193.077,4198.462,4197.308,4188.205,4169.872,4194.487,4192.821,0,0
734,126,0,3111,4169.872,4175.128,4187.436,4185.641,4174.744000000001,4183.462,4197.564,4189.359,4196.667,4186.026,4188.077,4169.231,4187.692,4184.744000000001,0,0
735,127,0,53,4178.974,4174.103,4190.385,4189.231,4183.205,4184.103,4201.538,4196.282,4198.077,4201.795,4206.026,4175.641,4200.0,4187.179,0,0
736,0,0,2108,4185.897,4181.923,4199.359,4191.026,4200.769,4192.179,4204.103,4200.255999999999,4200.255999999999,4214.615,4205.641,4177.436,4204.872,4191.795,0,0
737,1,0,2564,4182.821,4189.231,4201.026,4185.0,4199.872,4191.41,4201.154,4194.103,4199.231,4207.436,4195.897,4176.795,4198.59,4194.872,0,0
738,2,0,2951,4190.641,4189.615,4197.436,4191.667,4189.744000000001,4186.667,4202.0509999999995,4195.128,4198.59,4203.718,4208.59,4179.615,4198.205,4201.026,0,0
739,3,0,3053,4198.333,4186.923,4194.744000000001,4197.821,4180.641,4185.385,4201.282,4196.538,4197.9490000000005,4204.872,4217.821,4181.154,4197.0509999999995,4203.974,0,0
740,4,0,3526,4188.205,4185.385,4190.897,4189.615,4180.255999999999,4188.077,4198.333,4189.359,4196.795,4203.974,4203.462,4176.538,4193.205,4201.923,0,0
741,5,0,2048,4181.538,4186.026,4192.0509999999995,4190.0,4188.333,4186.667,4197.436,4183.974,4197.308,4205.641,4198.205,4175.513,4195.385,4203.59,0,0
742,6,0,2459,4194.487,4192.308,4201.538,4203.59,4193.462,4185.769,4198.974,4188.205,4198.718,4211.154,4210.0,4184.103,4201.282,4208.077,0,0
743,7,0,1723,4200.641,4196.667,4207.9490000000005,4207.9490000000005,4192.0509999999995,4189.487,4198.718,4190.385,4200.255999999999,4210.128,4209.744000000001,4188.846,4201.282,4208.462,0,0
744,8,0,1344,4188.333,4190.128,4202.9490000000005,4199.615,4187.436,4186.923,4192.179,4185.641,4200.769,4193.974,4199.103,4180.385,4191.154,4202.0509999999995,0,0
745,9,0,3514,4181.41,4183.205,4195.0,4198.205,4180.255999999999,4185.255999999999,4186.538,4185.385,4198.718,4186.154,4197.821,4173.205,4183.718,4197.436,0,0
746,10,0,3104,4181.026,4183.718,4191.795,4200.0,4172.436,4188.077,4191.026,4186.667,4196.667,4197.692,4200.513,4173.718,4185.897,4191.923,0,0
747,11,0,3402,4177.436,4181.538,4189.103,4198.846,4177.179,4189.487,4198.974,4187.0509999999995,4197.436,4207.564,4200.385,4175.385,4186.923,4185.641,0,0
748,12,0,3193,4172.564,4179.231,4186.282,4196.538,4189.487,4185.769,4198.205,4187.692,4199.487,4204.744000000001,4199.487,4175.641,4183.462,4185.255999999999,0,0
749,13,0,1764,4171.41,4181.923,4182.9490000000005,4195.255999999999,4185.385,4184.487,4194.872,4187.821,4199.744000000001,4199.231,4198.333,4172.436,4187.308,4184.103,0,0
750,14,0,3104,4176.026,4183.974,4182.821,4198.846,4179.359,4187.9490000000005,4200.128,4189.744000000001,4199.231,4200.0,4198.077,4170.641,4198.462,4187.308,0,0
751,15,0,3402,4184.231,4189.103,4191.923,4202.179,4196.667,4188.718,4204.872,4194.487,4200.385,4209.872,4207.9490000000005,4178.333,4208.59,4199.487,0,0
752,16,0,0,4186.923,4191.923,4201.667,4203.077,4208.077,4186.282,4204.359,4200.128,4201.795,4217.692,4220.513,4185.769,4209.744000000001,4205.769,0,0
753,17,0,0,4185.0,4186.538,4202.9490000000005,4204.103,4192.436,4184.487,4201.41,4197.436,4202.692,4208.333,4215.897,4182.692,4203.59,4201.154,0,0
754,18,0,0,4184.359,4184.103,4199.615,4199.487,4183.077,4185.128,4194.615,4189.103,4200.128,4198.846,4199.615,4176.667,4196.923,4191.154,0,0
755,19,0,0,4182.308,4187.692,4195.897,4193.462,4191.795,4186.795,4194.359,4188.077,4196.154,4205.641,4195.255999999999,4175.128,4195.0,4187.436,0,0
756,20,0,0,4185.0,4188.077,4193.846,4198.077,4196.538,4189.615,4198.205,4192.692,4198.59,4211.923,4206.41,4177.9490000000005,4201.154,4196.026,0,0
757,21,0,0,4182.564,4186.795,4198.333,4200.255999999999,4194.872,4187.692,4196.923,4193.077,4202.179,4211.154,4213.205,4177.821,4204.744000000001,4197.0509999999995,0,0
758,22,0,0,4170.385,4186.667,4201.282,4189.487,4195.897,4185.255999999999,4196.795,4190.641,4201.282,4210.0,4207.436,4174.744000000001,4197.564,4185.641,0,0
759,23,0,0,4171.41,4187.0509999999995,4192.821,4182.821,4194.359,4196.923,4197.564,4191.667,4200.769,4206.154,4199.872,4173.333,4196.282,4188.718,0,0
760,24,0,0,4181.795,4187.179,4186.795,4187.821,4189.487,4201.923,4189.487,4191.538,4202.9490000000005,4206.795,4199.359,4176.282,4201.154,4197.308,0,0
761,25,0,0,4181.667,4185.255999999999,4185.128,4186.795,4185.385,4186.795,4183.974,4186.667,4201.795,4210.897,4203.333,4178.462,4192.564,4192.308,0,0
762,26,0,0,4179.487,4191.282,4190.641,4184.872,4182.9490000000005,4184.103,4193.974,4187.692,4200.385,4208.205,4206.41,4177.564,4187.0509999999995,4192.308,0,0
763,27,0,0,4191.667,4202.9490000000005,4206.41,4195.769,4183.846,4202.692,4201.154,4199.359,4201.026,4208.205,4211.923,4183.205,4198.974,4206.795,0,0
764,28,0,0,4199.872,4201.923,4211.923,4199.872,4186.667,4202.564,4199.231,4200.128,4202.0509999999995,4217.308,4219.872,4189.744000000001,4205.255999999999,4214.231,0,0
765,29,0,0,4192.0509999999995,4194.487,4204.487,4188.718,4185.897,4187.692,4200.255999999999,4188.846,4202.436,4219.231,4216.538,4184.231,4198.59,4206.667,0,0
766,30,0,0,4185.0,4195.513,4200.513,4182.692,4190.255999999999,4189.872,4202.564,4189.231,4200.0,4212.436,4204.872,4175.897,4197.564,4198.974,0,0
767,31,0,0,4185.255999999999,4199.359,4201.795,4187.308,4200.0,4193.462,4200.641,4199.103,4199.615,4207.821,4199.872,4178.718,4197.564,4200.641,0,0
768,32,0,0,4186.282,4199.872,4201.795,4189.103,4204.744000000001,4187.308,4199.615,4200.641,4201.923,4211.282,4201.795,4181.154,4193.462,4203.077,0,0
769,33,0,0,4182.564,4196.667,4197.436,4188.974,4201.41,4184.872,4202.0509999999995,4200.513,4202.564,4213.205,4199.103,4177.436,4196.41,4192.179,0,0
770,34,0,0,4182.436,4194.103,4190.385,4188.59,4200.385,4188.59,4201.026,4199.487,4201.923,4208.333,4197.308,4175.385,4200.897,4182.692,0,0
771,35,0,0,4181.282,4194.231,4186.538,4185.513,4203.077,4190.769,4198.718,4191.795,4200.769,4203.718,4200.128,4172.692,4198.333,4186.026,0,0
772,36,0,0,4178.974,4192.821,4187.436,4191.026,4202.9490000000005,4186.41,4198.462,4185.255999999999,4199.872,4201.538,4198.846,4170.255999999999,4195.255999999999,4188.205,0,0
773,37,0,0,4180.0,4186.026,4188.59,4196.923,4196.154,4185.385,4197.821,4187.179,4200.0,4200.641,4198.205,4173.846,4193.077,4184.487,0,0
