,COUNTER, INTERPOLATED, RAW_CQ, AF3, F7, F3, FC5, T7, P7, O1, O2, P8, T8, FC6, F4, F8, AF4, MARKER_HARDWARE, MARKER
0,25,0,0,4182.9490000000005,4175.128,4185.128,4183.718,4183.974,4187.308,4189.872,4190.128,4197.179,4169.359,4173.59,4180.128,4176.154,4172.9490000000005,0,0
1,26,0,0,4179.231,4174.231,4185.897,4182.564,4163.077,4172.308,4188.205,4186.923,4186.667,4167.0509999999995,4166.41,4180.769,4170.255999999999,4169.615,0,0
2,27,0,0,4173.59,4171.154,4186.795,4172.9490000000005,4165.641,4166.41,4183.077,4182.821,4189.359,4174.487,4160.128,4176.282,4172.692,4166.795,0,0
3,28,0,0,4165.641,4165.0,4182.692,4166.923,4177.821,4174.359,4181.282,4184.103,4189.615,4166.154,4154.872,4170.128,4172.821,4158.333,0,0
4,29,0,0,4160.255999999999,4158.462,4181.795,4172.179,4174.103,4176.923,4183.077,4183.462,4184.744000000001,4156.154,4153.333,4167.9490000000005,4168.974,4152.308,0,0
5,30,0,0,4163.59,4163.205,4185.513,4181.923,4175.385,4167.692,4186.282,4180.641,4189.231,4160.513,4161.667,4176.026,4167.821,4162.692,0,0
6,31,0,0,4174.487,4175.385,4189.231,4190.255999999999,4192.0509999999995,4167.0509999999995,4187.9490000000005,4182.308,4196.282,4169.359,4158.846,4183.333,4175.0,4172.821,0,0
7,32,0,0,4180.385,4181.795,4190.385,4193.333,4197.564,4179.744000000001,4185.769,4184.872,4192.0509999999995,4177.564,4149.487,4181.795,4181.41,4172.821,0,0
8,33,0,0,4180.641,4182.179,4189.359,4188.333,4179.872,4178.846,4181.795,4185.128,4190.385,4178.59,4163.974,4182.564,4179.744000000001,4171.282,0,0
9,34,0,0,4178.462,4179.615,4187.0509999999995,4183.974,4164.103,4172.0509999999995,4181.538,4185.385,4197.564,4172.179,4180.641,4184.615,4178.462,4170.897,0,0
10,35,0,0,4177.436,4173.205,4185.0,4185.769,4178.59,4181.923,4183.462,4185.513,4200.769,4167.564,4173.718,4180.255999999999,4178.718,4175.897,0,0
11,36,0,0,4179.615,4173.462,4187.9490000000005,4188.205,4191.282,4186.795,4186.923,4187.179,4199.487,4175.0,4165.255999999999,4177.692,4171.795,4180.255999999999,0,0
12,37,0,0,4176.41,4177.0509999999995,4192.9490000000005,4186.923,4175.641,4175.641,4190.255999999999,4188.205,4201.282,4185.255999999999,4161.026,4180.897,4172.436,4171.41,0,0
13,38,0,0,4168.462,4172.692,4190.128,4183.846,4175.641,4170.513,4183.333,4182.821,4202.179,4181.282,4153.333,4180.385,4180.769,4167.9490000000005,0,0
14,39,0,0,4167.564,4169.103,4182.821,4181.026,4189.359,4172.564,4176.026,4177.436,4198.205,4170.769,4156.154,4178.462,4177.436,4174.359,0,0
15,40,0,0,4172.436,4174.487,4182.692,4182.821,4183.333,4175.255999999999,4182.436,4180.513,4198.077,4171.923,4167.179,4181.795,4176.538,4170.897,0,0
16,41,0,0,4173.077,4177.564,4186.41,4184.103,4182.821,4185.641,4187.821,4184.359,4200.0,4170.385,4171.026,4182.0509999999995,4182.564,4167.179,0,0
17,42,0,0,4170.128,4172.821,4184.103,4180.385,4187.179,4187.9490000000005,4184.103,4181.41,4197.692,4159.359,4167.821,4178.077,4175.385,4171.026,0,0
18,43,0,0,4166.795,4170.897,4181.41,4181.026,4174.487,4174.615,4186.795,4181.154,4197.564,4161.667,4165.255999999999,4177.179,4167.436,4170.769,0,0
19,44,0,0,4167.821,4177.564,4184.872,4185.769,4170.897,4168.718,4191.026,4186.41,4201.026,4174.103,4167.0509999999995,4178.077,4177.0509999999995,4167.179,0,0
20,45,0,0,4172.308,4181.538,4185.769,4183.974,4185.128,4172.179,4178.462,4181.41,4200.385,4186.795,4165.769,4177.308,4183.333,4168.077,0,0
21,46,0,0,4171.282,4176.795,4180.897,4179.872,4190.769,4169.872,4169.231,4173.333,4199.744000000001,4189.744000000001,4165.769,4175.769,4179.872,4170.385,0,0
22,47,0,0,4165.897,4172.179,4178.077,4176.41,4184.103,4171.154,4177.436,4175.641,4198.59,4174.359,4168.205,4173.718,4177.9490000000005,4167.821,0,0
23,48,0,0,4160.641,4171.026,4178.333,4177.0509999999995,4189.103,4179.231,4187.308,4176.154,4191.41,4163.718,4162.821,4167.436,4171.41,4161.923,0,0
24,49,0,0,4157.308,4169.487,4172.9490000000005,4178.974,4195.128,4180.0,4183.846,4168.846,4185.513,4160.128,4152.179,4162.564,4166.026,4155.385,0,0
25,50,0,0,4156.026,4169.744000000001,4166.026,4177.436,4182.564,4168.333,4167.9490000000005,4165.641,4186.538,4151.282,4149.231,4163.718,4166.538,4153.59,0,0
26,51,0,0,4161.154,4174.872,4171.923,4181.538,4178.333,4167.821,4166.795,4174.872,4191.795,4160.385,4161.667,4172.821,4170.0,4160.769,0,0
27,52,0,0,4169.615,4176.667,4184.615,4189.744000000001,4190.897,4179.103,4187.564,4184.487,4199.744000000001,4180.385,4173.59,4182.821,4171.923,4175.255999999999,0,0
28,53,0,0,4171.154,4173.333,4188.846,4186.923,4183.205,4178.205,4192.308,4182.179,4199.487,4170.0,4166.667,4177.179,4170.385,4171.41,0,0
29,54,0,0,4164.744000000001,4168.718,4185.769,4180.255999999999,4153.333,4169.359,4171.282,4178.205,4191.538,4154.872,4157.308,4168.077,4169.103,4149.231,0,0
30,55,0,0,4159.487,4167.9490000000005,4182.821,4182.9490000000005,4150.0,4170.128,4168.333,4179.744000000001,4189.103,4163.333,4162.692,4168.077,4166.41,4153.462,0,0
31,56,0,0,4157.564,4163.077,4180.897,4177.179,4172.821,4173.462,4185.769,4177.564,4195.641,4159.615,4164.615,4171.667,4160.128,4174.872,0,0
32,57,0,0,4157.179,4146.667,4181.538,4166.795,4176.282,4169.615,4183.077,4169.231,4195.641,4144.103,4160.513,4171.026,4158.59,4170.385,0,0
33,58,0,0,4170.513,4154.231,4185.0,4176.41,4163.59,4169.103,4173.846,4170.255999999999,4187.9490000000005,4150.769,4168.077,4172.308,4163.846,4161.026,0,0
34,59,0,0,4186.795,4189.872,4182.308,4189.872,4173.333,4172.564,4177.308,4178.718,4189.487,4166.795,4172.9490000000005,4171.795,4165.769,4178.59,0,0
35,60,0,0,4190.128,4206.154,4178.974,4190.255999999999,4186.795,4173.333,4179.231,4183.205,4195.255999999999,4156.026,4166.538,4168.846,4161.538,4193.59,0,0
36,61,0,0,4194.103,4204.359,4181.667,4188.077,4176.923,4170.0,4172.436,4184.359,4191.026,4139.872,4164.103,4170.641,4158.462,4188.077,0,0
37,62,0,0,4199.487,4209.744000000001,4183.974,4188.59,4168.846,4167.564,4167.564,4182.564,4185.255999999999,4148.205,4161.026,4171.923,4157.179,4184.231,0,0
38,63,0,0,4193.077,4210.641,4185.769,4188.077,4175.769,4179.359,4175.255999999999,4182.821,4188.718,4158.205,4161.41,4171.795,4162.821,4186.026,0,0
39,64,0,2216,4187.692,4201.538,4190.385,4190.385,4180.769,4183.846,4186.282,4185.128,4190.769,4154.615,4166.154,4171.154,4170.255999999999,4188.205,0,0
40,65,0,2654,4185.385,4193.462,4184.744000000001,4186.667,4174.487,4173.974,4185.128,4183.205,4186.282,4151.667,4156.923,4168.077,4167.436,4185.255999999999,0,0
41,66,0,2917,4177.692,4184.615,4175.385,4173.205,4169.744000000001,4172.692,4181.154,4181.154,4188.205,4161.026,4149.231,4169.359,4160.641,4180.128,0,0
42,67,0,3040,4179.615,4183.205,4179.487,4173.974,4170.769,4177.0509999999995,4185.769,4183.333,4189.359,4169.615,4162.308,4172.821,4163.205,4181.667,0,0
43,68,0,3536,4188.205,4193.462,4185.513,4186.282,4168.205,4171.667,4183.333,4184.744000000001,4187.179,4164.231,4175.641,4175.255999999999,4167.9490000000005,4187.308,0,0
44,69,0,2076,4187.821,4199.872,4185.385,4189.103,4169.615,4167.692,4178.333,4182.821,4186.667,4157.179,4175.385,4175.385,4165.0,4186.795,0,0
45,70,0,2439,4185.769,4200.255999999999,4184.487,4184.744000000001,4180.513,4171.026,4179.872,4181.923,4186.923,4158.205,4168.846,4175.128,4163.462,4186.154,0,0
46,71,0,1620,4187.564,4200.128,4184.872,4183.205,4184.744000000001,4169.487,4175.769,4181.795,4186.41,4155.128,4159.744000000001,4173.077,4164.103,4183.974,0,0
47,72,0,1350,4188.333,4204.487,4185.641,4187.0509999999995,4176.282,4167.692,4174.359,4184.487,4191.282,4155.128,4157.436,4171.154,4164.744000000001,4182.692,0,0
48,73,0,3522,4190.128,4208.718,4186.026,4188.974,4184.487,4170.641,4186.667,4189.231,4198.846,4167.564,4168.077,4172.9490000000005,4167.821,4192.179,0,0
49,74,0,3094,4190.769,4204.359,4185.897,4185.513,4202.308,4180.769,4199.615,4189.872,4201.026,4174.103,4175.641,4174.359,4169.231,4192.692,0,0
50,75,0,3409,4189.103,4200.769,4184.359,4185.641,4189.615,4184.359,4197.308,4187.564,4199.103,4171.667,4167.308,4171.282,4170.641,4180.897,0,0
51,76,0,3220,4188.718,4201.667,4177.692,4187.9490000000005,4175.128,4174.615,4186.026,4187.692,4196.154,4171.41,4165.385,4163.59,4174.744000000001,4186.026,0,0
52,77,0,1770,4186.154,4201.026,4168.333,4184.231,4181.41,4168.59,4184.103,4188.718,4191.154,4164.359,4166.923,4159.872,4173.59,4195.769,0,0
53,78,0,3094,4182.0509999999995,4198.205,4165.897,4181.154,4173.333,4167.692,4190.255999999999,4185.641,4186.026,4151.923,4157.564,4159.487,4167.692,4184.615,0,0
54,79,0,3409,4182.308,4195.128,4169.744000000001,4183.846,4163.846,4174.615,4187.0509999999995,4181.154,4186.154,4153.59,4157.821,4161.538,4169.103,4176.41,0,0
55,80,0,3220,4186.282,4196.154,4172.9490000000005,4187.821,4188.59,4184.487,4178.718,4181.923,4187.564,4161.923,4171.154,4166.41,4171.667,4187.9490000000005,0,0
56,81,0,1770,4184.872,4195.128,4173.59,4183.205,4199.103,4177.9490000000005,4181.282,4184.231,4185.897,4162.9490000000005,4171.538,4166.667,4169.487,4188.846,0,0
57,82,0,3094,4177.0509999999995,4188.59,4170.0,4173.333,4173.462,4166.795,4184.615,4182.692,4187.179,4160.385,4160.385,4164.103,4166.795,4175.513,0,0
58,83,0,3409,4177.0509999999995,4191.538,4170.385,4174.231,4174.872,4174.103,4184.872,4183.333,4191.795,4162.0509999999995,4163.718,4166.41,4171.923,4172.9490000000005,0,0
59,84,0,3220,4186.795,4203.077,4179.615,4186.667,4191.795,4181.538,4181.923,4187.179,4193.077,4168.333,4175.255999999999,4170.769,4182.692,4187.564,0,0
60,85,0,1770,4192.436,4203.462,4186.667,4191.538,4185.769,4173.077,4183.205,4187.564,4190.128,4176.282,4177.308,4172.821,4182.436,4195.128,0,0
61,86,0,3094,4191.154,4198.205,4185.255999999999,4189.615,4181.026,4170.513,4196.923,4187.692,4192.564,4181.795,4173.718,4175.897,4175.641,4191.923,0,0
62,87,0,3409,4191.282,4198.205,4178.718,4189.872,4188.333,4174.359,4200.255999999999,4189.487,4195.513,4177.692,4177.0509999999995,4176.154,4176.282,4196.154,0,0
63,88,0,3220,4189.744000000001,4196.026,4173.333,4184.615,4188.846,4170.769,4188.462,4190.128,4192.564,4165.897,4180.385,4175.0,4178.846,4197.9490000000005,0,0
64,89,0,1770,4183.718,4191.026,4171.026,4180.641,4171.282,4171.667,4189.744000000001,4189.615,4187.821,4160.513,4169.744000000001,4173.077,4175.128,4187.821,0,0
65,90,0,3094,4182.179,4191.282,4170.769,4182.0509999999995,4161.667,4184.744000000001,4202.692,4187.692,4188.077,4158.846,4163.846,4168.333,4171.923,4178.59,0,0
66,91,0,3409,4182.692,4192.821,4170.641,4181.667,4186.923,4188.59,4201.154,4184.231,4192.308,4160.769,4164.872,4166.538,4171.795,4179.744000000001,0,0
67,92,0,3220,4175.897,4189.744000000001,4170.641,4176.795,4192.821,4174.231,4188.846,4182.0509999999995,4189.872,4163.333,4153.333,4165.769,4168.205,4181.667,0,0
68,93,0,1770,4166.41,4184.231,4169.359,4170.0,4161.282,4167.179,4184.744000000001,4179.103,4183.333,4156.667,4143.974,4159.359,4163.59,4170.385,0,0
69,94,0,3094,4166.667,4181.923,4166.154,4169.231,4158.718,4171.026,4180.0,4173.462,4183.077,4151.154,4145.513,4156.282,4161.923,4153.59,0,0
70,95,0,3409,4169.744000000001,4183.462,4166.282,4172.308,4181.795,4170.255999999999,4169.615,4170.641,4182.436,4151.154,4148.718,4158.974,4164.744000000001,4152.692,0,0
71,96,0,3220,4163.333,4179.615,4169.359,4170.513,4172.436,4167.692,4165.255999999999,4171.667,4181.026,4148.974,4152.179,4159.487,4165.255999999999,4166.026,0,0
72,97,0,1770,4158.462,4171.026,4167.564,4165.641,4145.385,4165.641,4165.641,4174.231,4183.59,4148.59,4151.154,4160.385,4164.744000000001,4171.538,0,0
73,98,0,3094,4166.026,4166.154,4163.718,4167.436,4141.538,4166.282,4166.282,4175.641,4187.179,4153.462,4149.231,4164.872,4167.564,4167.821,0,0
74,99,0,3409,4171.667,4169.615,4166.667,4171.923,4162.179,4170.897,4176.538,4177.179,4184.872,4162.564,4156.026,4165.385,4165.897,4163.205,0,0
75,100,0,3220,4168.462,4176.538,4170.641,4169.872,4170.897,4172.179,4187.692,4180.128,4185.255999999999,4173.205,4159.872,4163.205,4165.897,4165.255999999999,0,0
76,101,0,1770,4168.462,4177.692,4170.255999999999,4167.436,4155.513,4172.308,4178.718,4180.897,4187.436,4171.538,4161.026,4166.154,4171.667,4173.077,0,0
77,102,0,3094,4173.59,4180.897,4173.718,4176.282,4163.333,4175.897,4174.872,4182.0509999999995,4185.385,4162.9490000000005,4171.154,4169.615,4171.282,4171.667,0,0
78,103,0,3409,4172.436,4186.154,4178.59,4187.564,4190.385,4171.41,4183.333,4184.872,4183.718,4167.179,4167.564,4171.154,4167.821,4165.255999999999,0,0
79,104,0,3220,4170.255999999999,4188.077,4176.795,4188.333,4191.538,4172.179,4185.128,4185.255999999999,4185.255999999999,4172.9490000000005,4158.333,4171.026,4176.538,4176.282,0,0
80,105,0,1770,4171.41,4186.41,4172.436,4182.436,4182.692,4183.462,4183.462,4182.308,4185.128,4162.308,4167.9490000000005,4170.641,4179.103,4186.538,0,0
81,106,0,3094,4169.744000000001,4185.769,4170.0,4181.41,4179.359,4178.846,4180.128,4182.0509999999995,4183.846,4159.231,4168.974,4167.179,4167.9490000000005,4175.897,0,0
82,107,0,3409,4165.513,4185.897,4167.0509999999995,4182.436,4167.179,4167.821,4177.564,4185.513,4184.744000000001,4170.0,4153.59,4164.103,4167.0509999999995,4167.308,0,0
83,108,0,3220,4171.538,4186.154,4167.692,4182.179,4171.026,4172.179,4184.744000000001,4187.436,4187.308,4170.513,4156.667,4167.308,4171.667,4177.692,0,0
84,109,0,1770,4184.103,4185.769,4177.179,4184.103,4186.41,4174.872,4188.974,4185.641,4189.359,4167.9490000000005,4167.436,4173.974,4169.487,4183.974,0,0
85,110,0,3094,4185.0,4187.436,4185.897,4184.487,4176.154,4175.385,4184.615,4185.128,4188.333,4175.769,4164.231,4176.538,4173.462,4182.308,0,0
86,111,0,3409,4182.179,4195.128,4187.564,4185.255999999999,4165.128,4189.487,4188.974,4188.974,4186.795,4189.231,4172.821,4178.462,4180.513,4193.077,0,0
87,112,0,3220,4183.846,4193.462,4185.769,4186.41,4175.255999999999,4192.308,4192.308,4190.255999999999,4187.179,4191.923,4188.205,4180.0,4179.231,4197.564,0,0
88,113,0,1770,4184.231,4183.718,4184.872,4187.0509999999995,4186.923,4181.282,4182.308,4187.0509999999995,4185.385,4176.795,4180.0,4178.205,4173.462,4185.513,0,0
89,114,0,3094,4185.897,4192.179,4187.564,4188.205,4191.282,4185.385,4182.9490000000005,4187.821,4191.538,4172.564,4169.744000000001,4177.821,4175.769,4187.821,0,0
90,115,0,3409,4188.205,4201.154,4187.0509999999995,4187.308,4185.769,4192.179,4193.718,4189.744000000001,4198.59,4189.231,4172.0509999999995,4180.385,4178.462,4193.718,0,0
91,116,0,3220,4187.564,4194.231,4182.692,4186.154,4172.9490000000005,4185.255999999999,4190.641,4186.795,4191.282,4195.0,4174.487,4179.103,4172.821,4187.564,0,0
92,117,0,1770,4187.179,4199.359,4185.255999999999,4192.692,4177.179,4178.59,4180.513,4185.897,4184.872,4184.103,4175.513,4178.462,4174.231,4189.359,0,0
93,118,0,3094,4187.692,4212.308,4190.769,4202.179,4191.154,4181.538,4189.231,4186.667,4190.0,4186.41,4174.231,4180.255999999999,4186.667,4196.923,0,0
94,119,0,3409,4190.255999999999,4207.0509999999995,4190.641,4202.179,4181.923,4183.718,4202.0509999999995,4185.255999999999,4188.462,4193.59,4175.385,4180.897,4184.744000000001,4194.487,0,0
95,120,0,3220,4193.333,4201.538,4192.436,4196.538,4178.974,4183.077,4196.026,4192.179,4188.59,4188.974,4182.9490000000005,4181.923,4174.103,4195.255999999999,0,0
96,121,0,1770,4191.538,4202.0509999999995,4192.436,4192.179,4198.333,4185.897,4187.9490000000005,4198.846,4197.179,4188.333,4183.59,4180.255999999999,4180.255999999999,4202.436,0,0
97,122,0,3094,4185.769,4193.718,4186.026,4187.692,4185.513,4186.538,4183.462,4188.718,4192.0509999999995,4189.744000000001,4175.385,4178.333,4183.718,4196.538,0,0
98,123,0,3409,4183.205,4188.718,4184.872,4186.026,4157.564,4182.692,4175.769,4179.872,4182.436,4183.974,4172.692,4179.359,4176.154,4187.179,0,0
99,124,0,3220,4185.385,4193.59,4188.077,4188.59,4170.128,4180.641,4179.487,4188.333,4186.667,4182.0509999999995,4170.897,4180.513,4181.538,4191.026,0,0
100,125,0,1770,4187.436,4196.026,4188.205,4188.846,4199.872,4184.872,4193.846,4194.359,4191.154,4194.103,4172.0509999999995,4179.872,4189.744000000001,4195.513,0,0
101,126,0,3094,4184.359,4194.359,4187.0509999999995,4187.9490000000005,4200.641,4189.744000000001,4195.769,4190.255999999999,4187.564,4199.231,4177.179,4180.641,4184.615,4188.718,0,0
102,127,0,53,4186.923,4197.0509999999995,4187.179,4193.718,4186.41,4189.744000000001,4194.615,4190.513,4186.41,4191.795,4178.077,4182.9490000000005,4180.641,4187.692,0,0
103,0,0,2215,4197.692,4205.513,4185.385,4197.0509999999995,4186.41,4185.513,4196.154,4192.9490000000005,4187.564,4193.59,4182.308,4184.231,4186.795,4203.846,0,0
104,1,0,2653,4195.385,4207.436,4184.744000000001,4195.641,4190.513,4181.41,4187.9490000000005,4189.872,4187.564,4195.641,4186.026,4182.436,4187.436,4207.821,0,0
105,2,0,2914,4186.154,4201.538,4184.872,4195.255999999999,4187.692,4183.974,4181.154,4185.769,4187.564,4181.154,4178.846,4178.333,4184.231,4195.513,0,0
106,3,0,3038,4187.0509999999995,4200.513,4181.41,4193.205,4188.077,4186.282,4185.769,4184.744000000001,4187.308,4173.462,4168.205,4176.667,4184.744000000001,4187.436,0,0
107,4,0,3526,4188.974,4199.103,4177.9490000000005,4187.692,4187.692,4186.282,4190.0,4185.255999999999,4185.897,4181.923,4165.641,4178.205,4186.282,4184.744000000001,0,0
108,5,0,2075,4187.436,4189.615,4181.538,4188.718,4178.718,4186.795,4187.821,4187.308,4187.821,4188.333,4168.462,4180.128,4183.59,4186.667,0,0
109,6,0,2432,4184.359,4187.0509999999995,4184.872,4192.564,4178.077,4181.282,4190.769,4189.103,4193.077,4193.462,4172.0509999999995,4178.846,4181.538,4192.821,0,0
110,7,0,1620,4179.872,4189.872,4181.667,4189.487,4181.538,4177.9490000000005,4198.205,4185.897,4192.821,4191.154,4172.0509999999995,4175.0,4183.462,4190.769,0,0
111,8,0,1348,4178.718,4186.923,4184.103,4189.359,4174.231,4181.282,4200.513,4187.436,4190.385,4184.872,4170.641,4174.487,4184.231,4183.333,0,0
112,9,0,3521,4179.359,4181.41,4185.0,4187.0509999999995,4178.718,4185.255999999999,4201.923,4194.487,4190.128,4185.128,4163.846,4176.282,4180.128,4183.205,0,0
113,10,0,3085,4179.359,4179.744000000001,4172.9490000000005,4183.205,4190.769,4186.795,4198.718,4191.154,4187.9490000000005,4174.615,4154.872,4175.128,4171.41,4183.462,0,0
114,11,0,3412,4182.821,4184.231,4170.255999999999,4188.974,4184.103,4179.744000000001,4188.077,4184.744000000001,4186.923,4159.103,4159.744000000001,4178.205,4169.103,4181.923,0,0
115,12,0,3218,4189.103,4193.846,4182.564,4192.436,4188.077,4167.564,4182.9490000000005,4188.077,4189.103,4178.205,4172.564,4186.282,4180.0,4190.385,0,0
116,13,0,1764,4191.282,4198.205,4188.718,4188.333,4202.179,4165.641,4187.0509999999995,4189.744000000001,4189.359,4204.744000000001,4175.255999999999,4187.436,4187.436,4202.821,0,0
117,14,0,3085,4188.974,4194.359,4185.769,4190.513,4197.821,4174.103,4185.255999999999,4184.872,4187.0509999999995,4192.179,4170.513,4178.462,4183.59,4202.179,0,0
118,15,0,3412,4191.282,4189.487,4186.026,4198.846,4188.462,4180.641,4183.205,4184.487,4187.436,4177.9490000000005,4170.0,4175.128,4182.692,4199.231,0,0
119,16,0,0,4198.974,4192.564,4188.462,4201.154,4186.026,4186.923,4189.359,4188.077,4189.359,4190.128,4173.59,4181.154,4190.897,4206.41,0,0
120,17,0,0,4197.564,4196.538,4186.538,4194.487,4185.255999999999,4182.564,4190.128,4187.564,4187.436,4188.462,4175.0,4182.436,4188.846,4202.821,0,0
121,18,0,0,4184.103,4188.462,4180.513,4186.282,4183.462,4167.308,4180.385,4183.59,4182.0509999999995,4169.744000000001,4172.821,4176.282,4176.282,4186.282,0,0
122,19,0,0,4181.923,4184.359,4180.128,4187.9490000000005,4188.718,4166.795,4178.718,4183.205,4183.462,4170.769,4175.128,4175.0,4174.872,4190.255999999999,0,0
123,20,0,0,4190.255999999999,4190.769,4185.385,4190.513,4200.897,4172.692,4186.795,4187.0509999999995,4187.692,4180.255999999999,4177.692,4179.231,4178.974,4205.641,0,0
124,21,0,0,4186.41,4189.359,4189.359,4187.564,4204.103,4171.026,4189.103,4188.462,4184.487,4181.538,4169.744000000001,4178.333,4181.154,4199.744000000001,0,0
125,22,0,0,4184.487,4187.692,4191.41,4195.128,4188.333,4170.0,4187.308,4188.077,4186.41,4185.128,4169.103,4180.385,4182.564,4190.513,0,0
126,23,0,0,4193.846,4195.0,4192.436,4203.846,4179.872,4170.513,4186.667,4187.564,4190.513,4188.077,4180.769,4185.641,4181.923,4196.41,0,0
127,24,0,0,4197.0509999999995,4194.872,4192.9490000000005,4198.59,4191.154,4170.128,4185.255999999999,4187.692,4188.59,4184.615,4181.026,4186.41,4180.897,4200.769,0,0
128,25,0,0,4194.359,4193.077,4191.667,4196.41,4190.0,4170.897,4183.846,4190.0,4192.564,4185.385,4177.308,4183.333,4184.359,4202.9490000000005,0,0
129,26,0,0,4197.564,4197.692,4188.205,4197.821,4176.154,4167.436,4183.462,4187.308,4195.0,4187.821,4184.231,4183.333,4187.564,4204.231,0,0
130,27,0,0,4199.744000000001,4195.897,4186.795,4194.872,4176.026,4170.255999999999,4182.692,4179.615,4186.795,4183.462,4185.641,4183.205,4183.205,4204.231,0,0
131,28,0,0,4199.487,4196.795,4194.744000000001,4198.462,4192.821,4182.692,4183.462,4180.897,4185.513,4188.077,4183.077,4182.9490000000005,4183.59,4213.333,0,0
132,29,0,0,4204.872,4205.897,4198.59,4203.333,4201.41,4180.513,4185.513,4187.821,4191.282,4201.538,4186.923,4185.769,4193.974,4221.795,0,0
133,30,0,0,4202.564,4203.718,4189.487,4199.744000000001,4186.41,4168.205,4184.744000000001,4186.667,4187.564,4197.692,4186.282,4184.231,4194.487,4216.154,0,0
134,31,0,0,4199.359,4201.538,4185.641,4197.179,4182.179,4168.974,4185.128,4185.385,4185.641,4182.308,4183.59,4183.718,4187.308,4213.333,0,0
135,32,0,0,4210.897,4214.231,4188.846,4199.103,4200.128,4174.744000000001,4189.103,4188.205,4190.255999999999,4187.179,4185.513,4186.282,4187.308,4215.513,0,0
136,33,0,0,4214.744000000001,4219.487,4188.333,4198.718,4194.103,4173.59,4187.821,4185.897,4187.0509999999995,4205.128,4187.179,4184.872,4191.026,4215.897,0,0
137,34,0,0,4205.385,4213.077,4183.333,4198.846,4173.462,4170.385,4184.615,4184.359,4184.231,4202.436,4189.359,4183.718,4189.744000000001,4220.255999999999,0,0
138,35,0,0,4199.103,4210.385,4181.923,4198.974,4187.179,4172.436,4194.872,4187.436,4186.41,4189.231,4191.282,4181.026,4186.923,4219.103,0,0
139,36,0,0,4198.846,4216.667,4182.0509999999995,4199.359,4207.436,4175.128,4199.872,4186.026,4188.077,4191.282,4189.487,4178.205,4185.128,4209.103,0,0
140,37,0,0,4201.923,4217.179,4183.462,4200.128,4200.897,4174.231,4190.255999999999,4183.333,4188.846,4201.026,4191.923,4183.205,4185.513,4210.255999999999,0,0
141,38,0,0,4210.0,4214.231,4187.308,4200.641,4193.077,4172.0509999999995,4187.0509999999995,4184.872,4189.744000000001,4199.872,4195.385,4192.0509999999995,4189.359,4221.667,0,0
142,39,0,0,4226.026,4232.308,4188.333,4208.205,4190.641,4173.59,4188.974,4183.205,4187.0509999999995,4192.692,4197.179,4193.846,4186.667,4236.154,0,0
143,40,0,0,4250.897,4261.923,4190.385,4217.692,4186.026,4173.333,4183.077,4182.0509999999995,4185.641,4196.026,4212.692,4199.487,4183.846,4265.0,0,0
144,41,0,0,4281.282,4276.282,4195.128,4219.359,4179.615,4172.821,4181.667,4186.41,4188.462,4202.821,4231.538,4206.795,4187.0509999999995,4300.255999999999,0,0
145,42,0,0,4309.615,4290.128,4199.231,4219.103,4170.641,4172.308,4182.9490000000005,4186.41,4186.795,4196.282,4237.9490000000005,4204.872,4183.333,4333.718,0,0
146,43,0,0,4345.513,4320.128,4205.769,4231.41,4177.692,4168.974,4180.769,4184.487,4185.641,4194.744000000001,4253.077,4213.333,4182.308,4379.103,0,0
147,44,0,0,4386.026,4343.205,4217.9490000000005,4245.641,4197.692,4176.41,4191.282,4187.564,4190.641,4214.103,4280.385,4228.846,4193.462,4424.615,0,0
148,45,0,0,4401.923,4345.385,4226.282,4240.255999999999,4199.359,4182.564,4197.564,4187.821,4189.872,4219.359,4290.0,4230.255999999999,4194.359,4440.255999999999,0,0
149,46,0,0,4396.923,4342.436,4227.179,4233.205,4194.359,4177.308,4193.462,4188.974,4188.077,4207.179,4281.41,4228.59,4182.821,4440.128,0,0
150,47,0,0,4398.205,4345.0,4231.154,4242.821,4192.308,4174.231,4197.436,4198.333,4195.255999999999,4211.667,4278.462,4233.974,4187.821,4443.718,0,0
151,48,0,0,4402.9490000000005,4348.974,4235.128,4252.692,4192.436,4180.769,4202.0509999999995,4204.359,4202.692,4225.255999999999,4286.154,4233.718,4202.692,4439.103,0,0
152,49,0,0,4391.282,4339.615,4229.231,4240.897,4206.538,4187.436,4201.026,4198.846,4200.513,4226.026,4293.974,4226.154,4198.718,4423.205,0,0
153,50,0,0,4364.231,4315.897,4212.821,4221.923,4207.436,4181.026,4194.359,4190.897,4193.462,4220.897,4282.564,4219.103,4185.513,4396.923,0,0
154,51,0,0,4332.308,4290.513,4196.795,4216.795,4185.897,4174.231,4187.821,4189.103,4187.692,4214.359,4253.205,4208.846,4182.9490000000005,4358.333,0,0
155,52,0,0,4301.282,4265.641,4191.282,4210.0,4178.59,4178.718,4186.667,4190.255999999999,4185.769,4204.231,4234.231,4202.692,4183.846,4318.077,0,0
156,53,0,0,4282.179,4248.205,4189.231,4200.0,4187.692,4190.0,4189.359,4189.872,4187.821,4199.744000000001,4231.41,4202.436,4183.974,4294.231,0,0
157,54,0,0,4266.923,4238.846,4185.897,4197.821,4187.179,4184.872,4188.077,4187.9490000000005,4189.744000000001,4198.205,4221.026,4198.974,4186.667,4279.487,0,0
158,55,0,0,4245.513,4226.41,4182.564,4200.897,4183.077,4170.513,4186.282,4186.795,4188.333,4186.026,4199.872,4188.846,4183.718,4259.872,0,0
159,56,0,0,4232.821,4216.41,4182.9490000000005,4201.538,4187.179,4169.103,4182.179,4184.487,4185.385,4173.718,4188.205,4183.718,4173.846,4237.9490000000005,0,0
160,57,0,0,4226.923,4211.923,4186.154,4195.641,4196.795,4172.821,4175.0,4181.667,4185.641,4177.0509999999995,4190.385,4187.436,4173.205,4220.897,0,0
161,58,0,0,4212.179,4200.128,4185.897,4189.231,4202.9490000000005,4172.564,4181.41,4182.179,4187.564,4185.897,4191.41,4186.41,4179.231,4210.513,0,0
162,59,0,0,4201.667,4187.9490000000005,4180.641,4186.154,4192.0509999999995,4168.333,4186.41,4183.846,4186.795,4186.538,4186.667,4181.026,4180.897,4205.513,0,0
163,60,0,0,4198.077,4180.385,4171.923,4182.179,4172.692,4166.923,4172.308,4182.821,4186.026,4182.436,4181.538,4179.615,4179.231,4195.128,0,0
164,61,0,0,4188.718,4174.744000000001,4168.974,4177.692,4168.846,4168.462,4165.641,4182.692,4186.282,4185.641,4179.359,4179.231,4180.255999999999,4181.41,0,0
165,62,0,0,4188.333,4176.41,4176.026,4182.564,4181.41,4171.538,4179.487,4185.897,4187.179,4193.718,4181.538,4180.513,4182.436,4189.231,0,0
166,63,0,0,4202.9490000000005,4178.077,4187.0509999999995,4190.255999999999,4191.41,4171.026,4190.513,4187.436,4188.846,4191.41,4183.846,4183.333,4185.641,4204.615,0,0
167,64,0,2215,4200.255999999999,4171.282,4188.846,4187.821,4192.179,4173.718,4187.436,4185.513,4188.077,4181.923,4180.769,4183.846,4186.795,4192.692,0,0
168,65,0,2653,4178.462,4167.436,4177.821,4182.821,4189.487,4183.718,4185.513,4183.077,4186.282,4180.641,4173.333,4178.077,4177.564,4170.385,0,0
169,66,0,2907,4175.897,4168.974,4173.846,4179.359,4177.564,4180.897,4190.0,4182.308,4182.436,4170.769,4170.0,4176.41,4167.0509999999995,4166.923,0,0
170,67,0,3040,4183.974,4161.538,4176.667,4173.974,4172.0509999999995,4168.205,4189.359,4185.128,4178.077,4144.231,4167.821,4178.974,4170.897,4170.897,0,0
171,68,0,3521,4174.487,4152.0509999999995,4171.538,4167.692,4184.872,4171.923,4182.179,4185.769,4180.513,4153.846,4167.821,4174.231,4179.615,4166.667,0,0
172,69,0,2071,4164.359,4151.538,4165.128,4164.615,4185.513,4185.128,4184.103,4184.231,4185.897,4188.333,4171.923,4168.077,4179.103,4158.205,0,0
173,70,0,2432,4168.205,4152.308,4166.282,4167.821,4170.769,4182.308,4193.333,4190.641,4186.282,4190.385,4171.795,4166.795,4178.59,4151.538,0,0
174,71,0,1619,4165.385,4146.667,4169.231,4170.385,4166.026,4173.462,4191.923,4198.718,4186.026,4179.744000000001,4166.282,4168.333,4182.9490000000005,4152.9490000000005,0,0
175,72,0,1348,4155.255999999999,4140.0,4167.0509999999995,4168.718,4170.128,4170.641,4182.692,4194.615,4187.821,4184.615,4167.692,4169.744000000001,4182.308,4156.282,0,0
176,73,0,3523,4155.255999999999,4140.513,4168.59,4165.128,4166.667,4170.897,4187.436,4187.0509999999995,4186.026,4181.026,4167.436,4170.128,4175.255999999999,4152.564,0,0
177,74,0,3089,4160.641,4145.897,4169.103,4164.359,4156.538,4178.59,4194.872,4189.359,4183.205,4157.692,4162.821,4170.255999999999,4167.692,4154.103,0,0
178,75,0,3409,4165.128,4151.667,4169.359,4167.308,4161.282,4181.795,4188.846,4191.923,4185.255999999999,4148.077,4166.923,4177.179,4168.974,4158.846,0,0
179,76,0,3220,4169.359,4158.333,4175.385,4171.154,4187.9490000000005,4175.0,4186.795,4188.462,4186.795,4166.538,4178.077,4185.641,4179.103,4161.923,0,0
180,77,0,1766,4171.538,4164.615,4177.0509999999995,4172.308,4197.9490000000005,4169.487,4185.385,4186.026,4185.0,4183.077,4180.128,4181.667,4180.897,4168.718,0,0
181,78,0,3089,4170.641,4167.564,4169.231,4171.154,4183.846,4169.615,4176.538,4183.974,4183.333,4177.564,4174.103,4172.692,4174.103,4172.821,0,0
182,79,0,3409,4170.641,4163.846,4167.564,4173.462,4182.179,4176.795,4176.41,4184.487,4184.359,4173.846,4170.385,4173.846,4173.718,4168.974,0,0
183,80,0,3220,4172.308,4165.0,4180.0,4181.41,4190.255999999999,4183.718,4187.564,4188.59,4184.487,4186.667,4173.974,4178.333,4178.974,4168.718,0,0
184,81,0,1766,4172.0509999999995,4167.564,4188.462,4186.667,4185.897,4175.385,4187.0509999999995,4187.308,4184.231,4182.436,4174.744000000001,4180.128,4179.103,4170.513,0,0
185,82,0,3089,4169.359,4160.385,4184.872,4183.333,4175.255999999999,4164.103,4180.513,4182.179,4183.974,4160.513,4160.385,4176.154,4172.564,4163.205,0,0
186,83,0,3409,4170.769,4159.231,4182.179,4176.282,4168.974,4175.255999999999,4190.769,4184.359,4184.744000000001,4160.513,4153.718,4173.718,4168.718,4163.846,0,0
187,84,0,3220,4171.923,4164.872,4184.231,4172.9490000000005,4168.333,4188.077,4196.667,4188.462,4185.513,4170.769,4168.718,4176.41,4170.128,4172.308,0,0
188,85,0,1766,4168.205,4159.231,4184.231,4174.359,4179.872,4182.564,4181.923,4186.795,4184.487,4169.231,4178.462,4176.154,4171.538,4166.154,0,0
189,86,0,3089,4165.513,4151.538,4177.308,4173.846,4192.0509999999995,4176.026,4172.0509999999995,4182.692,4182.692,4165.897,4168.974,4171.667,4170.897,4156.154,0,0
190,87,0,3409,4161.923,4156.795,4170.255999999999,4171.154,4182.564,4170.769,4175.641,4181.41,4181.154,4168.974,4157.9490000000005,4170.641,4171.538,4154.231,0,0
191,88,0,3220,4151.154,4148.974,4174.103,4169.744000000001,4161.282,4167.692,4176.026,4185.0,4181.667,4170.0,4153.205,4176.026,4174.487,4146.538,0,0
192,89,0,1766,4153.846,4135.897,4183.718,4168.718,4171.41,4173.846,4179.231,4188.077,4184.615,4167.436,4154.487,4176.795,4175.769,4148.462,0,0
193,90,0,3089,4181.923,4156.026,4183.077,4171.923,4197.436,4181.538,4191.282,4186.795,4185.641,4167.564,4172.436,4176.026,4171.538,4182.564,0,0
194,91,0,3409,4215.128,4189.103,4184.231,4186.026,4193.077,4182.821,4198.077,4185.641,4185.385,4177.0509999999995,4199.231,4185.385,4171.795,4225.385,0,0
195,92,0,3220,4242.0509999999995,4199.615,4197.0509999999995,4198.462,4179.103,4183.59,4198.205,4187.0509999999995,4183.59,4183.974,4215.255999999999,4197.692,4179.103,4250.0,0,0
196,93,0,1766,4271.154,4203.718,4206.538,4202.436,4190.769,4192.821,4203.462,4191.795,4184.359,4185.513,4231.923,4206.41,4182.436,4272.821,0,0
197,94,0,3089,4294.487,4220.0,4207.436,4209.231,4201.795,4200.128,4210.641,4196.923,4192.9490000000005,4200.128,4245.385,4211.282,4182.179,4305.897,0,0
198,95,0,3409,4306.41,4232.0509999999995,4214.359,4214.231,4203.846,4198.718,4214.872,4202.692,4201.282,4221.154,4238.718,4216.795,4190.128,4332.692,0,0
199,96,0,3220,4316.026,4242.0509999999995,4227.821,4218.718,4207.821,4199.103,4221.026,4213.974,4200.769,4224.359,4244.231,4225.255999999999,4200.641,4335.897,0,0
200,97,0,1766,4311.282,4244.359,4227.9490000000005,4222.564,4198.462,4205.385,4226.667,4216.282,4200.255999999999,4214.103,4256.41,4226.026,4197.692,4318.846,0,0
201,98,0,3089,4284.103,4220.385,4214.359,4212.0509999999995,4189.103,4205.513,4217.436,4204.103,4201.667,4208.974,4236.154,4215.769,4185.897,4296.026,0,0
202,99,0,3409,4258.718,4197.308,4204.231,4197.821,4205.769,4196.667,4203.077,4199.487,4199.487,4214.103,4215.128,4207.436,4182.692,4275.128,0,0
203,100,0,3220,4249.103,4195.513,4204.872,4198.077,4217.564,4197.692,4208.718,4203.333,4196.154,4217.179,4213.205,4205.128,4192.179,4260.513,0,0
204,101,0,1766,4243.974,4192.0509999999995,4209.359,4204.744000000001,4198.846,4199.872,4213.718,4200.769,4197.564,4206.667,4203.59,4205.255999999999,4193.718,4248.974,0,0
205,102,0,3089,4234.487,4181.538,4212.564,4196.923,4191.41,4196.41,4209.103,4199.744000000001,4198.59,4201.282,4200.641,4205.897,4185.0,4236.154,0,0
206,103,0,3409,4224.744000000001,4179.487,4214.103,4189.615,4202.564,4191.923,4208.59,4201.41,4192.564,4204.231,4211.41,4204.103,4183.462,4229.103,0,0
207,104,0,3220,4215.641,4176.795,4206.026,4190.513,4198.205,4191.538,4204.359,4198.59,4186.154,4190.385,4206.538,4195.769,4189.231,4222.564,0,0
208,105,0,1766,4206.026,4169.231,4198.974,4189.103,4189.231,4193.718,4198.462,4198.333,4186.923,4176.538,4197.9490000000005,4192.821,4189.744000000001,4214.487,0,0
209,106,0,3089,4208.462,4167.436,4200.897,4188.462,4196.667,4192.179,4203.59,4200.513,4188.974,4190.897,4201.795,4197.179,4186.026,4217.821,0,0
210,107,0,3409,4216.795,4172.0509999999995,4203.333,4190.385,4201.282,4185.255999999999,4218.333,4201.538,4187.564,4211.667,4204.872,4201.026,4188.333,4223.077,0,0
211,108,0,3220,4208.718,4171.026,4201.923,4189.359,4184.231,4184.231,4227.308,4201.154,4187.179,4210.513,4203.846,4197.179,4190.385,4214.744000000001,0,0
212,109,0,1766,4194.231,4162.308,4199.359,4185.641,4178.077,4195.255999999999,4221.026,4199.103,4185.897,4193.718,4199.744000000001,4192.179,4184.872,4208.846,0,0
213,110,0,3089,4200.255999999999,4160.897,4199.744000000001,4185.769,4195.641,4199.231,4210.0,4196.41,4185.897,4190.0,4197.179,4194.744000000001,4183.077,4212.0509999999995,0,0
214,111,0,3409,4213.205,4169.103,4200.255999999999,4185.769,4201.154,4196.667,4222.0509999999995,4200.385,4193.974,4205.641,4201.795,4197.308,4192.179,4216.667,0,0
215,112,0,3220,4208.333,4173.205,4201.795,4186.923,4196.026,4202.436,4235.385,4211.026,4200.0,4214.231,4204.487,4197.179,4200.255999999999,4219.359,0,0
216,113,0,1766,4197.436,4165.513,4201.41,4184.744000000001,4204.231,4200.0,4220.128,4210.769,4196.538,4193.205,4201.538,4196.538,4195.0,4209.872,0,0
217,114,0,3089,4196.282,4156.795,4197.9490000000005,4174.103,4200.897,4188.333,4208.846,4201.923,4193.077,4175.897,4190.385,4193.974,4185.128,4196.41,0,0
218,115,0,3409,4201.795,4161.41,4197.692,4176.41,4178.462,4188.718,4220.513,4207.179,4199.872,4191.282,4180.385,4195.0,4184.872,4205.641,0,0
219,116,0,3220,4203.333,4168.846,4200.0,4188.718,4172.436,4188.974,4216.923,4213.974,4203.718,4203.077,4183.333,4198.077,4187.564,4213.59,0,0
220,117,0,1766,4201.026,4166.41,4199.231,4190.897,4183.205,4181.923,4201.154,4205.0,4196.026,4191.282,4195.0,4193.205,4185.385,4198.077,0,0
221,118,0,3089,4201.026,4166.282,4197.9490000000005,4187.692,4185.897,4190.641,4207.821,4200.128,4195.513,4185.897,4200.769,4191.026,4190.769,4198.59,0,0
222,119,0,3409,4200.641,4170.897,4201.538,4190.0,4182.0509999999995,4196.282,4217.564,4206.026,4197.692,4195.0,4199.103,4199.103,4198.462,4215.769,0,0
223,120,0,3220,4199.744000000001,4164.359,4203.205,4189.744000000001,4182.0509999999995,4182.179,4208.333,4203.974,4192.0509999999995,4194.487,4198.974,4203.462,4192.692,4210.769,0,0
224,121,0,1766,4201.538,4160.128,4201.154,4185.897,4184.744000000001,4180.641,4202.692,4200.385,4191.795,4185.897,4200.897,4195.897,4185.769,4203.462,0,0
225,122,0,3089,4200.385,4165.513,4200.641,4184.615,4179.103,4191.026,4206.026,4201.538,4195.513,4183.333,4202.564,4186.795,4187.308,4209.872,0,0
226,123,0,3409,4193.205,4160.128,4196.41,4183.718,4170.641,4187.308,4202.564,4198.333,4191.538,4189.744000000001,4201.538,4186.282,4186.667,4203.333,0,0
227,124,0,3220,4188.333,4152.308,4194.103,4185.255999999999,4171.41,4180.769,4205.0,4197.0509999999995,4188.205,4201.795,4194.103,4192.692,4185.128,4192.9490000000005,0,0
228,125,0,1766,4192.308,4160.385,4194.872,4185.128,4177.564,4183.59,4215.513,4202.692,4189.744000000001,4205.255999999999,4191.923,4194.872,4187.692,4199.615,0,0
229,126,0,3089,4199.487,4167.179,4196.667,4183.462,4187.564,4191.667,4215.897,4204.359,4186.795,4196.154,4202.692,4193.333,4188.205,4201.282,0,0
230,127,0,53,4202.0509999999995,4163.718,4199.103,4190.255999999999,4189.487,4197.821,4214.744000000001,4203.333,4188.59,4187.692,4209.231,4194.872,4187.9490000000005,4199.359,0,0
231,0,0,2219,4196.795,4165.128,4196.538,4196.538,4170.255999999999,4192.0509999999995,4220.385,4206.41,4194.231,4189.359,4197.436,4197.0509999999995,4189.872,4208.59,0,0
232,1,0,2657,4194.231,4171.282,4187.821,4190.513,4161.923,4182.308,4215.641,4205.641,4190.769,4188.077,4192.9490000000005,4195.513,4191.154,4210.769,0,0
233,2,0,2917,4197.692,4166.795,4185.513,4182.692,4181.026,4182.692,4199.615,4198.205,4184.487,4186.026,4198.077,4188.974,4187.9490000000005,4199.744000000001,0,0
234,3,0,3047,4198.846,4159.487,4191.538,4182.564,4195.769,4187.564,4196.154,4196.41,4185.769,4195.897,4195.769,4182.821,4185.128,4195.769,0,0
235,4,0,3529,4198.205,4165.897,4194.487,4184.744000000001,4191.923,4184.359,4202.0509999999995,4199.487,4189.615,4206.538,4195.897,4185.513,4190.0,4203.974,0,0
236,5,0,2075,4199.744000000001,4171.41,4194.231,4183.846,4185.513,4181.923,4201.667,4197.9490000000005,4187.179,4200.897,4200.255999999999,4193.846,4193.077,4208.333,0,0
237,6,0,2439,4200.255999999999,4167.179,4194.744000000001,4183.077,4184.103,4186.667,4203.333,4196.923,4184.744000000001,4188.846,4201.026,4195.385,4190.128,4210.641,0,0
238,7,0,1615,4199.744000000001,4167.436,4199.744000000001,4187.308,4171.667,4184.744000000001,4204.744000000001,4199.359,4187.308,4191.41,4196.282,4196.795,4191.667,4216.795,0,0
239,8,0,1348,4201.538,4173.59,4201.41,4192.436,4166.154,4179.744000000001,4204.487,4202.308,4188.205,4201.538,4190.769,4195.641,4194.744000000001,4218.205,0,0
240,9,0,3524,4195.641,4168.59,4188.205,4182.179,4178.974,4181.41,4204.872,4203.077,4187.0509999999995,4188.974,4182.9490000000005,4185.769,4186.538,4202.308,0,0
241,10,0,3099,4184.359,4158.59,4177.436,4166.795,4177.9490000000005,4174.103,4196.795,4197.0509999999995,4185.255999999999,4167.436,4177.9490000000005,4181.154,4179.231,4183.333,0,0
242,11,0,3426,4181.41,4158.59,4180.513,4170.897,4167.9490000000005,4167.9490000000005,4191.795,4193.205,4186.026,4177.0509999999995,4182.436,4186.026,4182.564,4187.308,0,0
243,12,0,3233,4188.846,4165.897,4183.846,4182.564,4175.385,4179.103,4192.564,4198.333,4191.795,4202.692,4193.077,4185.513,4189.103,4200.897,0,0
244,13,0,1776,4192.179,4170.641,4183.59,4186.026,4185.897,4181.538,4191.026,4202.564,4194.103,4205.255999999999,4198.333,4185.769,4194.231,4197.179,0,0
245,14,0,3099,4190.897,4170.769,4186.795,4186.026,4186.154,4177.179,4193.718,4199.487,4188.59,4191.667,4197.436,4193.077,4196.923,4189.872,0,0
246,15,0,3426,4192.0509999999995,4171.667,4187.0509999999995,4187.436,4180.897,4179.744000000001,4200.128,4197.692,4184.615,4188.077,4197.692,4190.513,4195.385,4194.103,0,0
247,16,0,0,4189.487,4172.308,4186.026,4188.59,4170.255999999999,4178.59,4202.9490000000005,4200.897,4185.385,4185.641,4193.333,4183.718,4187.692,4197.821,0,0
248,17,0,0,4189.744000000001,4171.154,4185.128,4185.897,4174.744000000001,4172.179,4198.462,4198.077,4185.513,4169.487,4182.821,4182.692,4181.41,4190.385,0,0
249,18,0,0,4197.436,4171.154,4184.359,4183.974,4191.538,4175.0,4188.846,4190.513,4185.0,4160.897,4182.9490000000005,4185.641,4185.385,4187.692,0,0
250,19,0,0,4197.9490000000005,4172.564,4187.0509999999995,4183.205,4183.59,4181.41,4184.744000000001,4185.641,4187.0509999999995,4179.487,4194.359,4186.41,4191.667,4194.615,0,0
251,20,0,0,4184.872,4169.615,4183.846,4177.0509999999995,4166.923,4176.923,4187.0509999999995,4185.769,4188.205,4196.923,4189.744000000001,4184.103,4189.615,4192.308,0,0
252,21,0,0,4184.231,4167.564,4176.538,4174.103,4175.128,4167.692,4183.718,4185.769,4188.333,4194.231,4180.513,4184.231,4192.0509999999995,4186.795,0,0
253,22,0,0,4201.923,4172.9490000000005,4178.077,4184.487,4186.026,4165.769,4188.333,4186.667,4187.179,4188.462,4195.255999999999,4188.974,4198.462,4189.487,0,0
254,23,0,0,4204.487,4176.538,4180.255999999999,4185.513,4183.462,4178.077,4204.103,4190.128,4185.897,4188.718,4208.205,4191.795,4193.846,4191.282,0,0
255,24,0,0,4186.154,4172.564,4173.846,4171.795,4183.462,4186.923,4197.564,4188.974,4184.744000000001,4184.231,4190.255999999999,4186.282,4184.231,4189.103,0,0
256,25,0,0,4171.795,4168.333,4166.795,4172.308,4184.103,4180.0,4181.538,4186.923,4183.846,4180.897,4166.026,4178.462,4181.667,4183.205,0,0
257,26,0,0,4170.769,4168.205,4163.974,4178.718,4181.795,4170.255999999999,4184.231,4186.923,4185.128,4180.513,4162.9490000000005,4177.436,4184.872,4170.641,0,0
258,27,0,0,4173.718,4170.385,4165.255999999999,4176.282,4185.128,4167.308,4187.564,4186.154,4186.41,4174.231,4173.333,4180.0,4186.026,4168.077,0,0
259,28,0,0,4175.385,4169.615,4175.897,4180.513,4190.641,4176.538,4184.487,4190.769,4187.179,4174.103,4181.282,4182.308,4186.026,4178.846,0,0
260,29,0,0,4173.462,4164.359,4182.179,4185.513,4186.667,4185.513,4190.128,4197.564,4186.538,4182.692,4181.538,4181.923,4184.744000000001,4175.641,0,0
261,30,0,0,4167.692,4157.564,4178.59,4178.205,4177.0509999999995,4181.282,4201.282,4198.205,4183.077,4180.897,4175.513,4181.282,4181.923,4161.41,0,0
262,31,0,0,4170.255999999999,4161.026,4179.103,4174.231,4180.897,4177.821,4201.795,4197.0509999999995,4185.0,4175.0,4174.872,4181.538,4180.385,4156.282,0,0
263,32,0,0,4176.667,4167.308,4183.205,4177.0509999999995,4189.615,4183.077,4196.282,4199.487,4190.128,4185.385,4181.538,4184.359,4182.821,4164.872,0,0
264,33,0,0,4172.9490000000005,4163.718,4183.846,4175.255999999999,4188.077,4180.769,4197.564,4199.231,4191.667,4197.436,4185.385,4187.308,4187.0509999999995,4177.9490000000005,0,0
265,34,0,0,4172.436,4161.795,4181.282,4171.795,4183.718,4174.615,4200.385,4198.974,4193.718,4190.769,4185.513,4184.744000000001,4191.923,4183.974,0,0
266,35,0,0,4185.255999999999,4168.974,4183.846,4171.667,4191.154,4180.0,4199.359,4203.077,4196.795,4190.255999999999,4193.846,4189.872,4198.59,4188.846,0,0
267,36,0,0,4196.795,4171.41,4188.718,4176.795,4190.641,4185.385,4196.923,4201.667,4190.128,4195.641,4210.128,4199.359,4199.231,4200.513,0,0
268,37,0,0,4198.974,4169.103,4193.846,4186.795,4172.179,4180.513,4199.231,4198.718,4186.41,4190.513,4210.641,4200.641,4193.59,4205.641,0,0
269,38,0,0,4202.692,4178.333,4199.231,4192.9490000000005,4181.795,4182.308,4205.513,4199.615,4194.744000000001,4195.897,4197.821,4200.897,4195.128,4201.923,0,0
270,39,0,0,4201.795,4183.974,4200.641,4190.0,4204.615,4188.333,4200.128,4196.41,4194.359,4208.333,4195.897,4200.385,4203.974,4200.769,0,0
271,40,0,0,4187.692,4174.487,4195.513,4185.897,4195.897,4180.385,4189.615,4188.846,4186.282,4205.513,4201.282,4193.59,4200.385,4202.821,0,0
272,41,0,0,4182.308,4171.026,4189.615,4184.872,4183.077,4172.0509999999995,4190.513,4186.41,4188.59,4202.821,4201.923,4191.026,4186.154,4199.359,0,0
273,42,0,0,4188.333,4176.667,4186.154,4182.179,4196.026,4173.205,4191.026,4189.231,4189.872,4205.128,4199.487,4193.462,4187.179,4183.846,0,0
274,43,0,0,4188.462,4175.255999999999,4184.359,4178.974,4205.255999999999,4177.9490000000005,4185.0,4186.538,4183.846,4200.128,4199.872,4191.667,4195.255999999999,4179.103,0,0
275,44,0,0,4183.718,4175.641,4186.795,4180.385,4203.333,4179.103,4190.385,4185.0,4189.359,4209.744000000001,4201.795,4189.359,4195.0,4195.769,0,0
276,45,0,0,4185.255999999999,4180.641,4188.974,4185.128,4196.538,4181.923,4201.795,4196.154,4198.59,4223.59,4205.385,4193.974,4195.128,4203.462,0,0
277,46,0,0,4186.154,4175.385,4185.769,4185.385,4177.308,4186.026,4204.231,4201.795,4191.282,4203.205,4199.872,4192.436,4195.385,4191.538,0,0
278,47,0,0,4184.487,4173.846,4183.462,4182.179,4180.0,4184.103,4201.282,4190.385,4183.846,4191.667,4194.487,4191.667,4190.255999999999,4186.41,0,0
279,48,0,0,4190.769,4185.255999999999,4185.385,4186.923,4205.897,4184.359,4193.077,4183.59,4187.692,4213.205,4210.513,4195.897,4193.077,4194.231,0,0
280,49,0,0,4198.333,4189.359,4185.897,4195.897,4210.255999999999,4181.795,4183.846,4188.59,4190.0,4221.41,4218.077,4195.255999999999,4199.103,4196.154,0,0
281,50,0,0,4197.564,4185.128,4183.077,4190.0,4188.59,4172.821,4185.128,4187.692,4185.0,4203.59,4204.103,4190.255999999999,4188.462,4197.308,0,0
282,51,0,0,4198.205,4188.718,4185.641,4181.538,4182.436,4177.179,4196.795,4184.615,4184.231,4193.718,4207.564,4189.487,4180.0,4206.795,0,0
283,52,0,0,4203.077,4193.846,4191.923,4190.513,4196.795,4185.128,4203.333,4187.436,4186.667,4197.564,4220.769,4194.615,4185.897,4208.333,0,0
284,53,0,0,4204.103,4193.846,4191.154,4200.0,4202.692,4176.795,4195.897,4188.205,4187.0509999999995,4207.308,4214.615,4192.0509999999995,4187.436,4202.9490000000005,0,0
285,54,0,0,4209.872,4197.308,4192.436,4197.692,4198.846,4175.385,4192.692,4188.462,4186.538,4215.513,4211.667,4191.154,4183.59,4210.255999999999,0,0
286,55,0,0,4222.821,4204.615,4202.821,4200.641,4202.308,4187.821,4200.897,4188.974,4185.769,4210.255999999999,4219.103,4201.923,4186.282,4228.077,0,0
287,56,0,0,4218.974,4200.513,4203.462,4200.641,4197.821,4178.59,4198.846,4186.282,4184.615,4195.255999999999,4210.385,4204.615,4185.255999999999,4222.436,0,0
288,57,0,0,4207.9490000000005,4189.872,4196.026,4194.615,4180.0,4163.462,4188.59,4187.9490000000005,4184.359,4192.9490000000005,4199.872,4193.718,4180.0,4197.692,0,0
289,58,0,0,4209.231,4189.872,4198.077,4196.41,4180.769,4173.077,4189.231,4188.718,4186.667,4203.59,4204.359,4192.0509999999995,4180.641,4193.462,0,0
290,59,0,0,4205.385,4189.359,4197.9490000000005,4193.205,4186.41,4174.487,4188.974,4184.359,4186.154,4200.513,4203.077,4196.026,4178.846,4205.385,0,0
291,60,0,0,4195.0,4183.333,4188.205,4182.436,4186.667,4165.769,4182.692,4190.641,4186.41,4194.231,4197.179,4192.308,4175.769,4203.718,0,0
292,61,0,0,4199.744000000001,4185.128,4183.59,4187.0509999999995,4199.615,4177.564,4185.128,4199.231,4189.359,4206.154,4199.872,4193.846,4183.462,4192.436,0,0
293,62,0,0,4202.9490000000005,4187.436,4188.077,4194.231,4203.59,4185.255999999999,4191.026,4191.538,4187.436,4207.436,4200.385,4193.718,4185.0,4189.103,0,0
294,63,0,0,4194.872,4183.718,4192.436,4188.205,4198.974,4173.333,4187.308,4183.974,4184.487,4185.0,4198.205,4185.128,4176.41,4195.513,0,0
295,64,0,2222,4196.538,4186.154,4192.0509999999995,4187.436,4195.897,4173.846,4183.718,4188.077,4186.538,4180.0,4204.615,4183.846,4177.821,4200.385,0,0
296,65,0,2654,4198.077,4188.974,4190.128,4191.282,4191.923,4188.718,4189.231,4188.462,4187.821,4200.128,4200.385,4189.872,4186.923,4190.128,0,0
297,66,0,2921,4189.103,4185.897,4188.846,4187.692,4200.128,4184.872,4195.255999999999,4186.538,4187.436,4200.897,4183.974,4188.077,4191.41,4179.872,0,0
298,67,0,3042,4182.692,4183.077,4184.872,4183.974,4212.179,4171.667,4192.436,4187.308,4187.0509999999995,4187.692,4180.0,4182.9490000000005,4184.615,4182.436,0,0
299,68,0,3528,4183.718,4183.205,4185.385,4182.9490000000005,4204.231,4169.615,4186.41,4183.846,4184.872,4188.333,4182.821,4183.333,4172.564,4182.436,0,0
300,69,0,2076,4189.872,4191.282,4193.718,4186.795,4194.872,4171.154,4184.487,4183.333,4183.205,4192.9490000000005,4184.359,4187.308,4171.538,4183.846,0,0
301,70,0,2439,4200.769,4203.59,4193.205,4194.615,4201.667,4177.564,4187.436,4188.077,4185.0,4192.308,4193.974,4190.0,4182.308,4197.564,0,0
302,71,0,1613,4211.026,4210.769,4184.615,4200.128,4199.359,4183.718,4188.718,4187.436,4186.154,4191.667,4204.872,4188.462,4186.282,4208.462,0,0
303,72,0,1348,4221.538,4220.255999999999,4185.128,4204.615,4195.641,4181.026,4186.282,4181.923,4184.744000000001,4191.41,4206.667,4186.667,4176.667,4218.462,0,0
304,73,0,3525,4241.154,4241.923,4189.359,4212.179,4210.769,4180.641,4186.282,4182.179,4184.872,4188.846,4212.436,4189.744000000001,4170.0,4242.692,0,0
305,74,0,3092,4273.077,4276.667,4195.513,4221.154,4221.795,4186.667,4186.667,4188.205,4186.282,4196.282,4231.282,4197.436,4175.641,4282.0509999999995,0,0
306,75,0,3414,4319.872,4323.846,4214.487,4239.103,4219.231,4186.026,4182.821,4187.308,4186.538,4203.59,4251.154,4211.923,4182.436,4330.255999999999,0,0
307,76,0,3220,4367.821,4371.538,4233.205,4263.718,4221.538,4182.179,4183.718,4188.077,4186.667,4206.154,4269.231,4227.821,4182.9490000000005,4376.282,0,0
308,77,0,1770,4400.0,4394.231,4238.333,4271.795,4240.255999999999,4193.718,4196.795,4193.59,4187.821,4216.667,4280.897,4236.154,4184.487,4407.0509999999995,0,0
309,78,0,3092,4420.385,4399.615,4243.974,4269.103,4246.41,4201.667,4207.0509999999995,4192.0509999999995,4187.179,4223.077,4279.744000000001,4237.436,4186.154,4428.974,0,0
310,79,0,3414,4434.487,4411.154,4253.077,4273.077,4217.9490000000005,4190.128,4197.436,4188.333,4186.41,4227.436,4281.41,4240.255999999999,4185.769,4448.205,0,0
311,80,0,3220,4440.769,4416.282,4249.615,4272.821,4196.795,4180.255999999999,4187.564,4191.923,4188.718,4237.9490000000005,4295.128,4245.128,4189.103,4453.462,0,0
312,81,0,1770,4433.718,4403.205,4240.513,4267.821,4213.462,4187.308,4196.923,4192.308,4189.744000000001,4235.128,4291.154,4241.667,4189.231,4438.077,0,0
313,82,0,3092,4415.513,4388.846,4240.641,4263.974,4240.513,4192.821,4202.179,4187.308,4187.436,4220.128,4263.077,4231.41,4182.308,4419.231,0,0
314,83,0,3414,4395.641,4374.615,4236.795,4254.744000000001,4239.231,4181.154,4183.462,4187.692,4184.872,4217.436,4253.333,4224.231,4182.0509999999995,4404.103,0,0
315,84,0,3220,4368.077,4341.026,4221.667,4234.872,4215.897,4170.513,4169.103,4183.718,4184.359,4210.0,4256.41,4217.9490000000005,4183.974,4372.564,0,0
316,85,0,1770,4320.769,4295.769,4206.538,4216.923,4201.026,4170.255999999999,4170.128,4172.692,4181.538,4190.513,4238.462,4202.436,4178.974,4323.462,0,0
317,86,0,3092,4261.923,4250.641,4192.308,4202.9490000000005,4199.872,4172.0509999999995,4163.718,4164.615,4172.692,4181.026,4204.231,4186.538,4173.846,4267.0509999999995,0,0
318,87,0,3414,4209.359,4205.769,4170.897,4184.359,4202.308,4173.077,4152.179,4158.846,4168.974,4172.821,4172.9490000000005,4174.487,4171.026,4207.9490000000005,0,0
319,88,0,3220,4165.128,4168.974,4152.436,4164.359,4196.538,4172.0509999999995,4149.872,4154.872,4171.923,4163.333,4156.923,4160.128,4166.41,4153.718,0,0
320,89,0,1770,4129.103,4142.436,4149.615,4152.436,4187.564,4163.077,4149.615,4154.872,4170.255999999999,4162.179,4153.59,4150.0,4161.795,4117.564,0,0
321,90,0,3092,4104.615,4123.846,4151.282,4151.538,4178.59,4155.769,4144.487,4157.436,4164.744000000001,4154.872,4141.41,4151.41,4159.744000000001,4095.256,0,0
322,91,0,3414,4089.103,4113.333,4144.359,4150.385,4171.795,4157.436,4138.718,4155.0,4165.641,4145.641,4126.026,4149.872,4161.795,4076.667,0,0
323,92,0,3220,4073.205,4102.692,4135.769,4137.821,4174.615,4156.282,4135.641,4151.538,4167.9490000000005,4150.513,4125.128,4138.077,4165.769,4059.615,0,0
324,93,0,1770,4059.2309999999998,4090.0,4133.333,4126.667,4167.821,4154.615,4137.9490000000005,4151.923,4168.462,4156.538,4126.026,4133.59,4170.769,4045.256,0,0
325,94,0,3092,4058.205,4088.462,4134.487,4132.692,4138.333,4157.0509999999995,4142.0509999999995,4153.974,4170.769,4154.487,4125.0,4138.205,4178.077,4042.179,0,0
326,95,0,3414,4057.949,4091.026,4132.9490000000005,4135.0,4130.897,4155.128,4144.744000000001,4160.128,4171.795,4150.897,4123.974,4138.462,4176.923,4043.462,0,0
327,96,0,3220,4055.897,4088.462,4133.077,4126.923,4171.667,4154.872,4150.385,4164.103,4171.795,4157.9490000000005,4120.641,4139.231,4169.231,4047.5640000000003,0,0
328,97,0,1770,4060.0,4089.8720000000003,4139.359,4132.564,4197.692,4157.821,4149.487,4158.718,4171.923,4171.795,4127.308,4145.769,4169.231,4052.692,0,0
329,98,0,3092,4055.385,4090.0,4138.205,4143.205,4173.718,4154.103,4138.077,4154.359,4169.103,4172.308,4133.462,4141.795,4173.205,4045.6409999999996,0,0
330,99,0,3414,4037.692,4078.077,4127.692,4132.9490000000005,4152.436,4149.872,4129.487,4156.923,4166.41,4155.128,4117.821,4128.077,4166.026,4027.051,0,0
331,100,0,3220,4028.718,4069.2309999999998,4118.077,4118.59,4154.231,4150.769,4134.872,4158.205,4167.692,4143.462,4100.255999999999,4121.41,4158.462,4014.2309999999998,0,0
332,101,0,1770,4036.026,4074.103,4117.436,4122.9490000000005,4147.564,4156.538,4149.359,4162.9490000000005,4169.872,4152.692,4101.026,4121.923,4165.641,4019.103,0,0
333,102,0,3092,4040.897,4077.949,4118.718,4127.179,4138.718,4161.795,4153.077,4166.026,4169.744000000001,4155.513,4104.103,4121.667,4173.718,4029.3590000000004,0,0
334,103,0,3414,4038.462,4077.179,4120.513,4124.744000000001,4140.0,4159.487,4141.795,4158.333,4169.103,4141.667,4106.41,4121.538,4171.923,4031.667,0,0
335,104,0,3220,4035.7690000000002,4076.667,4122.179,4123.077,4142.564,4153.718,4139.359,4158.974,4170.0,4140.128,4107.692,4122.564,4170.0,4023.077,0,0
336,105,0,1770,4032.051,4069.487,4120.128,4118.974,4139.359,4151.41,4148.974,4168.077,4168.462,4144.231,4097.0509999999995,4120.128,4166.795,4014.8720000000003,0,0
337,106,0,3092,4032.949,4065.1279999999997,4119.103,4115.769,4148.846,4159.615,4152.692,4170.897,4169.103,4141.026,4094.2309999999998,4117.308,4164.487,4019.487,0,0
338,107,0,3414,4039.487,4074.487,4121.154,4123.974,4167.436,4170.0,4154.103,4171.282,4176.026,4152.9490000000005,4110.641,4123.974,4175.641,4028.205,0,0
339,108,0,3220,4046.795,4086.41,4125.769,4137.179,4163.462,4168.974,4156.795,4173.462,4178.205,4175.255999999999,4122.821,4131.795,4187.692,4037.692,0,0
340,109,0,1770,4053.077,4088.974,4129.744000000001,4139.872,4153.333,4158.205,4153.974,4173.974,4173.333,4172.821,4123.205,4130.641,4180.769,4043.462,0,0
341,110,0,3092,4059.487,4090.513,4136.282,4137.436,4168.59,4154.872,4152.692,4168.974,4169.359,4162.179,4130.385,4129.615,4173.205,4045.1279999999997,0,0
342,111,0,3414,4061.026,4093.59,4141.282,4138.718,4176.667,4163.462,4154.872,4162.9490000000005,4168.462,4167.308,4134.103,4133.846,4174.744000000001,4049.487,0,0
343,112,0,3220,4061.538,4093.462,4138.974,4141.41,4153.974,4170.897,4155.641,4164.487,4168.846,4173.205,4130.0,4136.282,4174.872,4056.282,0,0
344,113,0,1770,4066.795,4094.3590000000004,4137.9490000000005,4143.205,4154.231,4165.641,4155.513,4170.128,4170.897,4171.154,4133.846,4135.255999999999,4175.897,4059.8720000000003,0,0
345,114,0,3092,4064.487,4094.615,4139.359,4139.103,4176.538,4154.487,4155.128,4168.333,4169.359,4159.744000000001,4132.9490000000005,4134.615,4173.59,4052.949,0,0
346,115,0,3414,4060.385,4095.6409999999996,4138.718,4135.641,4168.59,4153.333,4155.255999999999,4165.513,4166.538,4152.9490000000005,4122.564,4134.872,4167.821,4051.1540000000005,0,0
347,116,0,3220,4061.026,4095.0,4138.205,4138.718,4156.282,4156.41,4150.513,4161.154,4168.333,4158.462,4117.179,4135.641,4169.103,4056.538,0,0
348,117,0,1770,4059.615,4089.615,4137.821,4133.59,4159.615,4158.846,4145.385,4153.462,4167.0509999999995,4158.205,4118.462,4134.359,4170.0,4052.949,0,0
349,118,0,3092,4061.795,4088.974,4136.923,4125.513,4156.41,4166.026,4151.538,4158.462,4166.154,4154.231,4123.462,4134.872,4168.59,4049.8720000000003,0,0
350,119,0,3414,4066.667,4095.0,4137.9490000000005,4132.9490000000005,4158.974,4165.897,4159.103,4167.692,4169.103,4160.513,4126.923,4137.564,4175.641,4057.821,0,0
351,120,0,3220,4065.897,4094.487,4139.359,4138.846,4162.308,4154.744000000001,4151.026,4166.795,4169.872,4163.974,4122.9490000000005,4138.077,4179.487,4062.5640000000003,0,0
352,121,0,1770,4066.1540000000005,4093.077,4137.692,4132.0509999999995,4148.59,4153.718,4146.026,4168.333,4169.744000000001,4163.59,4125.897,4137.9490000000005,4175.513,4062.821,0,0
353,122,0,3092,4073.718,4100.385,4140.255999999999,4132.9490000000005,4155.0,4167.821,4159.615,4173.846,4172.179,4172.308,4138.718,4140.385,4178.462,4071.282,0,0
354,123,0,3414,4077.949,4106.282,4147.179,4145.0,4180.897,4174.487,4167.179,4170.769,4173.974,4179.487,4142.179,4142.692,4180.255999999999,4078.462,0,0
355,124,0,3220,4075.897,4107.308,4152.692,4147.0509999999995,4176.923,4166.282,4156.795,4165.897,4172.692,4169.872,4135.385,4142.308,4173.333,4071.923,0,0
356,125,0,1770,4073.974,4108.462,4151.282,4144.872,4162.179,4159.744000000001,4147.179,4168.974,4169.359,4158.462,4132.308,4141.923,4169.359,4065.6409999999996,0,0
357,126,0,3092,4080.0,4107.564,4147.179,4144.615,4169.487,4167.0509999999995,4154.615,4171.282,4169.487,4161.667,4135.385,4145.513,4171.41,4076.41,0,0
358,127,0,53,4090.513,4111.154,4147.179,4144.487,4176.154,4175.0,4161.667,4170.128,4173.718,4169.615,4140.897,4147.436,4172.179,4091.538,0,0
359,0,0,2223,4092.692,4115.897,4146.538,4151.154,4172.692,4165.513,4149.103,4169.744000000001,4174.615,4168.974,4143.333,4148.59,4171.667,4094.103,0,0
360,1,0,2656,4088.974,4110.641,4141.282,4151.026,4164.872,4152.179,4141.282,4170.0,4170.128,4166.41,4141.026,4146.795,4166.667,4092.051,0,0
361,2,0,2920,4090.513,4110.0,4138.718,4141.923,4148.462,4157.564,4151.282,4168.462,4167.564,4167.692,4136.538,4142.0509999999995,4159.744000000001,4090.6409999999996,0,0
362,3,0,3042,4093.8459999999995,4119.231,4139.744000000001,4143.59,4135.897,4169.231,4159.231,4169.615,4167.9490000000005,4162.179,4134.744000000001,4140.897,4157.0509999999995,4085.1279999999997,0,0
363,4,0,3539,4094.2309999999998,4121.795,4138.974,4153.59,4152.9490000000005,4168.205,4156.154,4171.154,4169.615,4154.744000000001,4146.026,4144.872,4161.41,4088.333,0,0
364,5,0,2077,4093.077,4116.41,4142.9490000000005,4151.538,4178.718,4164.744000000001,4148.077,4162.436,4170.897,4155.385,4153.974,4145.641,4167.179,4090.1279999999997,0,0
365,6,0,2439,4093.8459999999995,4115.0,4152.564,4147.436,4176.41,4167.821,4142.308,4158.205,4169.231,4163.718,4143.077,4143.462,4168.974,4081.026,0,0
366,7,0,1615,4097.9490000000005,4120.641,4155.128,4148.462,4166.154,4167.436,4146.795,4168.718,4167.564,4168.846,4136.795,4145.769,4169.231,4085.0,0,0
367,8,0,1348,4097.564,4123.974,4152.9490000000005,4148.718,4172.308,4167.564,4162.821,4175.641,4177.564,4170.897,4145.897,4147.0509999999995,4176.538,4097.9490000000005,0,0
368,9,0,3515,4092.821,4115.385,4153.974,4148.846,4173.718,4170.769,4168.846,4170.255999999999,4184.103,4177.0509999999995,4150.128,4147.0509999999995,4181.538,4093.077,0,0
369,10,0,3090,4098.462,4113.59,4154.231,4148.333,4167.436,4168.718,4157.308,4166.026,4174.615,4179.487,4148.462,4148.462,4175.0,4086.282,0,0
370,11,0,3420,4107.821,4132.436,4152.308,4151.41,4172.564,4165.255999999999,4148.333,4167.0509999999995,4167.179,4173.846,4153.333,4150.0,4171.795,4094.3590000000004,0,0
371,12,0,3228,4108.205,4144.487,4152.564,4157.9490000000005,4171.923,4166.667,4152.9490000000005,4167.0509999999995,4171.41,4170.128,4156.026,4148.974,4173.333,4103.462,0,0
372,13,0,1768,4104.359,4136.282,4153.205,4157.436,4166.538,4169.615,4155.513,4166.667,4172.436,4175.0,4150.513,4148.462,4171.41,4104.103,0,0
373,14,0,3090,4100.641,4130.769,4151.923,4151.026,4169.359,4170.255999999999,4152.179,4165.385,4167.9490000000005,4171.667,4146.538,4147.436,4166.923,4099.744000000001,0,0
374,15,0,3420,4102.436,4135.128,4150.385,4152.9490000000005,4171.026,4169.359,4158.846,4166.154,4168.59,4161.538,4146.923,4145.897,4166.026,4096.41,0,0
375,16,0,0,4105.897,4139.744000000001,4151.41,4157.692,4169.487,4165.385,4164.744000000001,4168.59,4171.538,4160.897,4146.41,4148.205,4167.0509999999995,4097.692,0,0
376,17,0,0,4099.103,4137.0509999999995,4152.436,4156.667,4168.974,4161.923,4153.462,4167.308,4172.564,4164.231,4145.128,4147.9490000000005,4168.205,4099.359,0,0
377,18,0,0,4095.1279999999997,4130.128,4152.821,4153.59,4167.179,4164.231,4142.436,4165.769,4171.538,4167.308,4151.667,4146.282,4169.359,4095.897,0,0
378,19,0,0,4102.9490000000005,4129.103,4152.308,4153.718,4165.128,4169.359,4148.718,4168.974,4170.128,4174.359,4162.9490000000005,4148.718,4169.744000000001,4091.923,0,0
379,20,0,0,4102.821,4128.974,4150.897,4156.41,4169.359,4172.179,4157.179,4172.0509999999995,4171.795,4176.538,4159.872,4149.487,4171.41,4094.744,0,0
380,21,0,0,4095.6409999999996,4128.205,4151.923,4154.872,4172.179,4168.718,4149.231,4169.103,4172.179,4166.538,4155.255999999999,4144.615,4171.795,4099.487,0,0
381,22,0,0,4097.692,4131.923,4155.255999999999,4152.179,4166.154,4164.103,4142.9490000000005,4166.923,4172.0509999999995,4168.333,4162.564,4143.077,4173.462,4097.564,0,0
382,23,0,0,4098.462,4134.615,4152.436,4153.462,4165.641,4168.077,4160.385,4169.231,4172.0509999999995,4177.564,4157.9490000000005,4142.692,4173.974,4089.744,0,0
383,24,0,0,4093.974,4131.282,4147.564,4149.744000000001,4163.846,4172.179,4169.359,4169.359,4167.692,4171.282,4143.974,4141.667,4170.641,4085.897,0,0
384,25,0,0,4097.308,4130.385,4148.59,4141.923,4160.0,4168.333,4154.487,4167.564,4168.59,4169.231,4143.974,4143.333,4170.769,4091.41,0,0
385,26,0,0,4105.641,4130.385,4151.154,4143.974,4165.641,4170.0,4156.538,4169.103,4177.179,4174.872,4152.9490000000005,4144.103,4172.308,4098.59,0,0
386,27,0,0,4107.564,4128.077,4150.769,4151.154,4173.077,4173.59,4170.0,4172.308,4179.872,4174.615,4158.846,4143.974,4171.795,4104.359,0,0
387,28,0,0,4107.564,4131.538,4149.487,4150.0,4171.282,4168.333,4160.255999999999,4172.308,4175.128,4177.0509999999995,4163.077,4146.667,4170.641,4105.128,0,0
388,29,0,0,4113.333,4135.0,4150.897,4150.897,4165.0,4166.41,4148.846,4170.513,4173.974,4181.667,4165.255999999999,4151.154,4170.769,4103.59,0,0
389,30,0,0,4122.821,4138.077,4162.0509999999995,4158.59,4169.231,4170.385,4160.897,4169.487,4173.333,4186.795,4166.538,4155.897,4173.718,4115.385,0,0
390,31,0,0,4127.821,4141.795,4171.026,4163.846,4174.103,4172.308,4170.641,4171.538,4173.462,4194.103,4170.897,4160.513,4180.128,4128.718,0,0
391,32,0,0,4126.667,4143.333,4162.564,4165.0,4166.923,4172.9490000000005,4170.128,4173.59,4178.59,4184.487,4170.641,4157.9490000000005,4182.821,4126.538,0,0
392,33,0,0,4123.333,4141.154,4152.436,4162.692,4167.9490000000005,4174.231,4169.872,4170.641,4176.667,4170.128,4161.154,4153.205,4178.974,4119.231,0,0
393,34,0,0,4124.872,4141.667,4153.205,4157.9490000000005,4190.128,4172.308,4169.359,4168.974,4169.615,4182.308,4159.103,4154.359,4177.564,4122.564,0,0
394,35,0,0,4127.821,4141.923,4155.128,4156.795,4197.821,4173.205,4171.923,4171.282,4170.641,4192.821,4164.872,4160.0,4176.538,4124.744000000001,0,0
395,36,0,0,4123.59,4136.667,4153.205,4155.641,4172.9490000000005,4178.59,4173.333,4169.744000000001,4172.9490000000005,4178.974,4161.667,4158.462,4171.795,4120.641,0,0
396,37,0,0,4120.128,4136.667,4153.205,4154.103,4164.359,4177.9490000000005,4166.667,4165.385,4169.744000000001,4171.282,4153.333,4152.692,4171.154,4124.231,0,0
397,38,0,0,4122.821,4141.667,4152.692,4158.462,4185.128,4170.641,4161.923,4167.692,4168.974,4175.641,4154.615,4153.462,4172.564,4124.615,0,0
398,39,0,0,4124.359,4142.821,4153.974,4161.026,4190.641,4167.308,4163.974,4172.308,4172.564,4172.821,4158.205,4158.59,4171.795,4121.795,0,0
399,40,0,0,4126.795,4141.923,4160.897,4156.538,4170.255999999999,4169.615,4164.487,4173.333,4173.974,4168.205,4163.077,4160.255999999999,4177.0509999999995,4131.923,0,0
400,41,0,0,4126.538,4141.282,4161.41,4154.359,4157.9490000000005,4170.769,4164.103,4172.179,4172.564,4169.103,4164.872,4155.255999999999,4179.872,4134.744000000001,0,0
401,42,0,0,4118.846,4138.077,4149.487,4153.974,4168.974,4170.385,4160.128,4168.846,4168.59,4170.255999999999,4153.846,4149.231,4170.255999999999,4117.692,0,0
402,43,0,0,4115.769,4134.872,4144.103,4151.282,4177.179,4170.769,4153.718,4167.179,4167.308,4169.744000000001,4149.231,4148.846,4167.308,4111.923,0,0
403,44,0,0,4120.897,4138.974,4152.692,4154.103,4173.718,4170.128,4158.077,4170.513,4167.9490000000005,4168.077,4154.615,4150.385,4172.308,4124.615,0,0
404,45,0,0,4122.308,4142.9490000000005,4155.513,4161.795,4164.487,4171.282,4167.0509999999995,4171.154,4167.821,4167.692,4154.231,4147.564,4170.385,4125.0,0,0
405,46,0,0,4122.9490000000005,4145.385,4150.385,4160.255999999999,4155.769,4171.026,4169.103,4168.077,4168.974,4170.0,4152.692,4149.231,4170.0,4115.897,0,0
406,47,0,0,4126.026,4148.59,4152.0509999999995,4153.718,4162.0509999999995,4167.9490000000005,4164.231,4170.769,4171.154,4170.513,4155.128,4155.641,4170.769,4117.821,0,0
407,48,0,0,4125.128,4145.513,4152.0509999999995,4154.615,4176.538,4168.333,4157.821,4169.103,4171.538,4169.359,4154.103,4152.308,4162.179,4123.333,0,0
408,49,0,0,4121.923,4142.179,4144.103,4156.667,4170.128,4171.923,4152.821,4159.744000000001,4169.487,4174.359,4153.333,4144.744000000001,4160.641,4123.59,0,0
409,50,0,0,4124.487,4149.103,4146.538,4155.513,4162.308,4173.077,4154.744000000001,4161.667,4169.872,4180.385,4158.462,4149.744000000001,4172.821,4127.0509999999995,0,0
410,51,0,0,4129.872,4156.026,4153.462,4157.9490000000005,4178.333,4170.769,4165.641,4171.795,4171.923,4174.872,4166.154,4155.513,4178.077,4137.179,0,0
411,52,0,0,4128.205,4145.385,4147.436,4157.564,4171.795,4167.179,4165.0,4168.462,4171.795,4163.205,4162.821,4148.59,4166.538,4129.872,0,0
412,53,0,0,4120.128,4134.615,4143.333,4152.564,4146.026,4167.436,4156.538,4161.795,4169.103,4158.205,4147.179,4141.923,4160.769,4113.077,0,0
413,54,0,0,4121.41,4140.769,4158.59,4152.821,4156.538,4169.615,4163.846,4169.359,4168.718,4154.487,4147.179,4148.718,4169.103,4122.436,0,0
414,55,0,0,4134.744000000001,4150.513,4169.103,4155.128,4176.795,4167.821,4168.718,4173.718,4176.154,4156.795,4164.487,4157.564,4173.077,4141.41,0,0
415,56,0,0,4143.462,4155.0,4161.282,4156.667,4169.872,4168.718,4155.128,4168.718,4181.538,4174.103,4167.821,4158.846,4170.769,4144.231,0,0
416,57,0,0,4138.974,4153.205,4155.0,4156.154,4166.282,4172.179,4150.385,4167.9490000000005,4175.897,4182.308,4161.923,4156.154,4170.641,4136.282,0,0
417,58,0,0,4134.744000000001,4151.538,4154.872,4153.59,4164.231,4170.255999999999,4158.974,4169.487,4167.308,4169.231,4163.077,4153.462,4168.59,4133.974,0,0
418,59,0,0,4139.103,4152.564,4153.974,4160.385,4145.897,4166.41,4160.513,4170.128,4169.103,4166.282,4160.385,4154.744000000001,4165.769,4140.897,0,0
419,60,0,0,4143.077,4155.0,4155.385,4171.282,4153.718,4168.718,4161.795,4170.128,4172.564,4176.538,4152.564,4157.692,4169.103,4141.41,0,0
420,61,0,0,4140.128,4155.897,4159.103,4169.487,4184.872,4172.692,4166.282,4169.615,4168.077,4163.333,4152.821,4154.359,4169.872,4134.231,0,0
421,62,0,0,4137.692,4155.128,4162.821,4164.359,4185.641,4172.436,4167.308,4169.872,4170.897,4154.872,4165.385,4154.872,4171.667,4143.333,0,0
422,63,0,0,4141.154,4155.513,4168.59,4167.821,4165.769,4170.0,4167.821,4171.41,4178.205,4180.0,4174.615,4162.692,4175.897,4155.385,0,0
423,64,0,2220,4146.41,4158.846,4168.718,4169.487,4163.974,4170.128,4169.103,4172.692,4175.0,4190.641,4166.923,4159.359,4171.795,4150.128,0,0
424,65,0,2657,4148.333,4163.205,4158.077,4168.974,4178.846,4172.0509999999995,4165.897,4171.667,4167.9490000000005,4164.744000000001,4156.282,4151.923,4165.513,4149.359,0,0
425,66,0,2922,4149.487,4165.255999999999,4155.255999999999,4170.513,4183.974,4168.077,4158.077,4168.59,4170.0,4156.667,4160.513,4154.744000000001,4166.154,4153.59,0,0
426,67,0,3045,4150.0,4165.128,4161.026,4165.255999999999,4170.255999999999,4166.538,4158.846,4167.436,4174.231,4170.897,4168.718,4154.872,4169.615,4148.59,0,0
427,68,0,3530,4147.308,4165.0,4159.872,4161.154,4158.718,4174.231,4170.769,4170.513,4172.179,4162.564,4165.513,4150.897,4173.077,4148.846,0,0
428,69,0,2077,4140.897,4158.718,4153.846,4161.923,4166.667,4174.744000000001,4169.103,4171.923,4170.0,4154.103,4156.538,4156.154,4172.821,4151.667,0,0
429,70,0,2443,4141.923,4152.308,4154.487,4162.436,4177.179,4166.154,4158.077,4170.641,4169.872,4171.923,4155.513,4159.487,4169.359,4147.821,0,0
430,71,0,1615,4150.128,4155.769,4163.333,4166.538,4170.513,4167.692,4159.359,4172.0509999999995,4171.538,4185.0,4166.923,4155.513,4172.0509999999995,4151.538,0,0
431,72,0,1349,4153.718,4162.564,4166.795,4172.179,4162.179,4174.487,4164.359,4173.205,4172.564,4184.103,4181.026,4156.026,4181.923,4163.718,0,0
432,73,0,3518,4153.077,4162.308,4156.026,4166.538,4164.615,4169.615,4161.154,4172.436,4171.795,4183.333,4177.564,4156.795,4183.205,4163.718,0,0
433,74,0,3094,4151.154,4155.769,4150.0,4157.564,4170.897,4165.769,4157.308,4171.41,4170.128,4181.538,4167.0509999999995,4154.487,4178.718,4155.385,0,0
434,75,0,3420,4150.128,4152.692,4160.255999999999,4156.667,4175.513,4171.026,4160.897,4170.385,4168.846,4176.41,4164.872,4153.205,4175.897,4152.564,0,0
435,76,0,3227,4150.641,4154.872,4165.385,4158.077,4165.513,4171.154,4166.026,4171.538,4170.385,4171.923,4163.718,4152.692,4178.846,4154.872,0,0
436,77,0,1769,4154.103,4157.0509999999995,4162.821,4159.359,4146.41,4166.538,4167.436,4173.846,4172.692,4169.615,4163.333,4155.641,4181.026,4156.667,0,0
437,78,0,3094,4154.231,4156.154,4163.718,4160.255999999999,4153.205,4169.615,4167.564,4171.538,4171.795,4168.718,4168.462,4160.128,4178.077,4157.692,0,0
438,79,0,3420,4151.667,4154.872,4161.795,4161.154,4180.897,4172.436,4168.974,4171.282,4169.103,4165.513,4174.615,4157.179,4176.538,4162.179,0,0
439,80,0,3227,4153.205,4160.128,4157.692,4165.513,4188.718,4171.41,4171.282,4177.308,4171.026,4169.359,4173.205,4153.462,4179.231,4162.821,0,0
440,81,0,1769,4153.718,4165.897,4158.077,4169.103,4184.744000000001,4178.077,4173.077,4177.564,4173.974,4181.923,4173.077,4156.282,4179.872,4159.615,0,0
441,82,0,3094,4149.615,4162.0509999999995,4158.462,4165.769,4177.9490000000005,4175.0,4166.026,4169.487,4170.255999999999,4184.744000000001,4171.154,4153.205,4173.333,4157.564,0,0
442,83,0,3420,4143.077,4152.179,4152.436,4157.9490000000005,4158.59,4159.487,4150.255999999999,4163.846,4166.667,4169.231,4160.769,4141.538,4166.667,4152.436,0,0
443,84,0,3227,4142.436,4150.897,4153.333,4153.59,4153.974,4160.513,4157.0509999999995,4167.436,4169.615,4150.0,4152.179,4143.333,4165.128,4148.718,0,0
444,85,0,1769,4147.9490000000005,4157.692,4165.385,4157.9490000000005,4176.026,4175.641,4180.128,4178.077,4171.154,4149.615,4152.564,4155.128,4171.154,4153.077,0,0
445,86,0,3094,4148.205,4158.59,4172.179,4166.923,4176.923,4176.41,4181.154,4187.692,4171.282,4165.897,4153.333,4156.282,4178.462,4151.667,0,0
446,87,0,3420,4146.923,4158.462,4164.615,4169.615,4155.897,4168.333,4170.0,4189.744000000001,4179.744000000001,4171.795,4156.41,4152.564,4174.872,4145.128,0,0
447,88,0,3227,4148.59,4160.513,4155.769,4164.487,4158.462,4170.128,4172.692,4187.0509999999995,4184.103,4167.436,4164.359,4154.487,4169.872,4152.0509999999995,0,0
448,89,0,1769,4149.872,4157.692,4156.923,4158.205,4171.795,4174.615,4176.667,4185.897,4175.0,4172.436,4165.385,4150.255999999999,4170.385,4158.974,0,0
449,90,0,3094,4150.513,4156.41,4156.795,4158.846,4165.769,4173.846,4170.385,4182.436,4168.718,4166.667,4160.769,4146.026,4172.821,4154.744000000001,0,0
450,91,0,3420,4154.103,4162.564,4153.333,4157.821,4163.077,4168.333,4165.513,4175.641,4172.692,4159.872,4162.179,4148.077,4171.667,4152.436,0,0
451,92,0,3227,4155.385,4168.59,4156.41,4153.718,4170.513,4165.385,4165.513,4172.436,4174.487,4173.462,4164.615,4146.154,4169.744000000001,4150.769,0,0
452,93,0,1769,4151.923,4167.436,4167.308,4159.872,4160.385,4170.128,4164.615,4171.41,4170.255999999999,4179.359,4165.0,4147.0509999999995,4168.462,4153.59,0,0
453,94,0,3094,4157.692,4167.564,4173.205,4172.0509999999995,4151.923,4173.462,4168.718,4172.9490000000005,4170.0,4179.103,4165.385,4157.308,4168.846,4169.744000000001,0,0
454,95,0,3420,4169.744000000001,4173.462,4170.897,4176.667,4171.795,4173.462,4177.9490000000005,4178.846,4173.333,4188.333,4167.436,4162.179,4171.795,4181.923,0,0
455,96,0,3227,4168.974,4175.0,4164.872,4168.333,4184.872,4172.436,4177.692,4179.231,4171.282,4173.333,4172.692,4154.615,4170.769,4171.026,0,0
456,97,0,1769,4157.692,4167.9490000000005,4156.667,4159.872,4174.231,4171.282,4169.487,4172.308,4168.333,4145.513,4165.641,4149.487,4163.846,4153.462,0,0
457,98,0,3094,4152.179,4164.103,4157.436,4164.231,4166.923,4173.718,4169.487,4168.462,4171.667,4157.0509999999995,4147.9490000000005,4152.308,4161.538,4156.538,0,0
458,99,0,3420,4154.744000000001,4167.0509999999995,4164.103,4166.41,4166.795,4175.255999999999,4172.308,4171.154,4174.359,4180.641,4153.974,4153.846,4170.0,4170.897,0,0
459,100,0,3227,4161.538,4168.077,4159.872,4160.897,4160.0,4172.308,4168.974,4173.974,4172.564,4176.923,4175.513,4155.385,4181.026,4173.205,0,0
460,101,0,1769,4163.974,4165.128,4158.846,4162.179,4149.103,4166.795,4168.077,4173.59,4171.538,4170.513,4176.282,4160.128,4180.897,4163.974,0,0
461,102,0,3094,4159.744000000001,4163.462,4168.718,4167.0509999999995,4149.744000000001,4170.0,4171.282,4172.0509999999995,4174.615,4176.795,4164.872,4162.821,4178.718,4163.974,0,0
462,103,0,3420,4163.077,4165.897,4172.9490000000005,4165.128,4163.718,4183.718,4172.179,4176.282,4181.154,4185.385,4171.41,4162.0509999999995,4183.846,4175.255999999999,0,0
463,104,0,3227,4171.538,4173.462,4170.769,4168.333,4182.436,4187.821,4172.0509999999995,4184.231,4184.615,4191.538,4183.846,4162.179,4186.026,4182.821,0,0
464,105,0,1769,4168.974,4179.615,4169.103,4174.231,4183.077,4172.821,4168.077,4183.974,4178.718,4189.872,4186.923,4162.821,4181.538,4178.462,0,0
465,106,0,3094,4170.128,4179.103,4168.846,4172.9490000000005,4166.667,4164.872,4170.385,4182.179,4177.179,4195.0,4188.974,4161.282,4184.359,4175.769,0,0
466,107,0,3420,4172.436,4171.282,4168.205,4171.667,4166.795,4180.0,4178.974,4183.974,4180.128,4200.385,4181.538,4161.795,4185.641,4176.795,0,0
467,108,0,3227,4158.59,4163.974,4163.974,4169.872,4173.974,4185.128,4180.0,4183.462,4178.462,4183.846,4169.231,4161.41,4177.308,4167.821,0,0
468,109,0,1769,4157.308,4168.077,4161.282,4171.538,4164.872,4173.846,4176.538,4182.308,4178.718,4173.077,4175.128,4160.513,4177.0509999999995,4165.641,0,0
469,110,0,3094,4165.513,4170.385,4166.41,4171.667,4163.462,4170.0,4175.0,4183.846,4183.59,4176.282,4181.923,4159.359,4180.255999999999,4167.564,0,0
470,111,0,3420,4159.103,4165.769,4172.0509999999995,4165.769,4177.692,4171.667,4171.923,4182.9490000000005,4185.0,4170.769,4168.59,4153.59,4176.282,4156.795,0,0
471,112,0,3227,4152.436,4167.692,4168.59,4164.231,4174.487,4168.718,4166.41,4176.795,4180.0,4165.255999999999,4161.795,4151.154,4171.667,4149.103,0,0
472,113,0,1769,4154.487,4171.667,4159.103,4167.564,4168.077,4167.564,4166.026,4171.154,4176.282,4177.436,4173.59,4151.923,4174.103,4153.718,0,0
473,114,0,3094,4161.026,4171.026,4157.821,4168.462,4174.359,4170.128,4168.718,4172.9490000000005,4179.872,4186.538,4178.333,4154.359,4180.769,4159.359,0,0
474,115,0,3420,4170.0,4173.077,4169.744000000001,4167.436,4173.974,4175.0,4171.154,4177.564,4185.641,4187.692,4181.41,4156.41,4187.0509999999995,4166.026,0,0
475,116,0,3227,4167.692,4173.333,4172.564,4170.255999999999,4167.9490000000005,4178.59,4172.179,4175.769,4180.641,4186.923,4185.641,4155.0,4183.846,4169.231,0,0
476,117,0,1769,4159.359,4169.231,4159.231,4170.513,4165.128,4172.564,4166.667,4170.255999999999,4170.385,4175.385,4172.821,4150.769,4172.308,4163.718,0,0
477,118,0,3094,4162.9490000000005,4171.667,4153.077,4163.077,4167.9490000000005,4166.026,4162.9490000000005,4170.513,4169.615,4159.872,4157.0509999999995,4149.615,4168.205,4159.359,0,0
478,119,0,3420,4162.179,4174.231,4154.872,4160.255999999999,4171.41,4169.872,4170.255999999999,4172.436,4172.9490000000005,4157.308,4161.923,4150.641,4170.641,4153.59,0,0
479,120,0,3227,4154.872,4169.487,4153.077,4166.923,4169.744000000001,4173.333,4174.744000000001,4168.718,4170.385,4165.897,4172.436,4148.077,4170.641,4150.0,0,0
480,121,0,1769,4162.821,4169.744000000001,4152.0509999999995,4170.897,4168.846,4174.231,4165.641,4171.026,4171.154,4173.846,4169.359,4147.9490000000005,4170.0,4159.872,0,0
481,122,0,3094,4172.308,4178.077,4159.872,4170.0,4174.487,4176.795,4169.359,4182.179,4181.41,4184.359,4169.359,4152.0509999999995,4177.0509999999995,4170.897,0,0
482,123,0,3420,4173.077,4184.103,4164.872,4172.821,4179.615,4176.154,4185.128,4185.641,4185.0,4187.436,4179.359,4154.744000000001,4186.154,4173.59,0,0
483,124,0,3227,4173.846,4185.0,4160.641,4173.077,4179.487,4170.897,4183.462,4182.436,4180.641,4179.744000000001,4183.462,4155.513,4183.333,4172.9490000000005,0,0
484,125,0,1769,4172.821,4183.462,4159.103,4170.0,4176.538,4173.077,4174.744000000001,4184.872,4182.9490000000005,4182.179,4185.513,4156.795,4178.077,4170.513,0,0
485,126,0,3094,4171.282,4183.205,4161.41,4172.692,4170.255999999999,4179.103,4172.9490000000005,4182.308,4182.9490000000005,4185.641,4183.333,4155.513,4179.872,4169.744000000001,0,0
486,127,0,53,4172.0509999999995,4180.897,4158.205,4171.923,4167.179,4175.255999999999,4168.974,4173.077,4176.154,4174.872,4171.795,4151.923,4179.231,4167.564,0,0
487,0,0,2220,4169.359,4177.436,4155.641,4165.769,4172.564,4168.333,4167.179,4176.795,4176.282,4174.615,4172.308,4152.308,4175.641,4164.359,0,0
488,1,0,2658,4169.359,4180.897,4160.128,4165.513,4185.385,4171.667,4173.846,4184.615,4178.974,4187.436,4181.923,4158.333,4181.923,4167.179,0,0
489,2,0,2922,4177.179,4185.641,4159.487,4169.103,4186.41,4175.128,4173.462,4178.333,4175.385,4186.154,4174.359,4157.9490000000005,4188.205,4169.615,0,0
490,3,0,3041,4180.769,4181.795,4152.564,4170.641,4166.667,4168.974,4168.59,4170.255999999999,4173.333,4179.744000000001,4166.538,4153.077,4181.923,4166.795,0,0
491,4,0,3535,4178.59,4177.9490000000005,4153.077,4169.615,4156.41,4172.0509999999995,4173.205,4176.026,4174.487,4179.615,4178.462,4155.513,4178.077,4172.179,0,0
492,5,0,2078,4183.333,4183.205,4161.923,4171.667,4165.769,4183.462,4174.615,4179.744000000001,4173.974,4178.077,4183.59,4156.538,4181.154,4183.462,0,0
493,6,0,2440,4188.974,4188.077,4165.255999999999,4181.026,4172.179,4181.538,4168.077,4171.026,4178.462,4187.9490000000005,4178.59,4151.923,4182.0509999999995,4185.641,0,0
494,7,0,1615,4186.282,4184.744000000001,4160.255999999999,4184.872,4167.0509999999995,4176.667,4172.9490000000005,4172.692,4183.846,4198.846,4183.333,4156.538,4181.026,4184.872,0,0
495,8,0,1352,4184.359,4180.0,4158.59,4176.41,4165.385,4174.744000000001,4187.9490000000005,4185.255999999999,4178.462,4191.538,4188.205,4162.564,4181.026,4189.231,0,0
496,9,0,3515,4185.128,4178.333,4163.077,4167.564,4168.333,4170.0,4182.9490000000005,4182.0509999999995,4170.769,4182.308,4185.897,4161.026,4177.564,4189.744000000001,0,0
497,10,0,3094,4182.692,4179.744000000001,4166.538,4169.744000000001,4170.513,4172.564,4169.103,4167.692,4170.769,4183.718,4185.641,4158.718,4174.872,4184.487,0,0
498,11,0,3418,4180.769,4181.923,4169.872,4176.154,4179.872,4183.718,4176.795,4170.128,4173.974,4187.9490000000005,4194.231,4160.769,4173.846,4184.359,0,0
499,12,0,3223,4187.179,4186.667,4175.255999999999,4184.615,4183.846,4187.179,4186.795,4180.513,4172.692,4189.359,4201.795,4163.846,4174.359,4197.436,0,0
500,13,0,1773,4192.564,4190.255999999999,4176.538,4187.821,4171.538,4180.513,4182.179,4176.795,4171.41,4186.795,4197.9490000000005,4165.769,4178.205,4203.718,0,0
501,14,0,3094,4187.821,4186.923,4174.231,4177.0509999999995,4164.103,4174.231,4180.0,4170.641,4171.667,4181.923,4189.744000000001,4166.41,4176.026,4191.41,0,0
502,15,0,3418,4190.513,4184.231,4173.974,4172.179,4176.538,4174.359,4184.872,4177.564,4173.846,4191.795,4188.974,4167.692,4173.077,4188.077,0,0
503,16,0,0,4199.615,4186.667,4173.077,4182.179,4194.231,4184.872,4186.154,4183.846,4176.282,4200.897,4192.9490000000005,4169.872,4179.103,4200.513,0,0
504,17,0,0,4194.231,4188.462,4168.59,4190.255999999999,4199.615,4188.205,4182.692,4176.41,4174.872,4191.282,4193.205,4168.333,4180.0,4200.255999999999,0,0
505,18,0,0,4185.255999999999,4186.41,4173.846,4180.0,4187.179,4175.513,4179.615,4168.333,4171.923,4186.026,4191.154,4166.41,4171.154,4188.718,0,0
506,19,0,0,4187.821,4184.744000000001,4180.897,4169.359,4180.128,4168.59,4181.667,4170.128,4170.513,4187.179,4188.846,4165.897,4174.744000000001,4188.718,0,0
507,20,0,0,4188.974,4185.0,4179.744000000001,4177.179,4179.359,4170.769,4184.487,4169.744000000001,4171.538,4180.0,4181.667,4164.231,4181.026,4191.282,0,0
508,21,0,0,4191.154,4190.255999999999,4183.205,4186.538,4172.564,4175.385,4183.333,4169.103,4173.077,4178.077,4175.385,4163.59,4174.615,4186.795,0,0
509,22,0,0,4198.333,4194.103,4188.462,4187.179,4178.333,4180.641,4182.9490000000005,4177.179,4171.282,4182.0509999999995,4178.718,4165.897,4177.0509999999995,4185.513,0,0
510,23,0,0,4194.615,4190.641,4186.154,4185.128,4190.897,4183.333,4182.564,4183.846,4169.103,4187.692,4188.59,4165.385,4187.9490000000005,4188.974,0,0
511,24,0,0,4188.077,4187.308,4182.9490000000005,4182.9490000000005,4184.744000000001,4182.179,4186.026,4182.9490000000005,4172.564,4197.0509999999995,4188.974,4163.333,4185.897,4189.487,0,0
512,25,0,0,4187.436,4188.462,4184.872,4181.154,4185.255999999999,4182.436,4194.487,4182.308,4175.641,4193.974,4185.128,4162.308,4176.795,4184.359,0,0
513,26,0,0,4186.923,4192.179,4185.769,4185.641,4204.359,4185.769,4192.436,4183.974,4173.718,4183.333,4186.795,4164.231,4181.923,4186.41,0,0
514,27,0,0,4186.41,4191.795,4185.255999999999,4188.077,4196.41,4180.128,4180.897,4179.872,4172.564,4187.564,4177.9490000000005,4163.974,4189.103,4189.487,0,0
515,28,0,0,4189.231,4187.692,4183.333,4184.744000000001,4176.923,4172.821,4182.564,4176.538,4172.0509999999995,4189.487,4172.436,4162.564,4180.897,4183.333,0,0
516,29,0,0,4188.846,4184.359,4178.205,4181.795,4183.846,4176.282,4188.077,4176.667,4169.615,4170.641,4183.462,4161.154,4168.59,4181.41,0,0
517,30,0,0,4184.744000000001,4184.103,4175.255999999999,4179.487,4193.205,4185.385,4177.9490000000005,4172.436,4168.718,4161.154,4181.923,4159.231,4169.487,4185.128,0,0
518,31,0,0,4184.744000000001,4184.231,4177.179,4179.615,4184.359,4182.564,4168.718,4168.59,4169.103,4171.154,4166.795,4160.897,4175.0,4179.359,0,0
519,32,0,0,4185.385,4184.744000000001,4176.41,4178.333,4174.615,4172.564,4171.154,4170.897,4170.513,4176.282,4166.154,4158.974,4173.846,4171.795,0,0
520,33,0,0,4177.0509999999995,4184.103,4168.462,4171.538,4177.692,4169.615,4170.128,4172.692,4171.923,4167.308,4164.744000000001,4151.795,4168.077,4168.974,0,0
521,34,0,0,4168.462,4181.667,4166.154,4171.154,4165.0,4168.462,4170.641,4171.154,4170.641,4163.077,4156.538,4149.872,4165.255999999999,4166.795,0,0
522,35,0,0,4171.667,4185.385,4169.872,4175.0,4151.667,4169.615,4180.769,4172.436,4169.103,4170.641,4166.154,4156.795,4168.205,4171.923,0,0
523,36,0,0,4175.897,4187.9490000000005,4163.846,4171.154,4170.769,4175.385,4186.026,4173.205,4169.872,4172.436,4171.538,4158.333,4170.128,4175.641,0,0
524,37,0,0,4171.923,4185.769,4155.128,4168.974,4183.333,4177.308,4179.744000000001,4170.513,4171.923,4169.615,4157.821,4152.436,4169.231,4164.872,0,0
525,38,0,0,4167.692,4182.9490000000005,4153.333,4169.359,4178.333,4168.974,4174.744000000001,4170.641,4169.487,4167.436,4158.974,4150.255999999999,4172.0509999999995,4159.615,0,0
526,39,0,0,4174.103,4183.205,4156.923,4168.718,4172.9490000000005,4168.462,4172.179,4173.59,4171.154,4170.513,4169.872,4154.359,4176.795,4169.103,0,0
527,40,0,0,4187.179,4187.692,4168.462,4171.282,4162.308,4179.359,4174.231,4175.769,4177.692,4181.154,4172.9490000000005,4159.872,4178.333,4178.077,0,0
528,41,0,0,4189.487,4187.564,4176.026,4171.538,4163.846,4177.436,4177.564,4179.359,4175.255999999999,4182.564,4176.538,4162.0509999999995,4180.641,4178.974,0,0
529,42,0,0,4184.872,4187.9490000000005,4170.513,4169.231,4190.897,4171.282,4175.897,4180.513,4174.744000000001,4178.846,4179.487,4159.359,4183.974,4180.897,0,0
530,43,0,0,4190.513,4194.744000000001,4174.103,4177.436,4190.128,4173.718,4179.744000000001,4179.487,4182.436,4189.487,4186.154,4160.0,4186.538,4194.615,0,0
531,44,0,0,4195.897,4195.513,4183.718,4190.128,4167.692,4175.0,4192.9490000000005,4183.59,4180.128,4197.0509999999995,4195.255999999999,4163.974,4189.744000000001,4202.179,0,0
532,45,0,0,4187.436,4186.538,4178.846,4182.692,4183.846,4171.41,4188.846,4182.179,4173.205,4178.205,4184.487,4165.769,4184.103,4187.9490000000005,0,0
533,46,0,0,4180.769,4184.103,4174.615,4166.538,4194.103,4168.077,4173.718,4174.231,4180.769,4167.821,4164.487,4163.846,4174.872,4173.333,0,0
534,47,0,0,4186.154,4188.205,4180.128,4169.231,4173.333,4171.41,4173.974,4177.308,4186.154,4177.692,4167.9490000000005,4163.205,4176.41,4176.667,0,0
535,48,0,0,4190.385,4188.077,4180.513,4179.359,4175.128,4183.077,4181.154,4184.615,4175.513,4172.436,4177.308,4164.487,4178.205,4181.41,0,0
536,49,0,0,4188.077,4187.692,4177.0509999999995,4176.282,4198.333,4187.564,4180.128,4181.795,4169.487,4170.255999999999,4171.667,4163.333,4173.077,4183.462,0,0
537,50,0,0,4186.282,4186.667,4175.769,4170.769,4192.0509999999995,4172.9490000000005,4172.0509999999995,4181.282,4172.0509999999995,4181.026,4168.205,4159.615,4174.231,4183.205,0,0
538,51,0,0,4185.769,4183.205,4171.795,4177.179,4171.282,4164.744000000001,4169.744000000001,4180.128,4172.308,4174.231,4175.897,4157.436,4176.154,4178.718,0,0
539,52,0,0,4186.667,4185.769,4175.513,4183.846,4181.026,4175.897,4178.333,4175.897,4170.385,4166.282,4183.846,4162.0509999999995,4171.282,4180.769,0,0
540,53,0,0,4192.564,4193.846,4185.0,4185.128,4187.564,4182.436,4186.923,4180.385,4175.128,4187.821,4183.462,4166.026,4176.154,4185.0,0,0
541,54,0,0,4200.897,4197.9490000000005,4188.462,4188.59,4181.154,4181.795,4187.821,4184.744000000001,4182.9490000000005,4205.385,4186.538,4165.641,4188.59,4187.308,0,0
542,55,0,0,4200.385,4198.974,4191.026,4189.231,4192.564,4185.641,4184.359,4182.308,4185.769,4196.026,4191.282,4165.897,4190.513,4189.231,0,0
543,56,0,0,4187.9490000000005,4195.0,4190.128,4185.641,4191.923,4182.564,4186.41,4182.179,4180.897,4184.615,4179.103,4165.897,4182.0509999999995,4183.077,0,0
544,57,0,0,4181.41,4189.359,4182.692,4185.128,4171.795,4171.795,4191.282,4182.821,4173.59,4179.872,4171.154,4160.513,4176.41,4175.255999999999,0,0
545,58,0,0,4190.385,4191.41,4178.333,4182.821,4180.128,4171.026,4189.744000000001,4182.179,4174.615,4182.0509999999995,4178.59,4157.821,4181.923,4181.667,0,0
546,59,0,0,4195.128,4196.667,4181.282,4176.282,4200.0,4173.718,4179.487,4181.795,4177.179,4186.538,4177.0509999999995,4161.41,4186.923,4189.231,0,0
547,60,0,0,4188.077,4193.205,4181.538,4179.872,4184.359,4167.564,4178.846,4177.9490000000005,4173.077,4186.026,4170.0,4161.667,4182.821,4185.0,0,0
548,61,0,0,4185.897,4186.154,4183.333,4184.872,4171.538,4171.538,4187.564,4171.667,4170.897,4185.897,4171.154,4163.077,4177.179,4182.821,0,0
549,62,0,0,4186.41,4184.359,4185.641,4174.872,4181.154,4182.9490000000005,4184.359,4169.231,4172.436,4185.385,4177.179,4164.615,4177.692,4184.487,0,0
550,63,0,0,4185.385,4185.255999999999,4183.462,4173.462,4181.538,4182.821,4180.385,4175.897,4175.513,4187.308,4185.513,4164.872,4183.077,4185.255999999999,0,0
551,64,0,2219,4191.026,4189.103,4183.077,4185.513,4177.308,4181.538,4186.795,4186.538,4181.667,4191.795,4191.282,4166.667,4190.255999999999,4188.974,0,0
552,65,0,2658,4192.9490000000005,4189.872,4183.333,4181.41,4186.026,4180.769,4188.59,4188.59,4184.103,4193.333,4186.667,4170.641,4190.897,4189.615,0,0
553,66,0,2919,4186.923,4186.154,4183.077,4170.769,4200.128,4171.026,4184.487,4182.436,4178.974,4196.795,4184.872,4169.487,4184.487,4187.436,0,0
554,67,0,3044,4191.154,4186.282,4185.128,4177.821,4191.667,4169.487,4186.026,4181.667,4176.667,4190.897,4189.744000000001,4167.436,4180.513,4193.974,0,0
555,68,0,3540,4198.333,4187.692,4187.564,4187.9490000000005,4172.9490000000005,4184.744000000001,4189.359,4184.487,4180.128,4177.0509999999995,4189.487,4171.026,4182.9490000000005,4202.564,0,0
556,69,0,2077,4191.667,4187.179,4186.538,4183.59,4177.821,4183.333,4186.41,4179.231,4181.667,4181.41,4183.974,4171.538,4181.41,4196.923,0,0
557,70,0,2439,4182.821,4185.255999999999,4182.564,4177.436,4193.59,4167.9490000000005,4187.9490000000005,4170.385,4175.385,4191.538,4176.795,4162.9490000000005,4174.615,4182.9490000000005,0,0
558,71,0,1615,4183.462,4185.255999999999,4178.205,4181.667,4197.308,4174.359,4192.436,4169.103,4168.333,4182.9490000000005,4178.333,4155.769,4177.436,4177.821,0,0
559,72,0,1351,4187.9490000000005,4187.179,4182.179,4188.462,4196.795,4186.923,4197.436,4178.974,4175.385,4186.41,4191.538,4164.231,4187.564,4189.103,0,0
560,73,0,3522,4188.462,4188.077,4194.487,4188.077,4192.821,4182.821,4202.692,4188.205,4186.667,4203.59,4192.9490000000005,4171.795,4189.359,4196.795,0,0
561,74,0,3096,4187.308,4187.821,4198.077,4185.769,4186.282,4181.282,4194.231,4182.308,4185.385,4198.846,4181.026,4168.333,4184.487,4187.821,0,0
562,75,0,3423,4189.615,4188.205,4191.282,4186.154,4192.9490000000005,4182.179,4180.769,4173.077,4179.359,4187.179,4181.923,4167.308,4185.513,4183.59,0,0
563,76,0,3230,4185.641,4187.692,4183.974,4184.487,4184.744000000001,4173.333,4180.769,4176.282,4178.846,4187.0509999999995,4187.179,4165.897,4187.821,4186.026,0,0
564,77,0,1776,4181.795,4186.667,4185.255999999999,4183.718,4163.59,4174.231,4190.0,4182.564,4180.897,4187.308,4183.205,4161.923,4187.564,4184.231,0,0
565,78,0,3096,4193.462,4189.231,4195.255999999999,4185.255999999999,4180.513,4186.026,4197.9490000000005,4185.0,4182.436,4187.179,4184.872,4165.128,4188.205,4187.179,0,0
566,79,0,3423,4201.667,4191.154,4196.282,4185.255999999999,4211.795,4186.282,4200.255999999999,4186.282,4185.513,4195.0,4187.436,4172.564,4189.487,4193.462,0,0
567,80,0,3230,4190.641,4189.615,4187.308,4184.231,4203.718,4185.128,4195.0,4178.333,4184.359,4194.359,4177.564,4170.641,4183.974,4190.385,0,0
568,81,0,1776,4182.821,4186.154,4180.641,4182.308,4182.308,4184.872,4183.846,4169.744000000001,4177.308,4183.846,4171.538,4162.9490000000005,4177.308,4183.462,0,0
569,82,0,3096,4183.333,4179.231,4175.897,4177.308,4168.333,4174.103,4174.615,4171.923,4172.564,4176.667,4174.487,4160.0,4178.205,4177.308,0,0
570,83,0,3423,4179.615,4176.538,4171.795,4176.282,4158.205,4170.255999999999,4175.897,4172.0509999999995,4171.026,4175.513,4168.718,4158.205,4181.026,4174.744000000001,0,0
571,84,0,3230,4180.0,4183.333,4177.308,4182.692,4172.692,4181.154,4187.564,4169.872,4170.769,4178.974,4167.821,4160.385,4181.923,4177.308,0,0
572,85,0,1776,4185.128,4187.436,4182.9490000000005,4187.0509999999995,4187.821,4184.744000000001,4188.077,4177.0509999999995,4176.538,4187.692,4178.333,4162.436,4185.255999999999,4180.0,0,0
573,86,0,3096,4185.513,4184.744000000001,4180.513,4186.923,4179.744000000001,4181.795,4183.077,4183.718,4185.385,4196.667,4179.872,4162.179,4189.231,4184.103,0,0
574,87,0,3423,4186.667,4185.255999999999,4180.128,4188.077,4181.026,4183.846,4191.154,4180.385,4186.795,4193.718,4177.179,4163.974,4188.205,4189.615,0,0
575,88,0,3230,4188.974,4186.154,4181.026,4189.487,4184.359,4185.0,4191.538,4173.077,4182.308,4186.41,4179.487,4167.821,4186.154,4186.667,0,0
576,89,0,1776,4185.0,4181.923,4179.103,4186.41,4171.667,4183.974,4182.0509999999995,4170.0,4182.308,4184.231,4181.41,4166.795,4185.641,4182.821,0,0
577,90,0,3096,4183.59,4183.205,4180.128,4182.9490000000005,4174.231,4184.744000000001,4184.872,4173.205,4181.667,4186.923,4181.795,4164.359,4184.615,4188.718,0,0
578,91,0,3423,4194.487,4187.9490000000005,4184.487,4185.128,4193.205,4184.103,4189.231,4173.205,4174.359,4187.436,4181.667,4166.923,4183.462,4193.974,0,0
579,92,0,3230,4201.41,4187.9490000000005,4184.615,4187.9490000000005,4191.154,4183.59,4185.385,4172.0509999999995,4171.923,4179.744000000001,4169.615,4167.0509999999995,4183.333,4190.385,0,0
580,93,0,1776,4190.385,4184.744000000001,4181.026,4184.487,4177.308,4180.128,4178.59,4174.487,4173.974,4168.974,4155.769,4163.333,4179.872,4178.974,0,0
581,94,0,3096,4180.513,4182.179,4181.538,4181.667,4174.359,4177.692,4177.9490000000005,4173.077,4172.436,4172.9490000000005,4168.077,4161.282,4178.077,4176.923,0,0
582,95,0,3423,4186.154,4180.641,4185.255999999999,4184.359,4171.282,4180.513,4183.59,4174.487,4174.872,4186.41,4189.615,4165.255999999999,4183.333,4187.308,0,0
583,96,0,3230,4186.795,4180.385,4181.41,4182.821,4173.846,4183.846,4189.231,4182.179,4181.795,4183.718,4186.282,4169.487,4185.513,4188.718,0,0
584,97,0,1776,4181.923,4182.0509999999995,4177.821,4179.103,4180.769,4186.667,4188.846,4185.513,4183.333,4180.769,4172.564,4168.205,4183.59,4182.821,0,0
585,98,0,3096,4192.308,4184.487,4185.128,4184.744000000001,4177.308,4183.59,4185.255999999999,4182.0509999999995,4181.795,4189.487,4178.462,4170.255999999999,4185.513,4189.359,0,0
586,99,0,3423,4205.641,4185.897,4191.923,4190.641,4169.231,4175.255999999999,4186.923,4176.282,4182.308,4187.179,4184.615,4176.41,4186.667,4202.564,0,0
587,100,0,3230,4203.462,4184.359,4188.59,4188.077,4171.154,4174.359,4186.41,4170.769,4182.179,4180.0,4180.255999999999,4174.231,4183.974,4203.462,0,0
588,101,0,1776,4197.436,4181.282,4184.359,4186.795,4179.872,4182.179,4183.333,4171.795,4182.692,4182.308,4184.487,4167.436,4183.846,4194.744000000001,0,0
589,102,0,3096,4199.615,4182.179,4186.795,4189.359,4177.564,4184.615,4184.744000000001,4175.255999999999,4182.821,4185.385,4186.795,4168.718,4185.0,4191.282,0,0
590,103,0,3423,4199.615,4183.718,4188.59,4187.308,4168.333,4183.718,4185.513,4173.718,4181.795,4184.615,4183.718,4173.846,4185.513,4192.179,0,0
591,104,0,3230,4196.538,4181.282,4186.923,4183.718,4167.564,4184.231,4182.179,4177.179,4182.9490000000005,4186.026,4189.872,4173.59,4186.026,4195.255999999999,0,0
592,105,0,1776,4198.846,4181.795,4186.41,4186.667,4182.821,4184.103,4183.718,4183.846,4184.103,4194.103,4195.897,4176.41,4188.462,4197.9490000000005,0,0
593,106,0,3096,4195.641,4181.923,4185.385,4187.821,4193.718,4184.487,4188.974,4184.615,4183.846,4201.282,4191.923,4178.077,4189.615,4195.385,0,0
594,107,0,3423,4189.231,4175.641,4183.333,4182.692,4181.795,4183.974,4188.077,4182.564,4183.59,4189.744000000001,4193.846,4171.923,4186.795,4188.462,0,0
595,108,0,3230,4192.692,4174.231,4185.128,4182.179,4167.436,4181.538,4185.385,4179.615,4184.487,4172.179,4199.359,4171.538,4184.103,4187.436,0,0
596,109,0,1776,4200.641,4182.436,4182.564,4186.41,4167.436,4183.59,4184.615,4179.231,4184.359,4177.0509999999995,4193.846,4175.255999999999,4184.359,4195.513,0,0
597,110,0,3096,4202.821,4186.282,4176.026,4186.923,4170.255999999999,4185.897,4185.255999999999,4183.205,4182.564,4189.744000000001,4185.513,4170.641,4184.359,4201.026,0,0
598,111,0,3423,4203.846,4184.487,4179.744000000001,4186.154,4171.538,4182.9490000000005,4186.667,4184.359,4183.59,4192.436,4182.821,4168.718,4185.769,4200.0,0,0
599,112,0,3230,4203.205,4184.359,4185.255999999999,4188.846,4178.333,4180.769,4188.077,4181.538,4186.026,4194.744000000001,4183.59,4176.41,4189.103,4197.692,0,0
600,113,0,1776,4200.128,4185.897,4180.769,4191.667,4187.9490000000005,4184.231,4191.538,4184.103,4183.59,4190.897,4192.436,4176.538,4188.333,4195.769,0,0
601,114,0,3096,4199.872,4184.872,4180.513,4194.103,4190.641,4186.923,4192.308,4183.974,4175.255999999999,4175.513,4202.821,4170.0,4182.0509999999995,4192.9490000000005,0,0
602,115,0,3423,4199.872,4181.795,4187.0509999999995,4195.255999999999,4186.923,4184.359,4184.231,4174.231,4172.692,4170.513,4195.385,4170.897,4179.231,4192.179,0,0
603,116,0,3230,4201.026,4181.41,4187.436,4190.513,4184.744000000001,4183.462,4180.513,4174.103,4180.385,4182.692,4181.154,4175.641,4183.59,4196.923,0,0
604,117,0,1776,4202.308,4186.026,4186.026,4186.795,4189.872,4189.103,4187.564,4185.769,4184.615,4188.333,4188.205,4174.744000000001,4188.077,4201.667,0,0
605,118,0,3096,4199.872,4183.59,4187.436,4188.462,4187.179,4185.128,4188.59,4188.077,4182.179,4185.513,4195.255999999999,4173.974,4187.179,4197.436,0,0
606,119,0,3423,4199.103,4174.103,4187.179,4189.615,4165.0,4172.9490000000005,4182.821,4182.564,4182.564,4184.359,4184.744000000001,4176.41,4184.359,4191.538,0,0
607,120,0,3230,4200.385,4170.641,4185.769,4188.205,4156.538,4174.487,4184.872,4184.231,4184.359,4178.205,4179.359,4177.0509999999995,4183.333,4192.821,0,0
608,121,0,1776,4199.103,4174.744000000001,4185.641,4187.308,4180.513,4186.41,4191.923,4189.615,4183.462,4178.205,4189.359,4175.641,4186.538,4199.872,0,0
609,122,0,3096,4198.077,4175.128,4185.897,4186.667,4199.231,4190.128,4190.128,4188.077,4183.59,4191.026,4193.718,4172.9490000000005,4189.744000000001,4197.9490000000005,0,0
610,123,0,3423,4198.333,4170.769,4185.255999999999,4184.744000000001,4191.667,4189.487,4184.872,4181.923,4183.718,4193.462,4180.897,4168.974,4184.615,4188.462,0,0
611,124,0,3230,4200.255999999999,4170.513,4185.385,4186.667,4184.359,4189.744000000001,4187.692,4174.487,4183.462,4183.718,4176.795,4169.231,4181.154,4192.564,0,0
612,125,0,1776,4202.436,4175.385,4186.154,4190.769,4185.513,4181.795,4187.821,4170.897,4183.077,4176.41,4185.255999999999,4173.462,4185.0,4195.769,0,0
613,126,0,3096,4200.769,4178.718,4188.846,4189.615,4192.0509999999995,4178.205,4182.0509999999995,4175.897,4181.795,4175.641,4184.359,4172.692,4184.487,4188.59,0,0
614,127,0,53,4200.128,4179.103,4193.462,4190.255999999999,4189.359,4184.615,4183.462,4182.9490000000005,4181.923,4180.255999999999,4184.615,4171.667,4184.359,4193.974,0,0
615,0,0,2224,4202.9490000000005,4181.538,4191.923,4196.41,4161.154,4185.385,4186.538,4183.846,4184.872,4184.744000000001,4196.026,4174.231,4188.718,4206.154,0,0
616,1,0,2661,4199.872,4180.641,4186.667,4194.872,4154.359,4183.846,4180.769,4179.359,4184.872,4180.513,4194.359,4176.026,4186.41,4196.026,0,0
617,2,0,2919,4198.077,4175.0,4186.667,4185.897,4188.077,4185.128,4178.59,4177.308,4182.179,4180.255999999999,4182.564,4175.769,4181.795,4188.077,0,0
618,3,0,3046,4197.0509999999995,4169.744000000001,4188.077,4184.103,4196.538,4187.179,4184.103,4180.385,4181.026,4182.9490000000005,4180.897,4172.0509999999995,4180.0,4195.513,0,0
619,4,0,3537,4188.974,4168.59,4187.0509999999995,4188.846,4175.769,4182.0509999999995,4187.564,4186.026,4183.333,4184.487,4179.872,4170.0,4178.846,4192.0509999999995,0,0
620,5,0,2077,4188.077,4169.487,4186.282,4186.538,4174.744000000001,4173.077,4182.179,4181.538,4181.923,4182.308,4180.897,4174.872,4176.41,4188.59,0,0
621,6,0,2441,4198.846,4170.128,4186.41,4183.59,4179.103,4174.487,4175.385,4170.128,4176.154,4172.692,4187.564,4177.564,4174.744000000001,4196.923,0,0
622,7,0,1618,4201.795,4177.308,4190.513,4190.0,4177.308,4185.0,4177.564,4175.0,4178.333,4174.744000000001,4188.205,4177.308,4177.821,4202.692,0,0
623,8,0,1351,4201.538,4185.0,4199.487,4198.333,4185.385,4189.615,4186.41,4187.564,4185.897,4184.103,4187.436,4178.077,4186.154,4202.692,0,0
624,9,0,3528,4209.231,4188.205,4203.077,4205.255999999999,4183.846,4186.154,4189.487,4188.077,4185.385,4182.821,4191.154,4178.59,4188.333,4202.692,0,0
625,10,0,3103,4206.923,4182.821,4194.487,4201.154,4173.077,4184.359,4184.359,4179.231,4181.795,4181.282,4192.9490000000005,4177.308,4182.179,4196.282,0,0
626,11,0,3425,4191.154,4173.59,4183.718,4188.333,4165.897,4183.59,4182.821,4174.103,4182.436,4181.282,4181.923,4171.923,4175.769,4180.641,0,0
627,12,0,3232,4183.974,4168.974,4181.923,4182.692,4170.513,4183.077,4183.718,4174.872,4182.821,4174.359,4171.923,4168.205,4173.333,4173.333,0,0
628,13,0,1776,4184.359,4168.333,4184.744000000001,4185.128,4187.564,4182.564,4183.462,4174.744000000001,4182.0509999999995,4172.564,4176.026,4168.333,4179.744000000001,4178.333,0,0
629,14,0,3103,4182.308,4170.128,4183.718,4183.974,4193.462,4183.462,4184.487,4174.103,4181.795,4177.0509999999995,4177.821,4170.513,4182.692,4179.872,0,0
630,15,0,3425,4189.615,4176.154,4184.103,4183.718,4190.255999999999,4189.359,4185.769,4176.154,4180.897,4182.436,4176.538,4170.769,4181.282,4179.359,0,0
631,16,0,0,4200.641,4180.769,4189.231,4189.103,4193.333,4187.9490000000005,4185.769,4175.385,4183.59,4185.385,4184.615,4172.9490000000005,4185.897,4185.255999999999,0,0
632,17,0,0,4194.359,4180.0,4187.308,4188.974,4190.128,4181.538,4185.769,4173.59,4181.923,4173.59,4190.513,4172.821,4186.923,4186.795,0,0
633,18,0,0,4183.59,4179.231,4182.308,4187.0509999999995,4180.641,4184.744000000001,4187.692,4180.897,4173.974,4166.026,4176.923,4170.255999999999,4181.923,4183.718,0,0
634,19,0,0,4184.359,4177.0509999999995,4181.538,4188.205,4182.821,4187.821,4184.615,4180.641,4172.179,4174.615,4166.667,4167.9490000000005,4182.821,4183.205,0,0
635,20,0,0,4186.795,4172.436,4183.974,4189.231,4184.615,4183.846,4179.872,4168.462,4174.487,4166.538,4169.872,4165.897,4181.795,4183.077,0,0
636,21,0,0,4185.255999999999,4172.0509999999995,4187.179,4186.41,4180.0,4185.0,4182.179,4173.205,4173.59,4154.103,4171.154,4168.846,4170.641,4182.692,0,0
637,22,0,0,4182.692,4168.974,4187.0509999999995,4179.359,4178.718,4186.41,4186.795,4183.077,4172.436,4167.0509999999995,4172.9490000000005,4170.0,4168.333,4178.846,0,0
638,23,0,0,4184.744000000001,4168.59,4185.641,4183.846,4177.564,4183.077,4186.154,4176.795,4177.308,4183.462,4178.59,4168.974,4177.692,4179.487,0,0
639,24,0,0,4194.487,4182.564,4187.821,4201.282,4186.154,4181.538,4184.103,4174.872,4181.026,4182.692,4188.205,4175.897,4185.641,4196.795,0,0
640,25,0,0,4195.128,4187.9490000000005,4187.564,4201.667,4188.974,4184.744000000001,4189.615,4180.769,4182.0509999999995,4174.744000000001,4185.897,4178.59,4186.026,4205.897,0,0
641,26,0,0,4186.41,4174.872,4180.641,4185.769,4169.744000000001,4191.026,4194.487,4178.718,4181.41,4178.974,4174.744000000001,4172.436,4184.103,4190.769,0,0
642,27,0,0,4190.255999999999,4172.821,4177.0509999999995,4185.385,4163.077,4190.513,4187.692,4170.897,4180.255999999999,4188.718,4176.282,4170.0,4185.385,4183.077,0,0
643,28,0,0,4199.231,4183.974,4184.615,4192.179,4176.923,4183.846,4179.487,4170.385,4181.667,4186.026,4185.897,4173.205,4187.0509999999995,4196.282,0,0
644,29,0,0,4197.179,4183.462,4193.846,4187.0509999999995,4182.436,4185.0,4181.923,4177.821,4183.077,4181.154,4185.769,4173.846,4186.282,4200.255999999999,0,0
645,30,0,0,4195.255999999999,4178.205,4193.718,4184.359,4180.769,4189.744000000001,4186.538,4185.128,4183.333,4182.692,4180.255999999999,4173.718,4185.255999999999,4191.538,0,0
646,31,0,0,4196.41,4181.538,4190.641,4189.615,4184.487,4188.205,4185.128,4183.718,4181.538,4185.255999999999,4182.9490000000005,4175.897,4185.769,4191.41,0,0
647,32,0,0,4192.436,4184.103,4189.744000000001,4191.282,4194.744000000001,4187.308,4185.0,4181.154,4183.718,4188.718,4188.462,4175.0,4187.564,4201.538,0,0
648,33,0,0,4189.487,4179.231,4188.333,4189.103,4199.359,4187.308,4188.846,4184.744000000001,4182.436,4190.897,4189.487,4173.462,4189.615,4202.0509999999995,0,0
649,34,0,0,4187.564,4171.154,4183.333,4185.897,4186.154,4182.436,4188.077,4180.0,4174.872,4179.744000000001,4181.282,4169.615,4184.872,4187.564,0,0
650,35,0,0,4184.487,4167.9490000000005,4181.923,4186.923,4174.872,4184.487,4184.487,4175.769,4176.026,4171.282,4181.282,4167.308,4181.41,4180.128,0,0
651,36,0,0,4186.026,4172.179,4186.667,4191.795,4188.974,4189.744000000001,4185.769,4184.744000000001,4186.923,4186.026,4196.795,4171.795,4192.821,4194.103,0,0
652,37,0,0,4187.9490000000005,4172.308,4185.513,4187.692,4188.333,4186.667,4189.103,4190.0,4186.538,4193.205,4190.897,4173.077,4195.128,4201.41,0,0
653,38,0,0,4185.641,4166.923,4178.59,4180.897,4165.513,4182.564,4187.821,4183.205,4177.0509999999995,4180.641,4178.846,4169.487,4185.255999999999,4189.872,0,0
654,39,0,0,4185.641,4169.487,4179.615,4183.59,4175.641,4183.462,4184.231,4181.026,4180.128,4178.205,4187.692,4171.282,4187.692,4186.154,0,0
655,40,0,0,4187.0509999999995,4172.692,4188.59,4183.59,4193.333,4187.179,4186.282,4193.205,4187.0509999999995,4190.255999999999,4194.744000000001,4176.795,4194.103,4191.795,0,0
656,41,0,0,4190.0,4170.513,4195.385,4182.692,4180.385,4190.513,4195.255999999999,4198.59,4185.897,4188.077,4193.333,4176.154,4192.9490000000005,4194.487,0,0
657,42,0,0,4201.026,4177.179,4198.59,4195.385,4182.564,4192.0509999999995,4203.59,4191.538,4184.615,4185.641,4202.0509999999995,4175.897,4200.255999999999,4203.077,0,0
658,43,0,0,4201.026,4182.436,4193.077,4199.103,4202.0509999999995,4187.0509999999995,4198.205,4187.308,4186.795,4199.103,4202.436,4175.513,4203.333,4206.026,0,0
659,44,0,0,4185.897,4174.359,4187.0509999999995,4187.0509999999995,4199.359,4182.179,4185.385,4188.846,4185.897,4191.41,4187.179,4169.615,4190.128,4192.564,0,0
660,45,0,0,4185.513,4172.308,4194.744000000001,4186.667,4189.615,4181.154,4185.128,4186.026,4183.718,4178.974,4186.795,4169.231,4186.282,4189.615,0,0
661,46,0,0,4198.077,4182.821,4202.0509999999995,4193.59,4182.436,4187.0509999999995,4195.769,4185.641,4184.487,4194.487,4200.0,4177.436,4194.231,4197.821,0,0
662,47,0,0,4203.59,4186.795,4200.897,4189.872,4176.154,4197.692,4204.103,4192.821,4185.641,4211.282,4205.513,4184.231,4195.897,4200.897,0,0
663,48,0,0,4198.974,4181.795,4196.795,4186.667,4195.255999999999,4194.487,4200.128,4192.436,4185.897,4203.974,4194.231,4182.179,4194.359,4203.462,0,0
664,49,0,0,4190.513,4177.821,4189.231,4187.9490000000005,4208.974,4181.667,4186.667,4184.487,4183.205,4192.564,4186.795,4172.692,4188.462,4200.769,0,0
665,50,0,0,4190.0,4176.41,4189.231,4188.59,4186.795,4181.154,4182.308,4182.0509999999995,4182.692,4196.026,4192.821,4173.205,4185.255999999999,4197.564,0,0
666,51,0,0,4200.897,4181.282,4200.513,4196.538,4185.513,4188.718,4195.513,4186.41,4186.538,4204.231,4198.205,4185.641,4197.308,4209.103,0,0
667,52,0,0,4203.59,4183.077,4203.846,4200.255999999999,4205.513,4189.359,4204.359,4188.077,4186.667,4198.718,4193.974,4188.718,4200.769,4211.41,0,0
668,53,0,0,4197.308,4178.718,4198.846,4195.255999999999,4198.205,4188.333,4197.0509999999995,4185.641,4183.205,4186.026,4188.077,4178.718,4187.436,4196.923,0,0
669,54,0,0,4200.513,4183.333,4203.077,4196.538,4192.0509999999995,4189.487,4196.795,4188.077,4182.821,4194.103,4194.231,4174.487,4186.41,4203.205,0,0
670,55,0,0,4205.769,4190.513,4210.769,4200.641,4207.9490000000005,4186.538,4202.692,4190.255999999999,4183.718,4208.205,4203.974,4182.179,4193.974,4221.154,0,0
671,56,0,0,4206.154,4190.0,4216.538,4202.308,4207.0509999999995,4186.923,4200.897,4188.077,4184.487,4198.718,4204.615,4186.667,4188.718,4222.692,0,0
672,57,0,0,4204.231,4187.9490000000005,4216.154,4202.564,4185.897,4189.615,4199.744000000001,4186.795,4185.385,4186.41,4198.846,4184.359,4183.974,4217.692,0,0
673,58,0,0,4201.667,4188.974,4206.41,4202.179,4188.462,4190.255999999999,4201.026,4187.0509999999995,4184.231,4194.231,4201.026,4183.974,4193.333,4216.41,0,0
674,59,0,0,4202.308,4188.718,4200.385,4201.026,4207.564,4193.974,4193.59,4185.897,4183.59,4202.436,4201.667,4184.487,4199.359,4216.667,0,0
675,60,0,0,4202.821,4187.308,4197.308,4197.692,4200.897,4188.462,4184.744000000001,4183.718,4185.513,4195.255999999999,4187.0509999999995,4180.255999999999,4195.641,4215.255999999999,0,0
676,61,0,0,4194.359,4178.205,4186.026,4188.077,4181.667,4172.9490000000005,4182.308,4180.641,4185.255999999999,4186.667,4175.255999999999,4173.59,4187.308,4201.923,0,0
677,62,0,0,4189.487,4173.974,4176.41,4180.897,4186.795,4171.923,4182.692,4180.385,4183.846,4190.128,4179.872,4171.41,4187.179,4190.769,0,0
678,63,0,0,4197.564,4183.462,4187.308,4183.333,4201.41,4183.846,4182.9490000000005,4182.821,4185.0,4200.0,4188.974,4176.026,4195.255999999999,4200.641,0,0
679,64,0,2223,4201.154,4187.0509999999995,4198.462,4194.103,4199.744000000001,4186.923,4184.231,4182.0509999999995,4186.154,4207.436,4192.179,4178.205,4198.846,4212.821,0,0
680,65,0,2653,4197.436,4183.59,4192.179,4201.41,4186.923,4183.974,4183.846,4181.795,4185.897,4208.205,4202.308,4177.692,4198.846,4213.205,0,0
681,66,0,2917,4200.0,4183.462,4184.487,4191.795,4180.513,4183.718,4184.103,4184.487,4186.41,4204.231,4204.615,4178.974,4201.795,4208.462,0,0
682,67,0,3044,4199.103,4181.538,4185.128,4181.41,4184.231,4182.308,4186.667,4186.538,4188.077,4195.897,4186.667,4180.769,4198.974,4203.333,0,0
683,68,0,3541,4191.282,4179.103,4188.974,4185.128,4187.0509999999995,4182.308,4183.077,4186.41,4188.974,4189.872,4178.59,4178.333,4188.077,4201.154,0,0
684,69,0,2076,4187.9490000000005,4177.692,4186.282,4186.282,4186.154,4183.59,4172.436,4180.0,4185.513,4188.077,4181.538,4176.282,4182.692,4200.128,0,0
685,70,0,2437,4187.0509999999995,4176.154,4183.462,4186.923,4184.744000000001,4184.615,4172.436,4175.255999999999,4182.821,4187.308,4180.513,4176.282,4184.231,4198.333,0,0
686,71,0,1618,4191.026,4183.718,4191.41,4200.255999999999,4188.333,4187.436,4185.0,4182.821,4186.667,4195.641,4186.154,4179.103,4193.205,4204.103,0,0
687,72,0,1348,4201.154,4190.769,4201.795,4205.769,4198.077,4186.282,4187.308,4189.872,4190.0,4204.231,4196.795,4182.821,4201.795,4215.897,0,0
688,73,0,3525,4202.308,4186.923,4201.026,4198.077,4200.128,4184.231,4183.974,4186.41,4187.0509999999995,4197.821,4196.667,4181.923,4198.59,4214.615,0,0
689,74,0,3096,4196.667,4183.974,4194.359,4199.487,4183.974,4185.255999999999,4189.359,4182.9490000000005,4183.462,4191.923,4187.564,4181.667,4186.41,4201.282,0,0
690,75,0,3417,4199.231,4185.0,4195.769,4199.103,4176.795,4188.59,4188.462,4183.846,4182.9490000000005,4195.897,4181.154,4181.41,4182.179,4203.205,0,0
691,76,0,3220,4203.462,4183.974,4203.205,4190.385,4189.359,4190.385,4183.846,4181.282,4182.9490000000005,4193.077,4179.487,4181.538,4188.205,4217.0509999999995,0,0
692,77,0,1766,4201.282,4185.385,4201.667,4191.538,4193.846,4188.077,4189.615,4179.231,4182.821,4180.897,4183.846,4185.255999999999,4188.205,4211.282,0,0
693,78,0,3096,4200.0,4185.0,4191.923,4200.385,4188.59,4186.026,4193.974,4180.385,4183.333,4173.462,4187.308,4185.128,4186.538,4200.769,0,0
694,79,0,3417,4200.897,4179.615,4185.897,4200.769,4186.795,4185.641,4181.282,4177.179,4183.718,4177.308,4186.41,4179.103,4193.846,4209.487,0,0
695,80,0,3220,4196.154,4179.231,4183.462,4193.846,4180.255999999999,4184.487,4168.974,4172.564,4184.744000000001,4187.564,4179.359,4176.282,4196.923,4212.179,0,0
696,81,0,1766,4191.667,4184.744000000001,4180.769,4188.718,4168.59,4184.615,4174.615,4172.308,4184.487,4187.564,4172.564,4176.41,4187.9490000000005,4200.641,0,0
697,82,0,3096,4191.282,4180.128,4182.692,4185.513,4165.385,4184.872,4182.179,4171.923,4183.205,4180.0,4176.026,4177.821,4182.564,4198.846,0,0
698,83,0,3417,4191.026,4170.128,4185.128,4185.128,4175.385,4184.359,4182.564,4174.103,4184.103,4181.282,4189.615,4182.308,4186.795,4206.667,0,0
699,84,0,3220,4191.923,4174.103,4185.769,4187.564,4183.846,4186.282,4185.128,4182.308,4184.872,4188.718,4199.615,4184.231,4186.41,4211.538,0,0
700,85,0,1766,4197.0509999999995,4184.487,4187.308,4195.385,4188.462,4188.462,4187.0509999999995,4184.615,4183.59,4187.692,4198.59,4181.026,4184.615,4216.41,0,0
701,86,0,3096,4202.308,4186.154,4189.872,4200.897,4196.282,4187.821,4185.385,4181.154,4183.59,4186.026,4197.821,4181.667,4192.564,4218.59,0,0
702,87,0,3417,4202.436,4184.359,4189.872,4192.692,4194.231,4186.026,4186.026,4182.0509999999995,4188.077,4188.205,4202.692,4183.59,4201.282,4210.513,0,0
703,88,0,3220,4197.692,4184.231,4189.487,4188.077,4186.026,4185.255999999999,4187.179,4182.436,4185.385,4186.538,4198.59,4181.026,4197.692,4202.436,0,0
704,89,0,1766,4196.154,4184.487,4192.436,4195.769,4182.179,4185.641,4183.718,4178.718,4177.308,4187.308,4184.103,4178.205,4187.564,4203.718,0,0
705,90,0,3096,4198.462,4180.897,4191.795,4196.41,4183.462,4185.897,4183.205,4176.667,4178.718,4188.333,4180.385,4179.487,4185.897,4206.795,0,0
706,91,0,3417,4193.462,4175.769,4184.615,4188.59,4183.718,4184.872,4184.487,4175.0,4184.872,4182.436,4186.795,4180.385,4187.436,4201.41,0,0
707,92,0,3220,4186.538,4176.282,4182.308,4188.846,4181.923,4183.59,4183.846,4171.795,4184.359,4174.359,4182.692,4176.154,4185.128,4196.667,0,0
708,93,0,1766,4191.667,4178.462,4185.385,4194.872,4184.231,4183.205,4183.718,4175.385,4182.0509999999995,4175.897,4176.282,4174.359,4184.872,4199.744000000001,0,0
709,94,0,3096,4198.077,4176.795,4186.154,4197.0509999999995,4186.795,4183.974,4184.487,4182.308,4185.897,4187.308,4184.231,4176.026,4188.974,4200.385,0,0
710,95,0,3417,4200.0,4181.282,4192.0509999999995,4199.615,4189.615,4185.385,4187.9490000000005,4185.128,4189.231,4197.564,4197.308,4179.103,4197.9490000000005,4202.564,0,0
711,96,0,3220,4201.667,4188.205,4196.026,4200.255999999999,4186.923,4190.641,4193.077,4184.359,4186.923,4198.718,4198.205,4180.385,4204.359,4212.821,0,0
712,97,0,1766,4201.923,4187.308,4187.179,4200.255999999999,4184.103,4196.282,4192.308,4182.564,4183.718,4188.462,4189.103,4182.436,4197.9490000000005,4210.513,0,0
713,98,0,3096,4199.744000000001,4187.692,4181.538,4202.436,4194.615,4192.436,4190.769,4183.974,4185.641,4184.744000000001,4186.282,4180.769,4192.308,4197.821,0,0
714,99,0,3417,4199.872,4185.385,4185.128,4196.41,4205.897,4185.385,4186.667,4181.41,4187.9490000000005,4184.359,4191.282,4177.0509999999995,4195.0,4202.0509999999995,0,0
715,100,0,3220,4200.128,4174.744000000001,4189.359,4187.308,4200.897,4185.0,4174.231,4172.564,4182.692,4178.077,4198.462,4176.538,4193.077,4208.974,0,0
716,101,0,1766,4197.564,4169.615,4189.103,4188.333,4186.667,4183.077,4170.641,4169.872,4181.667,4184.487,4194.615,4177.436,4185.513,4203.077,0,0
717,102,0,3096,4197.692,4171.795,4187.692,4194.231,4176.667,4187.436,4184.103,4175.385,4186.41,4197.179,4183.077,4176.795,4185.897,4199.487,0,0
718,103,0,3417,4197.821,4171.923,4186.538,4190.128,4171.154,4198.205,4182.436,4174.487,4187.564,4198.205,4186.41,4175.641,4191.154,4199.231,0,0
719,104,0,3220,4192.692,4170.769,4185.897,4185.513,4178.462,4191.538,4167.308,4170.0,4185.255999999999,4188.205,4193.59,4175.385,4188.846,4198.846,0,0
720,105,0,1766,4191.795,4171.41,4185.385,4191.026,4183.59,4178.462,4174.359,4171.282,4185.513,4177.308,4190.897,4174.231,4185.128,4205.0,0,0
721,106,0,3096,4198.077,4173.077,4184.487,4192.308,4179.744000000001,4182.179,4188.333,4172.9490000000005,4186.282,4169.359,4185.641,4173.974,4185.897,4205.513,0,0
722,107,0,3417,4201.41,4176.923,4185.897,4192.692,4186.667,4184.872,4183.59,4172.9490000000005,4185.769,4172.308,4182.308,4175.513,4185.897,4195.385,0,0
723,108,0,3220,4200.769,4178.974,4190.769,4198.205,4191.795,4182.308,4179.744000000001,4172.179,4185.769,4186.41,4186.667,4180.385,4184.231,4196.795,0,0
724,109,0,1766,4198.974,4178.846,4192.9490000000005,4196.41,4189.615,4187.564,4185.513,4171.154,4185.769,4191.923,4199.231,4183.718,4183.462,4210.128,0,0
725,110,0,3096,4199.615,4181.667,4191.282,4191.538,4196.923,4188.077,4184.744000000001,4171.667,4185.769,4188.205,4199.872,4181.026,4187.692,4216.41,0,0
726,111,0,3417,4206.538,4185.897,4192.821,4200.0,4186.41,4182.9490000000005,4183.333,4177.308,4185.769,4195.385,4191.923,4179.103,4193.974,4215.769,0,0
727,112,0,3220,4209.359,4187.308,4195.769,4207.692,4161.795,4184.487,4187.179,4182.436,4186.026,4200.385,4198.462,4181.795,4192.0509999999995,4215.769,0,0
728,113,0,1766,4203.205,4186.154,4192.179,4201.154,4179.615,4184.487,4183.333,4178.205,4185.897,4188.974,4206.026,4181.154,4188.718,4214.103,0,0
729,114,0,3096,4200.0,4185.128,4187.0509999999995,4197.564,4208.974,4182.9490000000005,4178.333,4174.744000000001,4185.255999999999,4182.692,4196.667,4179.744000000001,4191.923,4205.0,0,0
730,115,0,3417,4201.667,4183.205,4187.0509999999995,4197.692,4196.026,4187.308,4187.179,4182.436,4186.282,4186.282,4188.59,4180.641,4191.538,4199.615,0,0
731,116,0,3220,4203.333,4184.872,4188.333,4199.615,4180.128,4185.0,4191.154,4183.462,4185.769,4187.821,4195.255999999999,4179.615,4186.923,4207.179,0,0
732,117,0,1766,4203.59,4185.897,4183.205,4198.333,4184.744000000001,4177.692,4178.205,4172.9490000000005,4181.41,4184.615,4198.333,4176.667,4185.255999999999,4208.59,0,0
733,118,0,3096,4197.308,4181.282,4178.077,4190.0,4188.333,4182.308,4176.795,4174.615,4179.872,4179.231,4187.308,4177.564,4185.0,4196.923,0,0
734,119,0,3417,4189.487,4178.077,4179.103,4187.564,4190.641,4189.744000000001,4181.923,4183.718,4184.872,4177.692,4181.026,4178.462,4186.667,4195.513,0,0
735,120,0,3220,4188.205,4175.513,4179.487,4192.436,4187.179,4186.795,4173.077,4180.769,4187.308,4178.333,4188.333,4174.359,4186.795,4196.154,0,0
736,121,0,1766,4192.0509999999995,4173.846,4181.282,4192.308,4175.897,4182.179,4166.795,4172.0509999999995,4183.974,4177.564,4186.41,4175.0,4180.641,4186.41,0,0
737,122,0,3096,4198.077,4176.538,4186.538,4186.923,4169.615,4180.0,4169.872,4170.385,4183.718,4176.923,4178.974,4177.821,4181.282,4191.41,0,0
738,123,0,3417,4199.615,4179.103,4184.231,4184.872,4168.974,4175.769,4175.0,4178.205,4186.538,4180.0,4183.718,4175.641,4187.179,4201.667,0,0
739,124,0,3220,4193.333,4172.821,4173.846,4185.769,4169.231,4168.974,4175.128,4180.513,4185.0,4178.205,4186.923,4171.538,4180.897,4190.513,0,0
740,125,0,1766,4187.9490000000005,4169.103,4169.359,4186.795,4167.308,4170.385,4174.359,4173.718,4181.538,4174.872,4182.436,4170.769,4174.872,4182.179,0,0
741,126,0,3096,4185.641,4178.077,4169.615,4184.359,4173.59,4180.897,4179.359,4169.872,4181.667,4175.513,4181.667,4171.795,4179.744000000001,4192.564,0,0
742,127,0,53,4186.026,4183.59,4171.667,4185.641,4189.615,4186.667,4183.718,4172.0509999999995,4183.974,4175.0,4185.513,4173.846,4181.538,4202.9490000000005,0,0
743,0,0,2220,4193.718,4182.179,4174.487,4192.308,4192.564,4181.667,4177.308,4172.308,4185.0,4174.744000000001,4186.154,4176.282,4179.103,4201.154,0,0
744,1,0,2654,4196.282,4179.872,4175.769,4190.897,4179.615,4180.769,4174.872,4171.41,4183.59,4165.641,4182.564,4174.231,4178.462,4190.897,0,0
745,2,0,2915,4193.59,4181.282,4181.41,4189.744000000001,4182.308,4187.308,4184.231,4173.462,4182.564,4165.385,4190.255999999999,4174.359,4182.821,4190.128,0,0
746,3,0,3041,4198.077,4185.513,4187.179,4195.513,4193.205,4188.077,4185.897,4172.0509999999995,4183.205,4178.462,4197.308,4179.103,4185.128,4201.923,0,0
747,4,0,3531,4202.308,4186.41,4186.154,4199.615,4190.128,4183.974,4184.103,4173.462,4184.231,4182.564,4189.744000000001,4180.513,4184.231,4203.846,0,0
748,5,0,2076,4200.513,4187.179,4190.128,4199.744000000001,4182.308,4182.308,4185.769,4177.9490000000005,4183.974,4183.333,4185.641,4180.128,4186.41,4200.513,0,0
749,6,0,2436,4198.077,4186.41,4193.974,4196.41,4174.615,4182.179,4185.769,4173.718,4183.205,4188.59,4194.103,4179.744000000001,4188.333,4202.821,0,0
750,7,0,1616,4197.9490000000005,4185.128,4190.897,4193.974,4178.974,4186.154,4185.128,4170.513,4183.333,4196.667,4198.462,4177.821,4192.0509999999995,4199.872,0,0
751,8,0,1348,4200.128,4185.513,4190.897,4196.667,4189.103,4194.103,4186.154,4180.0,4187.692,4200.385,4201.282,4180.385,4198.077,4200.255999999999,0,0
752,9,0,3521,4205.0,4190.255999999999,4194.872,4201.154,4187.0509999999995,4195.641,4193.205,4185.128,4191.282,4200.128,4209.615,4185.897,4200.255999999999,4211.923,0,0
753,10,0,3092,4202.564,4190.0,4192.436,4197.0509999999995,4180.255999999999,4186.923,4197.821,4175.513,4187.179,4193.462,4206.026,4184.744000000001,4190.513,4211.667,0,0
754,11,0,3409,4197.692,4183.974,4186.923,4189.615,4182.179,4184.231,4195.128,4173.718,4184.103,4181.667,4197.179,4180.255999999999,4182.821,4199.615,0,0
755,12,1,2922,4197.436,4183.718,4186.41,4188.718,4181.282,4184.231,4193.59,4174.615,4183.59,4178.718,4194.231,4179.359,4181.795,4199.103,0,0
756,13,1,2435,4197.179,4183.462,4185.897,4187.821,4180.385,4184.231,4192.0509999999995,4175.513,4183.077,4175.769,4191.282,4178.462,4180.769,4198.59,0,0
757,14,1,1948,4196.923,4183.205,4185.385,4186.923,4179.487,4184.231,4190.513,4176.41,4182.564,4172.821,4188.333,4177.564,4179.744000000001,4198.077,0,0
758,15,1,1461,4196.667,4182.9490000000005,4184.872,4186.026,4178.59,4184.231,4188.974,4177.308,4182.0509999999995,4169.872,4185.385,4176.667,4178.718,4197.564,0,0
759,16,1,974,4196.41,4182.692,4184.359,4185.128,4177.692,4184.231,4187.436,4178.205,4181.538,4166.923,4182.436,4175.769,4177.692,4197.0509999999995,0,0
760,17,1,487,4196.154,4182.436,4183.846,4184.231,4176.795,4184.231,4185.897,4179.103,4181.026,4163.974,4179.487,4174.872,4176.667,4196.538,0,0
761,18,0,0,4195.769,4182.179,4182.564,4182.9490000000005,4175.255999999999,4184.231,4183.59,4180.641,4179.872,4160.897,4176.154,4173.846,4175.128,4195.255999999999,0,0
762,19,0,0,4200.897,4186.538,4192.0509999999995,4190.0,4168.077,4188.718,4190.385,4183.205,4187.821,4174.872,4185.897,4177.179,4187.821,4194.359,0,0
763,20,0,0,4197.0509999999995,4185.255999999999,4192.179,4189.744000000001,4165.128,4187.308,4192.0509999999995,4178.59,4184.615,4187.9490000000005,4190.513,4173.333,4185.385,4188.974,0,0
764,21,0,0,4188.077,4179.744000000001,4184.744000000001,4183.974,4174.872,4188.462,4192.436,4174.744000000001,4181.026,4172.821,4178.846,4173.205,4176.923,4186.41,0,0
765,22,0,0,4188.333,4180.128,4184.231,4183.974,4183.718,4187.436,4190.641,4179.103,4184.487,4164.487,4178.462,4179.103,4180.513,4186.538,0,0
766,23,0,0,4195.0,4189.359,4184.615,4188.718,4193.333,4186.795,4184.359,4182.9490000000005,4185.641,4182.564,4189.359,4178.333,4187.0509999999995,4189.872,0,0
767,24,0,0,4197.9490000000005,4195.128,4183.205,4192.0509999999995,4201.282,4192.564,4182.179,4183.462,4185.0,4190.769,4187.9490000000005,4175.897,4188.333,4197.821,0,0
768,25,0,0,4193.846,4191.41,4184.744000000001,4189.872,4196.923,4192.308,4182.692,4183.333,4184.744000000001,4176.923,4180.641,4176.41,4185.641,4192.692,0,0
769,26,0,0,4188.59,4183.205,4184.872,4184.615,4185.255999999999,4183.718,4183.205,4181.026,4184.231,4174.744000000001,4184.615,4174.615,4182.436,4181.154,0,0
770,27,0,0,4186.154,4179.103,4182.564,4180.897,4176.41,4184.615,4187.308,4180.641,4185.385,4177.436,4183.59,4174.359,4182.436,4182.179,0,0
