,COUNTER, INTERPOLATED, RAW_CQ, AF3, F7, F3, FC5, T7, P7, O1, O2, P8, T8, FC6, F4, F8, AF4, MARKER_HARDWARE, MARKER
0,83,0,3417,4260.385,4268.333,4194.487,4209.615,4196.795,4185.513,4172.179,4183.205,4184.487,4186.026,4214.103,4189.872,4183.333,4248.333,0,0
1,84,0,3231,4297.0509999999995,4297.692,4198.462,4217.821,4189.487,4182.179,4170.385,4179.359,4181.282,4182.692,4229.744000000001,4189.744000000001,4152.308,4297.564,0,0
2,85,0,1689,4345.255999999999,4340.128,4206.923,4234.359,4199.231,4180.769,4164.744000000001,4178.846,4183.205,4188.59,4232.821,4196.795,4153.59,4346.795,0,0
3,86,0,3095,4381.667,4378.718,4220.897,4250.769,4207.821,4185.0,4165.897,4184.744000000001,4186.795,4200.255999999999,4227.9490000000005,4209.487,4186.41,4378.718,0,0
4,87,0,3417,4393.846,4396.282,4222.0509999999995,4250.641,4205.513,4187.9490000000005,4176.154,4183.59,4186.026,4200.128,4243.077,4212.308,4196.667,4387.821,0,0
5,88,0,3231,4396.026,4404.744000000001,4215.385,4251.795,4212.821,4187.179,4178.333,4183.59,4184.615,4199.103,4264.103,4208.974,4185.255999999999,4390.0,0,0
6,89,0,1689,4391.667,4405.897,4217.436,4255.513,4219.872,4186.795,4169.359,4186.282,4185.897,4201.667,4259.487,4210.641,4185.641,4384.615,0,0
7,90,0,3095,4373.846,4396.538,4220.255999999999,4243.974,4208.846,4184.359,4165.385,4183.462,4185.385,4192.821,4236.667,4206.923,4173.205,4357.0509999999995,0,0
8,91,0,3417,4351.154,4381.026,4209.103,4232.308,4201.026,4181.41,4168.077,4183.333,4183.462,4179.359,4215.385,4198.718,4149.872,4327.821,0,0
9,92,0,3231,4332.179,4359.615,4199.103,4236.538,4202.692,4184.487,4170.128,4182.9490000000005,4183.462,4175.385,4213.077,4194.615,4157.692,4310.128,0,0
10,93,0,1689,4309.872,4334.103,4202.308,4235.897,4202.564,4189.487,4170.769,4174.359,4184.872,4181.282,4226.154,4190.385,4182.692,4289.744000000001,0,0
11,94,0,3095,4284.615,4305.255999999999,4203.077,4222.179,4199.103,4187.564,4169.487,4173.846,4184.744000000001,4189.872,4225.513,4187.564,4188.462,4266.538,0,0
12,95,0,3417,4265.641,4285.385,4193.718,4212.179,4194.872,4181.795,4169.487,4182.692,4183.462,4187.436,4203.333,4187.692,4181.923,4249.231,0,0
13,96,0,3231,4250.385,4272.692,4190.641,4206.667,4191.923,4185.255999999999,4175.769,4188.077,4185.513,4179.744000000001,4187.692,4186.923,4183.462,4230.128,0,0
14,97,0,1689,4225.513,4249.487,4186.795,4195.513,4188.205,4184.744000000001,4172.308,4184.487,4187.692,4181.667,4188.462,4176.026,4191.41,4199.744000000001,0,0
15,98,0,3095,4200.769,4229.359,4172.9490000000005,4184.231,4182.692,4172.308,4154.872,4172.9490000000005,4184.103,4181.41,4177.692,4163.718,4190.641,4176.538,0,0
16,99,0,3417,4189.872,4223.974,4165.769,4181.154,4182.564,4172.308,4149.744000000001,4165.897,4180.128,4173.205,4149.231,4159.231,4167.9490000000005,4164.231,0,0
17,100,0,3231,4185.128,4218.974,4169.487,4184.872,4183.205,4182.692,4162.564,4175.641,4182.0509999999995,4162.179,4134.744000000001,4160.385,4148.974,4153.718,0,0
18,101,0,1689,4177.692,4210.641,4170.513,4187.692,4175.385,4174.615,4163.718,4182.179,4183.718,4156.026,4153.462,4162.308,4157.308,4150.385,0,0
19,102,0,3095,4176.41,4210.897,4167.0509999999995,4187.0509999999995,4172.9490000000005,4163.077,4152.564,4171.282,4180.641,4157.692,4168.333,4162.179,4170.641,4145.385,0,0
20,103,0,3417,4181.795,4213.59,4168.462,4187.692,4183.846,4177.0509999999995,4153.077,4167.308,4181.282,4170.513,4167.9490000000005,4166.923,4182.9490000000005,4140.385,0,0
21,104,0,3231,4179.487,4205.897,4173.077,4187.0509999999995,4188.846,4185.255999999999,4157.9490000000005,4176.923,4186.154,4186.026,4177.308,4171.154,4184.872,4149.872,0,0
22,105,0,1689,4170.641,4198.718,4174.744000000001,4183.333,4184.615,4174.872,4160.128,4182.9490000000005,4186.923,4186.154,4186.538,4171.154,4175.385,4158.846,0,0
23,106,0,3095,4168.974,4200.641,4177.308,4183.077,4180.641,4175.897,4166.41,4183.59,4184.487,4180.641,4181.026,4170.769,4188.974,4151.282,0,0
24,107,0,3417,4171.795,4199.487,4178.333,4185.385,4176.795,4184.872,4173.077,4183.974,4183.846,4184.103,4164.615,4171.154,4210.769,4141.667,0,0
25,108,0,3231,4170.641,4195.255999999999,4179.103,4187.179,4179.359,4183.974,4174.103,4182.436,4183.846,4185.641,4160.0,4171.026,4193.205,4139.487,0,0
26,109,0,1689,4168.974,4193.718,4179.231,4186.795,4183.974,4183.59,4173.59,4184.615,4183.974,4176.41,4172.9490000000005,4174.231,4169.487,4141.026,0,0
27,110,0,3095,4168.462,4188.846,4175.769,4184.487,4180.769,4188.205,4176.923,4189.103,4184.231,4171.923,4177.9490000000005,4173.205,4180.0,4143.462,0,0
28,111,0,3417,4168.846,4184.615,4174.872,4183.077,4181.667,4185.385,4181.923,4186.154,4183.846,4179.744000000001,4163.59,4167.308,4178.333,4138.205,0,0
29,112,0,3231,4169.615,4186.154,4181.538,4183.205,4186.154,4184.615,4186.538,4187.692,4184.615,4180.513,4154.615,4168.333,4172.179,4133.846,0,0
30,113,0,1689,4169.103,4187.821,4187.564,4188.718,4186.282,4189.359,4188.462,4199.744000000001,4186.282,4174.487,4164.487,4173.333,4201.154,4137.564,0,0
31,114,0,3095,4171.538,4189.872,4188.462,4194.487,4190.255999999999,4190.385,4188.846,4200.513,4185.513,4178.462,4173.462,4171.667,4213.333,4137.9490000000005,0,0
32,115,0,3417,4172.821,4189.872,4187.0509999999995,4188.462,4192.9490000000005,4188.205,4182.308,4187.308,4184.615,4182.0509999999995,4168.333,4167.308,4182.436,4134.231,0,0
33,116,0,3231,4167.308,4184.359,4184.231,4182.0509999999995,4185.897,4185.385,4177.564,4182.821,4187.692,4176.154,4161.026,4167.179,4172.692,4134.359,0,0
34,117,0,1689,4168.333,4183.974,4185.897,4188.59,4186.154,4187.179,4187.692,4187.308,4188.205,4173.077,4164.231,4169.231,4193.462,4141.282,0,0
35,118,0,3095,4168.333,4185.255999999999,4182.692,4185.513,4189.487,4187.692,4187.308,4182.692,4182.564,4172.821,4164.231,4165.897,4176.538,4138.974,0,0
36,119,0,3417,4155.128,4180.128,4173.333,4174.744000000001,4179.487,4181.154,4169.872,4177.179,4181.282,4167.0509999999995,4153.846,4162.0509999999995,4150.0,4123.077,0,0
37,120,0,3231,4154.615,4181.795,4175.385,4181.795,4178.333,4181.41,4166.538,4183.077,4186.667,4170.128,4156.923,4163.205,4182.9490000000005,4122.564,0,0
38,121,0,1689,4168.077,4188.333,4178.718,4190.0,4186.538,4186.282,4172.821,4185.385,4186.923,4184.231,4172.308,4167.564,4214.231,4139.487,0,0
39,122,0,3095,4164.231,4183.974,4172.308,4184.359,4177.821,4175.641,4162.692,4173.205,4181.795,4180.0,4170.385,4165.641,4181.795,4141.41,0,0
40,123,0,3417,4153.077,4174.231,4169.615,4182.821,4165.0,4167.564,4157.564,4166.41,4181.282,4165.255999999999,4161.795,4163.59,4161.923,4127.0509999999995,0,0
41,124,0,3231,4155.513,4170.128,4173.205,4181.923,4167.821,4180.513,4170.513,4175.641,4183.974,4164.103,4157.821,4165.641,4188.462,4121.538,0,0
42,125,0,1689,4157.308,4171.923,4172.821,4180.128,4174.872,4185.513,4175.513,4183.205,4185.641,4171.923,4151.154,4165.385,4193.846,4131.154,0,0
43,126,0,3095,4156.538,4175.641,4174.103,4182.564,4172.821,4174.231,4170.0,4183.59,4186.154,4173.846,4154.231,4164.615,4188.59,4139.359,0,0
44,127,0,52,4156.282,4170.513,4173.205,4174.231,4169.359,4175.513,4168.718,4181.026,4184.103,4169.487,4157.9490000000005,4162.0509999999995,4202.692,4132.564,0,0
45,0,0,2240,4146.538,4159.872,4168.846,4167.0509999999995,4169.615,4188.974,4172.564,4180.897,4182.692,4168.077,4156.538,4158.462,4193.077,4118.205,0,0
46,1,0,2631,4141.41,4159.615,4169.487,4179.231,4173.205,4185.128,4175.255999999999,4185.897,4185.513,4168.59,4165.0,4157.692,4182.9490000000005,4117.436,0,0
47,2,0,2895,4146.026,4162.436,4169.231,4182.9490000000005,4170.385,4171.41,4171.538,4185.897,4186.538,4164.359,4158.59,4159.744000000001,4205.769,4121.923,0,0
48,3,0,3028,4149.359,4161.026,4168.718,4177.179,4167.9490000000005,4173.974,4170.641,4181.41,4184.103,4163.59,4134.744000000001,4159.615,4197.821,4120.513,0,0
49,4,0,3532,4150.641,4162.436,4171.667,4183.974,4178.846,4183.59,4176.538,4182.179,4182.692,4164.487,4140.385,4161.795,4154.487,4121.795,0,0
50,5,0,2050,4152.0509999999995,4166.538,4172.0509999999995,4184.744000000001,4188.846,4184.359,4177.564,4183.333,4183.077,4162.436,4159.744000000001,4164.744000000001,4156.667,4122.308,0,0
51,6,0,2418,4151.538,4166.667,4167.821,4177.179,4187.308,4183.462,4170.255999999999,4181.154,4185.0,4171.026,4152.564,4161.795,4195.641,4119.231,0,0
52,7,0,1493,4153.077,4167.436,4168.333,4183.59,4187.0509999999995,4182.0509999999995,4163.462,4179.615,4184.872,4185.641,4150.769,4161.667,4199.872,4127.564,0,0
53,8,0,1136,4156.795,4169.231,4172.0509999999995,4185.128,4192.564,4178.846,4170.385,4180.0,4183.077,4187.564,4166.667,4165.385,4174.231,4140.385,0,0
54,9,0,3536,4155.385,4166.923,4171.41,4167.308,4192.436,4183.718,4182.821,4183.205,4184.872,4184.487,4165.255999999999,4165.385,4183.077,4135.513,0,0
55,10,0,3085,4153.974,4164.103,4170.769,4154.615,4186.667,4184.103,4178.077,4183.974,4187.308,4180.0,4152.821,4164.615,4210.513,4130.513,0,0
56,11,0,3428,4152.564,4156.795,4170.0,4150.769,4182.0509999999995,4169.359,4159.487,4176.026,4185.385,4169.615,4149.103,4164.231,4213.718,4133.077,0,0
57,12,0,3240,4150.641,4159.615,4167.436,4149.744000000001,4182.9490000000005,4171.538,4159.359,4170.641,4182.436,4171.795,4155.128,4158.846,4204.487,4126.026,0,0
58,13,0,1696,4151.795,4168.205,4167.9490000000005,4154.872,4185.0,4185.128,4171.795,4172.0509999999995,4182.179,4179.487,4161.154,4157.436,4186.795,4122.692,0,0
59,14,0,3085,4153.59,4164.231,4169.872,4154.487,4182.821,4176.154,4169.359,4174.872,4184.872,4177.9490000000005,4161.41,4160.769,4172.9490000000005,4129.487,0,0
60,15,0,3428,4152.821,4161.667,4169.872,4151.795,4181.026,4166.795,4166.41,4178.462,4185.385,4173.974,4155.513,4161.667,4181.41,4126.795,0,0
61,16,0,0,4155.385,4172.564,4172.0509999999995,4162.564,4182.692,4178.59,4171.154,4176.795,4181.923,4169.359,4147.821,4160.255999999999,4184.231,4125.769,0,0
62,17,0,0,4161.154,4177.0509999999995,4173.718,4166.923,4185.513,4185.385,4172.308,4171.923,4180.385,4171.538,4150.897,4161.923,4180.0,4137.821,0,0
63,18,0,0,4159.359,4171.026,4172.692,4158.59,4186.41,4182.0509999999995,4169.487,4172.564,4185.255999999999,4178.077,4165.641,4161.923,4199.103,4141.282,0,0
64,19,0,0,4154.231,4171.154,4172.308,4152.564,4181.795,4179.744000000001,4165.0,4173.462,4183.205,4173.718,4172.436,4157.308,4205.513,4135.513,0,0
65,20,0,0,4150.385,4169.359,4166.923,4144.103,4176.41,4179.231,4160.897,4169.359,4173.59,4167.9490000000005,4157.564,4152.821,4176.538,4126.667,0,0
66,21,0,0,4147.0509999999995,4162.821,4161.41,4137.179,4177.308,4180.769,4163.333,4167.0509999999995,4174.487,4173.333,4152.692,4155.385,4180.897,4117.436,0,0
67,22,0,0,4153.718,4168.462,4165.128,4150.769,4182.0509999999995,4181.41,4171.923,4175.641,4184.103,4179.103,4167.564,4161.795,4212.564,4129.872,0,0
68,23,0,0,4167.692,4182.308,4173.974,4170.128,4185.641,4179.231,4170.769,4185.255999999999,4185.897,4182.179,4173.333,4164.359,4209.487,4152.436,0,0
69,24,0,0,4171.154,4188.462,4178.077,4168.077,4185.897,4181.41,4169.872,4181.282,4181.41,4182.692,4169.103,4164.231,4182.308,4150.897,0,0
70,25,0,0,4168.333,4182.0509999999995,4176.154,4158.59,4182.9490000000005,4185.255999999999,4176.667,4171.154,4181.795,4175.128,4163.462,4164.231,4183.846,4136.538,0,0
71,26,0,0,4166.795,4174.359,4171.795,4157.0509999999995,4182.0509999999995,4180.0,4176.41,4169.487,4183.846,4166.41,4156.41,4162.564,4194.487,4135.641,0,0
72,27,0,0,4158.462,4170.385,4167.821,4157.692,4183.846,4174.744000000001,4169.103,4171.667,4182.821,4164.359,4158.205,4159.359,4184.744000000001,4138.974,0,0
73,28,0,0,4153.333,4169.744000000001,4168.205,4155.513,4182.436,4178.59,4168.974,4174.872,4184.103,4168.205,4170.897,4158.974,4188.974,4137.821,0,0
74,29,0,0,4157.821,4172.692,4169.487,4153.59,4184.744000000001,4184.744000000001,4176.154,4175.128,4184.744000000001,4170.255999999999,4171.538,4160.769,4191.667,4138.846,0,0
75,30,0,0,4157.692,4172.308,4168.59,4155.513,4190.897,4184.231,4173.846,4169.615,4182.692,4164.615,4150.897,4160.128,4169.615,4134.103,0,0
76,31,0,0,4158.205,4170.385,4166.795,4155.641,4186.154,4179.231,4167.0509999999995,4172.564,4181.538,4172.179,4134.744000000001,4158.846,4171.41,4126.667,0,0
77,32,0,0,4167.692,4176.154,4169.103,4156.795,4183.333,4183.974,4176.538,4183.462,4184.615,4193.077,4152.308,4163.718,4185.897,4135.385,0,0
78,33,0,0,4173.333,4186.154,4173.077,4159.487,4196.538,4187.308,4190.897,4187.436,4187.0509999999995,4195.385,4185.255999999999,4165.385,4183.333,4150.897,0,0
79,34,0,0,4169.231,4185.769,4170.255999999999,4158.077,4202.0509999999995,4183.974,4188.974,4184.103,4185.897,4186.923,4191.026,4163.59,4204.744000000001,4155.0,0,0
80,35,0,0,4167.821,4177.308,4169.231,4154.103,4192.821,4187.179,4182.564,4182.179,4184.231,4187.564,4175.513,4167.308,4216.41,4150.128,0,0
81,36,0,0,4171.667,4173.59,4173.59,4154.359,4187.308,4185.255999999999,4182.308,4183.718,4183.333,4187.564,4166.667,4170.0,4180.897,4146.923,0,0
82,37,0,0,4166.923,4170.641,4173.974,4156.41,4180.128,4174.359,4177.0509999999995,4185.641,4183.59,4183.077,4169.359,4165.897,4172.436,4141.538,0,0
83,38,0,0,4162.0509999999995,4166.154,4170.641,4153.077,4172.436,4175.255999999999,4171.282,4184.103,4184.744000000001,4181.667,4174.487,4163.462,4194.744000000001,4137.179,0,0
84,39,0,0,4165.0,4167.821,4169.103,4151.923,4182.0509999999995,4184.487,4171.538,4185.641,4185.128,4185.513,4177.308,4166.026,4189.872,4142.9490000000005,0,0
85,40,0,0,4171.154,4178.205,4171.923,4159.487,4195.897,4184.872,4174.615,4189.487,4185.128,4189.231,4180.385,4164.231,4178.974,4150.897,0,0
86,41,0,0,4178.718,4186.026,4176.795,4171.795,4197.9490000000005,4183.718,4179.744000000001,4187.564,4185.385,4186.667,4185.255999999999,4166.026,4185.897,4155.255999999999,0,0
87,42,0,0,4181.923,4184.231,4178.077,4171.923,4196.154,4185.897,4184.359,4184.615,4184.744000000001,4184.744000000001,4187.821,4170.385,4188.718,4155.641,0,0
88,43,0,0,4179.615,4183.077,4174.615,4160.513,4194.872,4185.513,4184.615,4183.718,4183.205,4187.0509999999995,4189.744000000001,4170.255999999999,4182.9490000000005,4153.846,0,0
89,44,0,0,4179.231,4183.846,4171.026,4158.462,4192.308,4182.9490000000005,4180.513,4181.538,4182.9490000000005,4180.769,4188.205,4169.231,4180.255999999999,4152.308,0,0
90,45,0,0,4184.744000000001,4185.255999999999,4173.974,4167.308,4190.513,4181.154,4181.154,4184.744000000001,4184.487,4183.333,4189.872,4172.436,4190.513,4154.231,0,0
91,46,0,0,4186.795,4186.795,4182.9490000000005,4170.0,4193.59,4190.255999999999,4186.795,4190.128,4186.538,4199.231,4197.564,4173.974,4203.077,4166.154,0,0
92,47,0,0,4186.923,4189.103,4186.667,4168.077,4200.769,4198.333,4182.436,4186.538,4185.0,4193.846,4193.974,4174.231,4187.692,4171.154,0,0
93,48,0,0,4187.179,4190.0,4177.9490000000005,4173.333,4203.59,4188.077,4171.154,4181.538,4181.667,4182.821,4187.179,4174.615,4164.615,4161.795,0,0
94,49,0,0,4185.385,4188.974,4173.59,4176.41,4201.026,4180.641,4175.385,4185.385,4186.154,4196.667,4195.769,4170.0,4194.487,4153.718,0,0
95,50,0,0,4186.923,4187.692,4179.103,4169.744000000001,4203.59,4185.641,4185.513,4188.974,4194.103,4204.744000000001,4206.41,4168.974,4243.974,4158.59,0,0
96,51,0,0,4185.641,4187.564,4182.0509999999995,4164.231,4203.59,4188.077,4186.538,4188.333,4192.179,4192.692,4198.462,4174.359,4216.282,4162.564,0,0
97,52,0,0,4182.308,4186.282,4176.667,4165.513,4196.41,4186.923,4187.436,4185.641,4185.385,4185.513,4185.0,4170.255999999999,4158.333,4155.513,0,0
98,53,0,0,4182.0509999999995,4183.59,4171.41,4167.821,4192.821,4186.026,4184.359,4182.9490000000005,4183.974,4183.333,4181.667,4164.359,4167.436,4156.923,0,0
99,54,0,0,4187.564,4190.769,4176.41,4167.821,4195.128,4189.615,4180.641,4184.359,4184.744000000001,4181.795,4184.103,4171.538,4197.564,4170.128,0,0
100,55,0,0,4191.923,4200.128,4185.897,4171.282,4201.026,4201.026,4190.769,4188.205,4185.769,4188.077,4188.718,4176.538,4183.846,4168.974,0,0
101,56,0,0,4188.462,4193.974,4185.128,4172.9490000000005,4205.385,4201.795,4197.821,4187.9490000000005,4187.9490000000005,4191.667,4185.255999999999,4168.077,4173.077,4154.103,0,0
102,57,0,0,4184.103,4184.872,4174.615,4168.718,4202.0509999999995,4185.641,4187.436,4185.769,4187.9490000000005,4185.0,4166.154,4162.821,4195.128,4153.846,0,0
103,58,0,0,4183.205,4184.359,4168.974,4165.255999999999,4197.436,4183.718,4181.538,4183.846,4184.872,4181.154,4144.744000000001,4164.487,4202.821,4159.103,0,0
104,59,0,0,4183.974,4186.026,4171.667,4167.0509999999995,4201.41,4200.0,4187.0509999999995,4183.205,4183.974,4189.359,4146.538,4166.41,4183.077,4153.077,0,0
105,60,0,0,4184.231,4186.282,4175.128,4170.769,4198.846,4198.462,4182.0509999999995,4185.128,4186.41,4199.872,4160.255999999999,4166.154,4184.231,4152.436,0,0
106,61,0,0,4183.462,4186.538,4173.974,4171.41,4184.872,4181.795,4175.513,4186.026,4186.923,4200.641,4158.462,4163.718,4209.615,4157.436,0,0
107,62,0,0,4182.179,4185.897,4171.538,4170.255999999999,4186.154,4183.077,4184.359,4185.385,4185.255999999999,4187.821,4152.0509999999995,4163.205,4203.974,4156.538,0,0
108,63,0,0,4181.538,4184.615,4172.692,4169.744000000001,4195.0,4187.821,4181.795,4183.974,4185.513,4181.41,4154.103,4162.436,4178.974,4151.667,0,0
109,64,0,2246,4180.769,4182.9490000000005,4176.026,4164.744000000001,4186.154,4182.564,4169.615,4182.564,4185.769,4191.923,4153.59,4163.462,4185.385,4152.179,0,0
110,65,0,2632,4181.026,4183.846,4181.923,4161.026,4187.0509999999995,4187.9490000000005,4177.564,4183.333,4184.359,4196.795,4152.436,4166.538,4202.9490000000005,4161.026,0,0
111,66,0,2898,4182.0509999999995,4185.385,4186.026,4165.255999999999,4202.821,4193.462,4188.333,4185.641,4183.974,4188.205,4160.769,4166.41,4193.974,4159.615,0,0
112,67,0,3039,4182.0509999999995,4183.205,4181.538,4169.615,4196.41,4186.667,4186.538,4187.0509999999995,4185.128,4187.179,4155.641,4162.692,4181.026,4150.897,0,0
113,68,0,3539,4186.41,4185.897,4178.718,4171.154,4183.462,4186.538,4186.282,4185.641,4184.872,4191.154,4136.154,4164.744000000001,4184.872,4153.974,0,0
114,69,0,2052,4187.179,4187.564,4182.436,4171.667,4184.872,4187.692,4176.026,4181.41,4184.359,4180.769,4137.564,4165.255999999999,4179.359,4159.487,0,0
115,70,0,2420,4183.333,4182.179,4183.462,4169.872,4184.487,4185.897,4164.615,4179.744000000001,4182.308,4170.0,4152.308,4162.0509999999995,4163.974,4161.538,0,0
116,71,0,1492,4191.154,4190.385,4185.0,4171.41,4189.487,4190.769,4179.615,4185.513,4187.0509999999995,4184.744000000001,4159.359,4170.385,4185.255999999999,4165.385,0,0
117,72,0,1139,4199.231,4200.769,4186.923,4175.385,4202.308,4191.026,4191.41,4188.077,4196.026,4210.641,4163.846,4175.385,4228.333,4162.436,0,0
118,73,0,3534,4189.872,4191.795,4185.513,4170.255999999999,4196.538,4183.462,4185.0,4184.615,4192.0509999999995,4211.538,4165.641,4169.615,4213.333,4158.718,0,0
119,74,0,3089,4185.0,4186.923,4182.436,4167.436,4188.077,4186.538,4190.0,4184.615,4182.179,4189.231,4157.436,4166.667,4165.128,4167.692,0,0
120,75,0,3432,4190.0,4192.564,4182.821,4172.179,4191.538,4188.846,4187.821,4182.179,4181.923,4177.564,4139.359,4171.282,4160.385,4168.974,0,0
121,76,0,3240,4186.923,4186.667,4180.641,4171.538,4186.026,4182.692,4166.282,4178.846,4184.744000000001,4181.41,4130.0,4171.282,4181.538,4157.821,0,0
122,77,0,1699,4189.487,4183.974,4179.615,4171.41,4178.846,4181.795,4164.487,4181.667,4182.692,4181.923,4138.974,4169.103,4185.255999999999,4155.385,0,0
123,78,0,3089,4201.41,4193.718,4184.359,4180.255999999999,4186.795,4184.487,4181.667,4185.0,4182.692,4187.821,4156.282,4171.667,4180.641,4162.692,0,0
124,79,0,3432,4201.282,4192.179,4187.436,4186.154,4193.974,4184.744000000001,4181.795,4184.103,4186.667,4201.795,4164.487,4175.385,4186.282,4171.154,0,0
125,80,0,3240,4196.41,4183.974,4187.179,4183.077,4189.744000000001,4186.282,4172.436,4184.744000000001,4187.436,4197.436,4161.923,4176.667,4186.795,4171.41,0,0
126,81,0,1699,4199.615,4178.846,4186.282,4176.282,4189.487,4189.359,4172.564,4186.538,4185.385,4185.513,4155.128,4171.282,4181.923,4167.9490000000005,0,0
127,82,0,3089,4197.436,4172.308,4186.538,4169.615,4189.744000000001,4188.718,4176.41,4184.231,4183.846,4185.385,4149.359,4164.231,4191.41,4168.59,0,0
128,83,0,3432,4189.744000000001,4169.103,4186.154,4170.897,4185.641,4186.667,4183.59,4183.59,4185.0,4182.9490000000005,4147.436,4165.128,4192.179,4164.359,0,0
129,84,0,3240,4188.974,4170.641,4185.769,4174.231,4192.179,4185.0,4188.974,4185.897,4183.462,4173.333,4145.255999999999,4166.923,4162.564,4159.231,0,0
130,85,0,1699,4187.0509999999995,4168.59,4184.231,4169.615,4197.179,4181.41,4183.333,4184.231,4181.795,4174.872,4146.538,4163.59,4142.692,4161.41,0,0
131,86,0,3089,4186.026,4167.821,4183.59,4172.9490000000005,4187.9490000000005,4185.769,4180.513,4182.308,4183.974,4183.333,4152.0509999999995,4163.974,4162.821,4163.333,0,0
132,87,0,3432,4194.103,4176.154,4187.564,4187.436,4191.154,4194.615,4189.231,4186.282,4185.769,4188.718,4157.308,4173.59,4190.769,4166.923,0,0
133,88,0,3240,4196.538,4177.564,4188.205,4184.744000000001,4203.718,4191.026,4190.255999999999,4187.821,4185.128,4189.103,4162.179,4177.436,4190.769,4173.205,0,0
134,89,0,1699,4188.462,4169.359,4185.385,4169.744000000001,4199.615,4181.667,4182.564,4181.923,4182.692,4179.872,4153.462,4171.41,4172.564,4169.744000000001,0,0
135,90,0,3089,4185.897,4167.9490000000005,4185.0,4169.103,4193.59,4183.974,4184.231,4182.564,4183.974,4178.846,4143.205,4167.0509999999995,4184.744000000001,4166.154,0,0
136,91,0,3432,4189.103,4173.59,4182.9490000000005,4174.744000000001,4196.154,4186.667,4188.462,4189.872,4187.821,4186.282,4146.667,4167.564,4202.0509999999995,4173.846,0,0
137,92,0,3240,4186.795,4170.255999999999,4178.205,4169.615,4190.255999999999,4184.744000000001,4186.154,4189.103,4186.41,4180.385,4153.077,4165.897,4173.974,4169.487,0,0
138,93,0,1699,4182.179,4165.255999999999,4179.487,4166.795,4180.769,4186.923,4182.179,4182.0509999999995,4182.436,4174.359,4150.513,4163.205,4159.231,4158.205,0,0
139,94,0,3089,4187.436,4174.872,4185.897,4178.077,4184.615,4184.359,4181.026,4181.154,4183.205,4180.128,4149.487,4167.9490000000005,4183.59,4170.255999999999,0,0
140,95,0,3432,4199.744000000001,4186.154,4188.462,4187.9490000000005,4198.462,4186.282,4187.179,4188.974,4186.154,4191.538,4164.103,4176.026,4185.385,4190.385,0,0
141,96,0,3240,4204.615,4187.821,4187.308,4185.769,4201.026,4195.128,4187.564,4192.9490000000005,4186.41,4201.667,4184.744000000001,4178.462,4177.0509999999995,4184.615,0,0
142,97,0,1699,4198.077,4183.333,4184.359,4181.795,4188.333,4190.385,4173.846,4186.538,4185.255999999999,4201.154,4197.0509999999995,4171.795,4189.231,4172.308,0,0
143,98,0,3089,4196.538,4180.769,4183.974,4183.718,4182.564,4180.385,4169.615,4184.359,4185.385,4197.436,4207.9490000000005,4169.615,4189.615,4179.487,0,0
144,99,0,3432,4204.231,4184.744000000001,4187.0509999999995,4186.41,4189.231,4180.255999999999,4178.59,4187.692,4187.0509999999995,4206.923,4223.333,4175.641,4183.205,4193.462,0,0
145,100,0,3240,4206.026,4190.385,4185.897,4186.923,4195.641,4188.846,4185.255999999999,4184.231,4186.667,4211.923,4205.641,4179.487,4183.205,4192.9490000000005,0,0
146,101,0,1699,4201.795,4180.513,4185.897,4186.923,4201.667,4195.385,4188.077,4181.667,4185.641,4202.308,4161.41,4177.692,4193.59,4180.641,0,0
147,102,0,3089,4197.308,4167.308,4190.128,4181.41,4196.538,4190.897,4182.0509999999995,4185.897,4186.282,4197.436,4161.154,4179.487,4200.769,4174.615,0,0
148,103,0,3432,4192.9490000000005,4176.026,4185.513,4175.513,4186.538,4182.179,4175.255999999999,4187.564,4185.769,4200.769,4198.333,4178.59,4177.0509999999995,4177.821,0,0
149,104,0,3240,4181.923,4183.718,4174.231,4174.615,4192.564,4183.846,4182.436,4186.41,4184.487,4199.615,4205.769,4168.59,4163.077,4171.282,0,0
150,105,0,1699,4166.282,4170.769,4168.974,4174.103,4197.0509999999995,4187.179,4185.0,4185.128,4184.231,4188.59,4189.359,4162.308,4185.769,4149.359,0,0
151,106,0,3089,4160.0,4161.667,4171.667,4171.923,4185.0,4186.026,4178.846,4183.077,4184.872,4182.179,4184.359,4161.667,4193.718,4136.026,0,0
152,107,0,3432,4164.487,4169.359,4175.0,4170.769,4182.436,4188.077,4182.564,4182.436,4185.255999999999,4185.641,4175.897,4162.692,4167.564,4136.538,0,0
153,108,0,3240,4168.718,4171.154,4175.513,4169.615,4196.795,4187.692,4186.282,4184.231,4182.564,4186.154,4170.897,4161.923,4156.923,4136.282,0,0
154,109,0,1699,4164.231,4165.641,4176.154,4169.231,4198.974,4187.821,4182.436,4181.923,4180.255999999999,4185.513,4185.513,4160.513,4181.923,4137.692,0,0
155,110,0,3089,4156.795,4164.359,4175.641,4171.282,4188.718,4190.0,4180.641,4174.487,4181.667,4183.974,4187.308,4159.359,4197.179,4137.436,0,0
156,111,0,3432,4153.077,4159.744000000001,4170.769,4166.923,4187.179,4184.231,4173.974,4170.0,4178.462,4171.923,4176.154,4157.692,4165.385,4131.923,0,0
157,112,0,3240,4153.077,4156.154,4167.436,4161.154,4187.308,4178.59,4167.0509999999995,4174.231,4176.795,4171.282,4177.179,4154.744000000001,4151.667,4132.179,0,0
158,113,0,1699,4154.872,4162.179,4170.769,4167.821,4182.0509999999995,4184.872,4176.41,4181.154,4182.308,4181.538,4164.487,4157.436,4193.846,4139.103,0,0
159,114,0,3089,4156.41,4171.41,4173.462,4175.0,4185.0,4191.795,4189.744000000001,4185.769,4186.667,4177.0509999999995,4148.205,4164.103,4208.077,4138.718,0,0
160,115,0,3432,4154.872,4166.154,4170.641,4167.308,4186.154,4181.538,4181.923,4183.077,4184.231,4171.154,4169.744000000001,4163.974,4171.667,4136.923,0,0
161,116,0,3240,4152.0509999999995,4156.41,4169.103,4161.667,4176.538,4172.179,4171.795,4174.872,4178.462,4172.9490000000005,4187.308,4159.487,4148.077,4142.308,0,0
162,117,0,1699,4152.179,4156.667,4167.436,4166.154,4173.718,4181.538,4182.308,4175.641,4177.436,4170.385,4176.795,4158.333,4161.923,4137.821,0,0
163,118,0,3089,4150.897,4155.897,4167.179,4170.385,4177.0509999999995,4187.692,4190.385,4185.769,4183.077,4166.667,4167.692,4158.462,4175.513,4126.282,0,0
164,119,0,3432,4149.359,4152.821,4170.641,4167.0509999999995,4178.846,4181.923,4186.667,4187.692,4185.641,4168.59,4159.872,4155.513,4168.462,4125.897,0,0
165,120,0,3240,4148.333,4154.103,4167.308,4157.692,4183.077,4183.846,4186.026,4181.667,4181.154,4172.308,4152.564,4150.769,4171.282,4125.769,0,0
166,121,0,1699,4146.538,4155.513,4159.487,4157.9490000000005,4184.487,4188.846,4185.641,4181.795,4180.897,4170.255999999999,4159.872,4148.59,4185.128,4122.0509999999995,0,0
167,122,0,3089,4153.462,4157.692,4165.0,4169.615,4181.667,4187.179,4188.974,4185.641,4183.974,4165.385,4176.154,4153.974,4172.564,4135.641,0,0
168,123,0,3432,4167.564,4166.923,4176.026,4175.769,4189.103,4188.077,4203.462,4189.359,4184.744000000001,4176.154,4191.154,4162.179,4153.333,4156.538,0,0
169,124,0,3240,4171.026,4171.667,4173.205,4174.615,4200.128,4188.59,4200.513,4191.41,4186.154,4186.538,4177.308,4163.077,4177.821,4154.231,0,0
170,125,0,1699,4167.436,4169.103,4167.821,4174.615,4201.282,4186.923,4187.308,4187.692,4184.744000000001,4173.333,4152.692,4160.897,4199.872,4146.154,0,0
171,126,0,3089,4167.436,4170.128,4170.769,4171.795,4198.205,4185.128,4196.538,4185.255999999999,4182.436,4165.897,4169.615,4164.359,4184.231,4153.462,0,0
172,127,0,52,4166.538,4169.231,4170.513,4173.205,4196.795,4186.41,4199.872,4185.513,4183.462,4181.538,4196.41,4163.205,4175.641,4156.667,0,0
173,0,0,2246,4167.692,4165.513,4172.692,4186.154,4196.154,4193.077,4191.282,4185.769,4185.385,4186.538,4189.231,4162.0509999999995,4179.103,4155.513,0,0
174,1,0,2637,4169.615,4167.308,4176.538,4190.769,4191.154,4193.974,4195.769,4186.667,4185.255999999999,4176.026,4174.231,4163.462,4181.795,4154.231,0,0
175,2,0,2901,4165.0,4167.564,4170.769,4185.769,4185.128,4183.59,4193.333,4186.41,4184.487,4173.718,4160.255999999999,4159.231,4188.462,4149.231,0,0
176,3,0,3041,4167.179,4167.564,4172.9490000000005,4190.769,4189.359,4180.641,4183.205,4183.718,4183.846,4177.436,4154.487,4160.641,4181.923,4160.255999999999,0,0
177,4,0,3537,4179.231,4178.462,4187.692,4201.282,4201.538,4191.282,4193.974,4184.487,4183.59,4176.282,4180.641,4171.026,4163.333,4181.154,0,0
178,5,0,2051,4177.821,4182.564,4183.462,4200.385,4199.615,4193.077,4202.0509999999995,4187.0509999999995,4183.718,4175.128,4195.385,4169.744000000001,4160.641,4172.9490000000005,0,0
179,6,0,2415,4166.41,4168.974,4167.9490000000005,4195.769,4187.0509999999995,4183.718,4186.667,4184.103,4186.154,4183.205,4174.103,4159.359,4184.487,4151.795,0,0
180,7,0,1485,4168.718,4166.282,4170.641,4200.0,4184.872,4183.333,4181.538,4183.718,4187.436,4190.641,4172.179,4161.795,4208.718,4153.718,0,0
181,8,0,1139,4176.282,4176.282,4177.9490000000005,4202.308,4187.564,4188.59,4189.487,4187.436,4186.026,4187.0509999999995,4193.974,4167.564,4202.308,4163.59,0,0
182,9,0,3527,4173.077,4169.744000000001,4180.128,4198.462,4185.255999999999,4186.538,4194.872,4187.564,4184.872,4184.359,4183.59,4166.667,4167.9490000000005,4169.231,0,0
183,10,0,3098,4170.385,4169.103,4183.333,4200.897,4183.718,4189.615,4199.103,4186.923,4185.385,4188.974,4157.9490000000005,4164.615,4167.564,4170.513,0,0
184,11,0,3425,4173.205,4193.077,4179.487,4205.128,4186.795,4201.923,4200.641,4188.462,4186.795,4185.385,4167.179,4163.333,4204.744000000001,4158.974,0,0
185,12,0,3236,4171.667,4205.513,4173.974,4204.231,4194.872,4200.128,4199.103,4188.205,4186.795,4173.205,4176.026,4160.897,4199.487,4151.282,0,0
186,13,0,1697,4169.103,4198.59,4174.744000000001,4203.462,4201.154,4187.179,4188.077,4184.487,4183.974,4166.795,4160.0,4157.692,4158.846,4150.641,0,0
187,14,0,3098,4169.487,4197.436,4172.308,4203.077,4196.667,4184.744000000001,4174.231,4182.9490000000005,4182.564,4168.59,4156.538,4156.538,4167.179,4140.255999999999,0,0
188,15,0,3425,4170.128,4200.897,4174.487,4201.667,4192.0509999999995,4192.179,4178.077,4186.282,4186.923,4182.308,4175.0,4159.103,4222.692,4138.205,0,0
189,16,0,0,4170.769,4201.667,4181.154,4201.923,4199.615,4194.872,4192.0509999999995,4187.821,4189.744000000001,4195.513,4175.513,4161.41,4222.9490000000005,4151.795,0,0
190,17,0,0,4169.359,4197.179,4174.103,4201.026,4202.0509999999995,4190.0,4190.513,4185.385,4185.897,4182.308,4147.564,4159.487,4165.0,4150.897,0,0
191,18,0,0,4163.333,4187.308,4165.769,4197.308,4188.846,4188.846,4182.179,4184.615,4183.333,4165.0,4136.538,4155.128,4155.0,4138.718,0,0
192,19,0,0,4163.333,4189.744000000001,4169.615,4199.103,4183.077,4192.821,4185.769,4186.667,4185.128,4176.795,4158.077,4155.897,4197.692,4138.974,0,0
193,20,0,0,4168.718,4203.462,4173.333,4201.282,4194.487,4191.923,4189.231,4185.769,4186.154,4188.846,4177.564,4159.487,4217.692,4144.487,0,0
194,21,0,0,4166.538,4204.103,4171.026,4199.103,4196.026,4186.026,4185.385,4184.872,4184.487,4177.692,4177.564,4159.487,4196.282,4142.308,0,0
195,22,0,0,4165.513,4200.769,4170.385,4201.667,4187.308,4188.462,4191.923,4188.205,4184.872,4178.59,4175.0,4159.744000000001,4173.333,4140.255999999999,0,0
196,23,0,0,4167.436,4205.0,4170.385,4202.692,4191.026,4193.846,4202.564,4189.487,4186.538,4188.846,4167.308,4156.154,4167.179,4143.718,0,0
197,24,0,0,4158.59,4200.897,4166.41,4192.821,4191.41,4189.359,4192.308,4186.282,4184.744000000001,4177.436,4155.641,4148.59,4168.333,4140.897,0,0
198,25,0,0,4148.462,4193.205,4158.846,4185.128,4181.923,4186.667,4183.974,4184.615,4182.9490000000005,4165.0,4160.641,4148.718,4179.359,4126.923,0,0
199,26,0,0,4152.9490000000005,4197.179,4155.0,4186.154,4182.692,4190.385,4198.59,4186.923,4184.359,4171.41,4170.385,4152.692,4194.615,4120.255999999999,0,0
200,27,0,0,4155.513,4197.692,4154.744000000001,4185.385,4185.897,4188.333,4200.769,4188.077,4185.0,4173.718,4174.872,4147.308,4196.41,4132.564,0,0
201,28,0,0,4145.897,4188.077,4152.179,4181.026,4180.897,4182.308,4185.641,4186.538,4183.077,4163.59,4166.026,4146.282,4179.359,4133.846,0,0
202,29,0,0,4143.333,4185.255999999999,4154.103,4181.154,4184.103,4184.231,4183.077,4184.615,4182.564,4169.872,4153.59,4152.0509999999995,4179.103,4124.872,0,0
203,30,0,0,4150.128,4188.333,4157.179,4182.9490000000005,4188.333,4185.0,4187.9490000000005,4183.846,4184.487,4178.846,4162.436,4152.0509999999995,4204.487,4131.795,0,0
204,31,0,0,4149.872,4189.231,4154.231,4181.667,4184.872,4186.538,4186.154,4184.615,4184.872,4167.564,4173.333,4151.923,4205.513,4136.923,0,0
205,32,0,0,4151.154,4195.255999999999,4159.359,4182.692,4191.41,4195.897,4184.487,4184.103,4182.692,4161.41,4167.821,4157.821,4177.821,4138.205,0,0
206,33,0,0,4162.692,4201.667,4170.641,4190.255999999999,4202.0509999999995,4195.255999999999,4187.9490000000005,4182.9490000000005,4182.692,4172.179,4164.359,4161.154,4162.9490000000005,4150.0,0,0
207,34,0,0,4171.538,4203.59,4176.154,4198.846,4200.385,4181.795,4186.026,4183.718,4185.0,4173.974,4170.513,4162.436,4165.385,4158.333,0,0
208,35,0,0,4175.641,4209.615,4178.333,4201.41,4200.769,4180.897,4183.846,4185.0,4185.0,4165.897,4176.667,4165.385,4176.538,4159.231,0,0
209,36,0,0,4183.718,4217.564,4184.359,4202.564,4210.385,4198.846,4195.0,4186.667,4184.359,4177.692,4187.0509999999995,4168.077,4196.667,4167.436,0,0
210,37,0,0,4186.667,4218.846,4182.436,4205.769,4208.846,4202.436,4201.282,4187.564,4183.846,4188.718,4191.923,4169.487,4192.436,4173.333,0,0
211,38,0,0,4183.974,4215.128,4176.282,4202.564,4201.282,4190.128,4190.0,4184.359,4182.821,4178.718,4184.744000000001,4165.513,4180.897,4169.872,0,0
212,39,0,0,4185.255999999999,4213.462,4180.897,4202.436,4209.487,4193.846,4183.846,4183.333,4184.744000000001,4180.897,4184.103,4165.255999999999,4210.385,4172.436,0,0
213,40,0,0,4186.667,4215.769,4182.9490000000005,4208.59,4217.179,4203.462,4188.974,4186.923,4186.795,4192.0509999999995,4190.385,4172.564,4215.385,4174.487,0,0
214,41,0,0,4184.615,4215.769,4178.077,4207.179,4206.667,4194.744000000001,4187.179,4186.41,4184.487,4181.026,4190.641,4170.641,4177.0509999999995,4167.821,0,0
215,42,0,0,4182.692,4215.0,4179.103,4206.154,4197.0509999999995,4182.821,4185.255999999999,4182.436,4182.564,4167.564,4186.538,4160.897,4170.513,4167.0509999999995,0,0
216,43,0,0,4182.9490000000005,4218.205,4185.0,4216.026,4200.513,4188.205,4188.846,4182.9490000000005,4184.615,4182.308,4183.974,4163.462,4187.821,4176.923,0,0
217,44,0,0,4185.897,4218.462,4183.974,4220.255999999999,4202.564,4192.692,4187.0509999999995,4185.255999999999,4185.769,4197.9490000000005,4190.128,4168.333,4202.179,4177.692,0,0
218,45,0,0,4185.897,4213.846,4180.513,4210.513,4200.255999999999,4195.0,4184.487,4184.103,4182.692,4188.974,4185.385,4162.692,4200.769,4160.128,0,0
219,46,0,0,4183.205,4214.487,4178.205,4209.744000000001,4199.744000000001,4197.564,4184.487,4181.667,4181.026,4176.282,4164.744000000001,4159.744000000001,4177.692,4159.487,0,0
220,47,0,0,4184.103,4216.026,4176.538,4213.333,4197.564,4192.9490000000005,4185.769,4182.436,4183.846,4171.667,4160.255999999999,4165.897,4169.359,4178.205,0,0
221,48,0,0,4185.641,4215.0,4178.974,4207.0509999999995,4195.641,4187.308,4188.974,4185.897,4186.795,4175.385,4179.487,4167.436,4192.0509999999995,4182.436,0,0
222,49,0,0,4186.795,4216.538,4180.641,4202.0509999999995,4197.692,4187.0509999999995,4187.564,4186.41,4185.513,4185.0,4194.872,4164.359,4196.154,4180.0,0,0
223,50,0,0,4189.872,4217.0509999999995,4180.128,4202.308,4200.128,4190.0,4184.103,4184.615,4183.59,4187.308,4199.103,4167.308,4169.744000000001,4187.436,0,0
224,51,0,0,4189.103,4214.744000000001,4181.795,4204.231,4200.128,4198.333,4190.128,4186.154,4184.615,4184.872,4198.205,4172.179,4173.718,4183.462,0,0
225,52,0,0,4184.103,4215.769,4179.615,4202.436,4193.077,4202.0509999999995,4192.564,4185.641,4184.872,4185.897,4191.667,4168.205,4196.923,4173.205,0,0
226,53,0,0,4183.077,4212.564,4170.897,4200.0,4183.846,4192.308,4183.59,4181.538,4183.333,4188.077,4186.154,4163.205,4186.282,4177.9490000000005,0,0
227,54,0,0,4180.641,4206.026,4167.308,4200.0,4182.692,4187.821,4182.308,4184.103,4183.59,4182.9490000000005,4179.744000000001,4166.026,4168.077,4179.359,0,0
228,55,0,0,4176.282,4204.487,4170.0,4201.923,4184.744000000001,4199.231,4186.154,4188.462,4185.0,4172.308,4176.667,4165.513,4183.205,4169.615,0,0
229,56,0,0,4179.103,4205.641,4170.513,4201.41,4185.385,4201.795,4185.128,4185.897,4184.231,4169.231,4185.641,4160.897,4197.179,4168.333,0,0
230,57,0,0,4186.282,4209.103,4174.103,4201.795,4190.255999999999,4188.846,4186.154,4186.154,4183.59,4182.564,4190.513,4164.615,4188.846,4179.231,0,0
231,58,0,0,4187.308,4212.9490000000005,4177.9490000000005,4204.615,4190.0,4184.359,4180.0,4181.795,4182.0509999999995,4186.282,4183.333,4166.667,4193.205,4187.821,0,0
232,59,0,0,4185.128,4212.692,4173.974,4202.436,4183.462,4192.436,4172.821,4171.538,4181.667,4172.692,4185.769,4161.923,4199.359,4180.0,0,0
233,60,0,0,4183.59,4213.205,4175.0,4200.255999999999,4180.769,4190.128,4179.103,4177.179,4183.333,4174.744000000001,4193.462,4163.846,4201.282,4171.538,0,0
234,61,0,0,4183.077,4217.436,4178.462,4203.974,4182.692,4184.487,4186.667,4185.385,4177.179,4185.385,4178.718,4166.667,4198.205,4176.026,0,0
235,62,0,0,4181.026,4211.667,4173.846,4202.308,4181.667,4191.41,4179.615,4174.231,4167.308,4169.231,4160.255999999999,4162.564,4171.282,4174.487,0,0
236,63,0,0,4179.615,4208.718,4177.308,4199.103,4182.308,4192.179,4171.41,4170.385,4171.667,4153.462,4170.769,4161.41,4152.436,4167.0509999999995,0,0
237,64,0,2247,4191.026,4223.077,4188.333,4211.026,4191.538,4183.333,4176.538,4186.923,4183.718,4174.615,4200.641,4171.026,4173.846,4187.692,0,0
238,65,0,2639,4202.0509999999995,4228.077,4188.59,4223.077,4196.538,4191.41,4181.154,4189.744000000001,4188.205,4193.974,4210.128,4173.205,4208.205,4206.282,0,0
239,66,0,2902,4187.9490000000005,4214.103,4182.0509999999995,4212.179,4188.59,4200.769,4176.538,4175.385,4182.0509999999995,4178.462,4191.41,4163.59,4204.487,4183.846,0,0
240,67,0,3038,4173.846,4211.538,4178.077,4200.128,4178.718,4190.0,4169.615,4167.564,4171.795,4162.9490000000005,4177.436,4156.923,4173.718,4165.385,0,0
241,68,0,3542,4183.205,4221.795,4177.821,4201.795,4179.615,4182.308,4171.41,4177.308,4175.513,4166.538,4181.282,4159.103,4163.59,4176.923,0,0
242,69,0,2046,4197.0509999999995,4220.897,4181.667,4199.744000000001,4183.59,4186.923,4174.615,4186.923,4184.231,4168.718,4186.282,4162.308,4175.513,4191.795,0,0
243,70,0,2415,4216.538,4237.692,4182.9490000000005,4200.769,4181.026,4186.923,4170.385,4175.769,4175.385,4171.538,4185.641,4164.231,4176.667,4217.564,0,0
244,71,0,1487,4262.0509999999995,4291.026,4189.872,4222.564,4183.077,4183.462,4168.333,4167.564,4170.513,4178.846,4202.308,4176.667,4167.436,4275.513,0,0
245,72,0,1139,4317.179,4340.513,4204.103,4245.641,4194.872,4184.103,4174.103,4180.128,4183.333,4183.077,4242.692,4194.872,4172.436,4341.41,0,0
246,73,0,3531,4357.564,4365.255999999999,4212.308,4254.231,4202.564,4188.333,4185.769,4189.359,4189.103,4195.0,4271.154,4204.615,4198.974,4388.077,0,0
247,74,0,3085,4387.179,4388.205,4216.154,4263.846,4199.359,4189.744000000001,4190.0,4185.255999999999,4183.333,4208.205,4274.744000000001,4206.667,4210.255999999999,4419.359,0,0
248,75,0,3420,4410.513,4411.538,4218.462,4270.897,4204.744000000001,4187.821,4185.128,4184.872,4183.333,4201.538,4275.385,4210.385,4183.974,4438.974,0,0
249,76,0,3233,4421.538,4420.255999999999,4219.744000000001,4271.538,4218.333,4193.974,4184.359,4187.9490000000005,4185.128,4199.744000000001,4287.436,4212.436,4174.872,4447.9490000000005,0,0
250,77,0,1693,4421.923,4418.205,4228.333,4272.564,4215.641,4197.692,4184.359,4186.154,4186.026,4214.872,4285.128,4212.564,4186.154,4450.513,0,0
251,78,0,3085,4420.255999999999,4409.744000000001,4232.9490000000005,4271.41,4206.282,4188.205,4181.154,4186.154,4186.795,4216.667,4269.487,4214.872,4174.487,4449.615,0,0
252,79,0,3420,4417.0509999999995,4400.385,4228.205,4264.103,4208.974,4191.154,4188.974,4188.718,4186.154,4210.769,4270.0,4216.538,4173.077,4440.769,0,0
253,80,0,3233,4402.821,4388.077,4228.718,4254.872,4209.744000000001,4204.744000000001,4201.923,4188.205,4186.41,4216.795,4275.769,4214.487,4197.436,4420.128,0,0
254,81,0,1693,4381.026,4366.923,4224.744000000001,4248.205,4200.385,4196.41,4199.231,4184.872,4185.255999999999,4211.795,4267.436,4211.667,4205.255999999999,4395.385,0,0
255,82,0,3085,4361.538,4349.615,4216.282,4244.872,4204.615,4186.026,4189.615,4185.513,4184.615,4198.718,4260.513,4206.667,4197.436,4380.0,0,0
256,83,0,3420,4340.513,4336.538,4216.41,4241.795,4215.255999999999,4198.462,4189.487,4187.692,4185.769,4203.077,4262.436,4198.846,4191.154,4363.846,0,0
257,84,0,3233,4312.564,4310.255999999999,4212.179,4228.974,4204.359,4204.615,4186.667,4185.897,4184.615,4209.359,4256.41,4193.59,4180.897,4330.769,0,0
258,85,0,1693,4283.205,4276.41,4198.205,4215.513,4186.795,4190.769,4178.846,4183.205,4183.333,4201.538,4237.308,4186.538,4192.564,4294.744000000001,0,0
259,86,0,3085,4261.41,4258.718,4193.974,4215.385,4187.436,4182.436,4179.872,4183.205,4184.872,4199.872,4208.205,4182.436,4210.513,4271.538,0,0
260,87,0,3420,4251.923,4253.205,4200.897,4214.359,4192.564,4192.179,4183.974,4186.667,4187.436,4209.103,4194.103,4186.282,4196.538,4257.308,0,0
261,88,0,3233,4243.718,4240.255999999999,4201.026,4206.538,4190.769,4201.538,4184.231,4191.282,4188.205,4210.897,4210.897,4187.692,4193.59,4245.769,0,0
262,89,0,1693,4225.513,4218.974,4189.359,4199.231,4184.872,4194.744000000001,4183.718,4186.154,4179.872,4196.923,4223.205,4178.846,4201.795,4233.205,0,0
263,90,0,3085,4211.154,4206.667,4180.769,4196.154,4176.41,4182.692,4180.513,4173.462,4174.744000000001,4177.179,4215.641,4173.205,4189.872,4217.436,0,0
264,91,0,3420,4208.205,4207.564,4185.0,4197.436,4177.436,4180.897,4176.795,4170.769,4182.0509999999995,4172.692,4203.846,4175.385,4176.795,4210.897,0,0
265,92,0,3233,4205.128,4205.128,4188.974,4197.821,4179.615,4184.231,4175.255999999999,4178.718,4184.872,4178.333,4196.538,4175.128,4176.41,4210.385,0,0
266,93,0,1693,4202.821,4197.179,4183.077,4192.564,4173.333,4185.0,4179.103,4182.9490000000005,4179.615,4178.077,4198.59,4173.077,4177.692,4203.205,0,0
267,94,0,3085,4203.846,4195.769,4182.308,4189.487,4173.462,4187.0509999999995,4180.769,4181.282,4180.385,4183.333,4193.846,4176.282,4184.615,4198.077,0,0
268,95,0,3420,4206.795,4200.513,4191.026,4196.41,4182.9490000000005,4188.974,4185.0,4182.9490000000005,4185.255999999999,4194.103,4182.564,4183.077,4194.487,4207.821,0,0
269,96,0,3233,4210.897,4200.513,4195.897,4196.154,4189.231,4188.333,4196.667,4185.513,4186.538,4191.923,4192.0509999999995,4185.897,4181.41,4219.615,0,0
270,97,0,1693,4207.436,4191.154,4190.897,4187.436,4185.128,4185.385,4203.077,4186.41,4187.179,4182.9490000000005,4207.692,4181.538,4182.821,4207.564,0,0
271,98,0,3085,4199.872,4185.641,4184.103,4187.564,4175.0,4186.41,4199.487,4189.487,4186.41,4186.667,4201.667,4180.255999999999,4209.359,4194.487,0,0
272,99,0,3420,4196.41,4189.231,4185.128,4190.385,4170.641,4198.462,4201.026,4190.255999999999,4183.974,4188.718,4194.103,4180.128,4205.513,4200.255999999999,0,0
273,100,0,3233,4189.744000000001,4188.205,4186.026,4187.692,4176.923,4202.179,4203.718,4186.923,4182.179,4183.462,4191.154,4173.59,4176.538,4195.128,0,0
274,101,0,1693,4184.872,4183.462,4183.718,4186.026,4179.615,4189.744000000001,4193.846,4187.179,4182.179,4184.615,4176.41,4170.255999999999,4169.487,4180.897,0,0
275,102,0,3085,4186.923,4183.846,4183.205,4187.821,4173.846,4182.0509999999995,4182.9490000000005,4188.462,4185.128,4189.872,4173.462,4171.667,4207.0509999999995,4183.718,0,0
276,103,0,3420,4183.846,4181.41,4182.308,4185.0,4169.744000000001,4183.974,4183.846,4183.718,4183.718,4187.179,4188.205,4168.333,4223.974,4176.282,0,0
277,104,0,3233,4179.615,4172.9490000000005,4180.385,4176.026,4168.974,4187.179,4186.154,4180.255999999999,4180.897,4176.667,4192.0509999999995,4162.692,4180.0,4145.513,0,0
278,105,0,1693,4182.308,4169.487,4180.0,4170.641,4168.077,4189.359,4183.718,4182.692,4183.974,4168.205,4182.692,4163.718,4160.513,4131.667,0,0
279,106,0,3085,4185.0,4176.154,4180.897,4176.795,4168.59,4189.231,4188.333,4185.769,4186.795,4176.41,4183.077,4167.9490000000005,4206.41,4141.538,0,0
280,107,0,3420,4186.795,4184.359,4182.179,4187.692,4169.359,4185.769,4200.385,4186.282,4183.846,4190.0,4190.769,4172.9490000000005,4217.564,4147.564,0,0
281,108,0,3233,4187.436,4186.923,4181.026,4190.385,4170.385,4186.026,4196.923,4183.077,4182.0509999999995,4185.513,4188.718,4174.359,4177.436,4145.641,0,0
282,109,0,1693,4187.179,4183.974,4182.436,4188.974,4175.128,4195.513,4190.769,4183.205,4183.59,4182.308,4184.359,4171.923,4176.923,4141.154,0,0
283,110,0,3085,4183.59,4175.641,4180.385,4182.0509999999995,4173.462,4200.255999999999,4189.744000000001,4186.026,4183.333,4182.821,4179.487,4168.077,4188.718,4136.026,0,0
284,111,0,3420,4173.718,4167.308,4173.077,4176.282,4166.026,4189.487,4177.9490000000005,4180.769,4181.538,4172.564,4179.487,4165.641,4182.308,4134.744000000001,0,0
285,112,0,3233,4165.255999999999,4168.59,4174.359,4180.769,4169.872,4180.769,4172.0509999999995,4175.255999999999,4181.026,4171.923,4184.615,4165.255999999999,4188.077,4136.154,0,0
286,113,0,1693,4170.255999999999,4177.692,4184.615,4184.615,4181.41,4188.205,4184.487,4180.385,4181.795,4177.0509999999995,4187.179,4166.026,4185.0,4138.077,0,0
287,114,0,3085,4183.59,4184.487,4188.077,4185.128,4186.538,4193.333,4189.103,4186.923,4183.59,4176.282,4191.282,4171.282,4172.0509999999995,4146.795,0,0
288,115,0,3420,4185.0,4187.308,4181.41,4189.103,4184.231,4187.821,4183.718,4184.615,4185.513,4180.255999999999,4182.308,4172.9490000000005,4176.923,4152.308,0,0
289,116,0,3233,4173.59,4181.154,4175.641,4185.769,4177.821,4183.205,4181.41,4180.128,4185.0,4183.205,4166.538,4169.103,4189.103,4138.974,0,0
290,117,0,1693,4166.795,4174.231,4173.59,4176.795,4170.255999999999,4181.41,4175.255999999999,4181.41,4183.333,4174.744000000001,4172.0509999999995,4167.821,4190.897,4130.897,0,0
291,118,0,3085,4173.077,4180.0,4178.205,4182.564,4175.128,4185.0,4180.769,4187.436,4185.128,4181.41,4190.128,4172.564,4196.795,4152.179,0,0
292,119,0,3420,4179.231,4187.436,4185.128,4189.872,4179.872,4189.103,4197.692,4189.103,4188.333,4201.538,4196.538,4172.308,4217.436,4167.821,0,0
293,120,0,3233,4176.667,4186.154,4183.718,4184.615,4174.744000000001,4187.0509999999995,4195.513,4184.231,4186.667,4200.385,4198.718,4169.487,4226.41,4160.0,0,0
294,121,0,1693,4172.308,4183.462,4176.538,4181.538,4176.282,4184.615,4185.0,4182.564,4180.897,4183.846,4190.255999999999,4169.744000000001,4192.564,4153.59,0,0
295,122,0,3085,4169.744000000001,4180.513,4171.795,4181.154,4175.513,4183.59,4183.077,4184.744000000001,4178.974,4174.744000000001,4170.255999999999,4169.231,4165.385,4148.59,0,0
296,123,0,3420,4172.821,4175.128,4173.59,4176.538,4168.718,4185.0,4184.615,4185.897,4186.282,4188.846,4175.641,4170.513,4204.487,4149.231,0,0
297,124,0,3233,4175.641,4171.923,4173.718,4170.513,4170.641,4187.436,4185.0,4184.359,4185.385,4202.436,4191.923,4172.9490000000005,4224.872,4160.513,0,0
298,125,0,1693,4166.282,4169.103,4169.103,4169.487,4171.41,4183.59,4183.333,4182.692,4172.692,4190.128,4186.923,4166.538,4177.821,4155.385,0,0
299,126,0,3085,4152.564,4166.41,4167.0509999999995,4168.333,4163.974,4182.0509999999995,4183.462,4181.154,4172.179,4176.795,4178.846,4160.0,4153.846,4134.872,0,0
300,127,0,52,4158.333,4170.769,4171.538,4166.538,4165.769,4190.769,4189.103,4183.077,4184.487,4182.436,4186.795,4165.769,4184.744000000001,4138.718,0,0
301,0,0,2244,4170.385,4169.872,4173.974,4168.59,4170.128,4193.462,4188.333,4185.769,4187.692,4191.795,4192.564,4173.333,4210.128,4155.769,0,0
302,1,0,2636,4155.385,4157.821,4166.667,4168.846,4158.718,4179.487,4169.872,4178.718,4182.564,4181.538,4174.103,4166.538,4198.718,4145.897,0,0
303,2,0,2897,4142.0509999999995,4155.0,4162.564,4169.744000000001,4152.821,4168.462,4163.077,4174.744000000001,4182.179,4172.436,4161.41,4160.255999999999,4176.795,4130.769,0,0
304,3,0,3034,4153.333,4163.974,4167.436,4172.0509999999995,4162.564,4174.872,4179.103,4181.154,4184.359,4183.333,4176.667,4163.205,4176.282,4137.0509999999995,0,0
305,4,0,3534,4159.487,4163.718,4168.59,4168.974,4166.282,4185.128,4184.359,4183.205,4185.513,4182.308,4188.462,4166.282,4200.641,4146.923,0,0
306,5,0,2050,4152.308,4155.641,4166.026,4166.795,4159.872,4186.026,4179.872,4181.41,4185.385,4169.231,4183.205,4165.513,4211.538,4150.0,0,0
307,6,0,2416,4151.923,4156.41,4167.9490000000005,4168.205,4160.255999999999,4182.821,4186.923,4183.077,4184.487,4178.462,4186.923,4165.385,4197.308,4154.744000000001,0,0
308,7,0,1489,4153.846,4159.615,4164.103,4159.487,4166.667,4182.821,4185.0,4177.179,4184.872,4186.154,4183.846,4164.615,4189.872,4154.615,0,0
309,8,0,1139,4150.769,4155.128,4155.769,4152.308,4168.59,4184.744000000001,4173.205,4172.308,4182.179,4175.769,4166.923,4162.564,4185.641,4149.231,0,0
310,9,0,3533,4152.692,4156.538,4161.154,4161.41,4167.821,4184.872,4179.103,4181.41,4180.897,4176.538,4173.205,4164.487,4180.641,4151.154,0,0
311,10,0,3083,4156.538,4166.667,4171.538,4162.9490000000005,4167.821,4183.077,4188.077,4184.744000000001,4187.308,4182.179,4190.385,4165.769,4192.564,4157.9490000000005,0,0
312,11,0,3424,4156.41,4166.795,4172.564,4154.359,4168.205,4181.667,4181.795,4175.128,4184.231,4172.0509999999995,4184.487,4166.538,4192.436,4156.923,0,0
313,12,0,3226,4151.795,4155.128,4166.795,4154.744000000001,4168.59,4183.846,4178.205,4169.487,4172.692,4165.641,4171.667,4166.923,4169.103,4148.718,0,0
314,13,0,1695,4143.205,4152.436,4164.359,4156.41,4164.744000000001,4184.103,4182.0509999999995,4175.769,4176.154,4169.615,4172.436,4163.974,4177.179,4140.385,0,0
315,14,0,3083,4140.513,4157.0509999999995,4167.0509999999995,4155.255999999999,4157.9490000000005,4184.231,4184.744000000001,4183.462,4187.564,4171.154,4175.769,4160.513,4223.333,4137.821,0,0
316,15,0,3424,4150.385,4156.538,4168.974,4156.026,4163.846,4188.59,4187.179,4184.744000000001,4185.641,4174.487,4170.0,4163.59,4225.385,4145.513,0,0
317,16,0,0,4151.41,4155.385,4168.205,4155.128,4171.538,4188.333,4183.718,4183.205,4180.641,4168.59,4164.487,4166.538,4174.103,4155.513,0,0
318,17,0,0,4140.897,4155.128,4167.436,4159.744000000001,4166.282,4182.179,4177.179,4182.308,4182.436,4164.103,4174.103,4164.103,4153.718,4155.128,0,0
319,18,0,0,4142.9490000000005,4152.821,4170.0,4167.308,4165.769,4181.795,4182.0509999999995,4181.795,4182.179,4177.564,4182.821,4162.436,4170.128,4143.205,0,0
320,19,0,0,4156.282,4160.641,4170.128,4168.718,4172.436,4187.308,4191.667,4182.9490000000005,4181.667,4184.615,4170.897,4162.436,4176.923,4145.0,0,0
321,20,0,0,4157.821,4164.487,4168.59,4171.154,4167.692,4188.077,4190.255999999999,4185.641,4183.462,4171.538,4160.897,4163.846,4170.255999999999,4152.179,0,0
322,21,0,0,4144.615,4147.436,4171.538,4167.308,4162.564,4184.615,4185.0,4184.615,4182.9490000000005,4162.0509999999995,4165.385,4161.538,4177.821,4137.692,0,0
323,22,0,0,4141.923,4136.795,4176.795,4159.615,4169.872,4183.59,4187.0509999999995,4183.974,4183.974,4173.718,4171.026,4161.923,4197.179,4135.769,0,0
324,23,0,0,4159.231,4139.744000000001,4176.795,4166.923,4176.795,4185.769,4190.769,4185.255999999999,4186.667,4190.0,4184.487,4168.846,4202.821,4170.513,0,0
325,24,0,0,4169.231,4120.255999999999,4173.333,4167.9490000000005,4170.641,4186.538,4185.641,4183.974,4184.359,4198.333,4208.462,4171.41,4193.333,4197.821,0,0
326,25,0,0,4161.538,4081.282,4171.026,4146.41,4158.59,4183.333,4182.821,4182.308,4181.41,4206.41,4228.718,4170.255999999999,4195.0,4197.0509999999995,0,0
327,26,0,0,4157.179,4050.256,4169.744000000001,4135.641,4153.846,4184.872,4194.744000000001,4184.615,4187.9490000000005,4229.103,4245.769,4174.615,4231.026,4199.487,0,0
328,27,0,0,4158.462,4034.2309999999998,4171.41,4135.641,4158.333,4190.128,4199.103,4186.538,4192.692,4249.615,4255.255999999999,4177.179,4240.513,4205.897,0,0
329,28,0,0,4153.333,4029.615,4172.821,4123.462,4156.923,4186.41,4188.333,4186.41,4187.692,4234.487,4249.103,4174.872,4198.974,4196.41,0,0
330,29,0,0,4150.769,4031.026,4171.667,4121.154,4150.897,4179.744000000001,4184.103,4187.0509999999995,4185.0,4212.564,4240.513,4174.103,4183.718,4183.846,0,0
331,30,0,0,4152.436,4033.462,4175.641,4135.255999999999,4158.462,4181.923,4187.692,4186.538,4186.282,4220.641,4243.333,4177.9490000000005,4200.769,4189.359,0,0
332,31,0,0,4154.744000000001,4040.6409999999996,4185.128,4141.282,4169.231,4187.0509999999995,4192.9490000000005,4187.0509999999995,4189.231,4244.103,4251.923,4183.462,4204.615,4202.179,0,0
333,32,0,0,4157.0509999999995,4048.718,4188.718,4140.0,4169.872,4187.436,4202.436,4190.641,4196.538,4248.59,4248.077,4184.615,4208.718,4202.0509999999995,0,0
334,33,0,0,4153.846,4048.462,4178.846,4141.026,4168.59,4185.128,4198.974,4190.255999999999,4196.282,4235.128,4234.231,4180.0,4214.103,4198.333,0,0
335,34,0,0,4149.615,4040.897,4173.205,4138.077,4166.923,4187.0509999999995,4185.513,4186.282,4186.282,4230.513,4237.9490000000005,4178.205,4202.821,4199.487,0,0
336,35,0,0,4149.872,4035.385,4178.59,4131.923,4158.59,4184.487,4184.359,4183.846,4182.692,4230.769,4255.128,4180.385,4201.41,4191.282,0,0
337,36,0,0,4151.026,4041.923,4179.615,4130.255999999999,4154.359,4173.462,4187.436,4190.769,4187.0509999999995,4225.641,4246.41,4180.0,4205.897,4184.103,0,0
338,37,0,0,4153.077,4051.282,4174.231,4131.923,4158.718,4174.231,4186.538,4199.615,4188.333,4224.359,4233.462,4182.0509999999995,4196.154,4194.744000000001,0,0
339,38,0,0,4154.615,4052.949,4172.179,4135.897,4154.231,4185.513,4185.641,4193.974,4188.462,4232.436,4249.615,4185.769,4201.41,4204.359,0,0
340,39,0,0,4155.385,4057.308,4172.9490000000005,4140.385,4149.231,4184.487,4182.564,4188.846,4193.077,4237.436,4259.359,4187.179,4211.795,4203.333,0,0
341,40,0,0,4156.154,4061.538,4170.385,4138.077,4158.333,4178.974,4190.255999999999,4200.513,4200.513,4235.255999999999,4247.0509999999995,4182.692,4200.641,4201.795,0,0
342,41,0,0,4153.974,4058.333,4168.205,4134.487,4165.385,4185.513,4201.154,4201.923,4200.513,4235.0,4243.205,4176.41,4201.154,4197.0509999999995,0,0
343,42,0,0,4153.718,4056.667,4167.308,4138.333,4159.872,4189.615,4192.692,4185.769,4191.538,4235.641,4247.564,4174.359,4217.9490000000005,4187.821,0,0
344,43,0,0,4153.077,4058.718,4166.923,4134.231,4155.255999999999,4184.103,4183.462,4181.923,4187.9490000000005,4228.333,4241.41,4173.974,4213.718,4180.897,0,0
345,44,0,0,4147.564,4056.538,4166.795,4122.821,4156.026,4180.128,4187.179,4187.0509999999995,4188.462,4215.641,4226.538,4170.897,4196.667,4177.564,0,0
346,45,0,0,4147.9490000000005,4054.3590000000004,4169.744000000001,4127.179,4156.795,4181.538,4189.744000000001,4186.41,4186.538,4212.436,4217.308,4173.333,4192.436,4177.821,0,0
347,46,0,0,4155.641,4061.41,4176.026,4138.974,4157.564,4187.436,4190.128,4186.538,4186.923,4219.231,4225.641,4179.231,4203.205,4190.769,0,0
348,47,0,0,4157.564,4070.897,4174.487,4140.769,4156.667,4189.359,4187.308,4186.538,4189.231,4224.487,4240.897,4179.744000000001,4209.872,4200.513,0,0
349,48,0,0,4155.513,4072.051,4170.897,4139.744000000001,4153.462,4185.641,4187.0509999999995,4185.0,4190.769,4222.564,4238.077,4178.462,4207.308,4190.769,0,0
350,49,0,0,4156.795,4069.3590000000004,4173.974,4139.487,4153.462,4183.205,4192.436,4185.897,4189.615,4212.564,4230.641,4180.128,4193.462,4181.923,0,0
351,50,0,0,4153.333,4069.744,4173.974,4136.538,4152.308,4185.128,4190.641,4185.641,4185.128,4210.641,4231.154,4180.0,4181.026,4185.385,0,0
352,51,0,0,4150.255999999999,4072.5640000000003,4171.538,4136.795,4152.9490000000005,4186.667,4190.641,4182.564,4186.026,4226.667,4235.255999999999,4179.744000000001,4196.282,4189.231,0,0
353,52,0,0,4160.0,4080.7690000000002,4175.0,4138.846,4161.282,4185.513,4195.641,4183.59,4192.308,4235.128,4241.41,4182.692,4210.0,4190.769,0,0
354,53,0,0,4168.846,4087.4359999999997,4177.692,4142.821,4169.615,4184.231,4191.538,4187.821,4194.872,4228.205,4243.718,4183.077,4201.282,4193.718,0,0
355,54,0,0,4170.897,4088.59,4173.974,4151.667,4169.744000000001,4185.769,4192.0509999999995,4188.846,4198.205,4224.744000000001,4237.179,4182.436,4197.436,4199.872,0,0
356,55,0,0,4172.821,4094.744,4172.308,4155.641,4168.462,4188.077,4202.692,4187.692,4201.538,4228.974,4232.9490000000005,4180.128,4205.385,4208.718,0,0
357,56,0,0,4174.872,4101.154,4176.538,4155.385,4172.692,4188.59,4201.538,4189.103,4198.462,4235.513,4232.9490000000005,4180.0,4200.513,4209.359,0,0
358,57,0,0,4171.282,4100.769,4178.462,4155.255999999999,4173.077,4188.333,4196.667,4189.487,4198.333,4233.077,4229.231,4186.154,4191.923,4199.359,0,0
359,58,0,0,4169.103,4098.846,4180.0,4152.436,4169.231,4189.872,4203.205,4185.769,4197.0509999999995,4224.872,4233.974,4189.231,4205.128,4197.179,0,0
360,59,0,0,4172.436,4098.846,4180.128,4149.487,4169.872,4190.385,4197.821,4182.564,4186.795,4219.103,4238.205,4183.205,4212.436,4202.0509999999995,0,0
361,60,0,0,4171.154,4101.538,4178.846,4147.179,4166.538,4181.795,4184.615,4184.615,4186.538,4208.205,4224.615,4180.641,4189.103,4198.462,0,0
362,61,0,0,4171.538,4107.0509999999995,4180.385,4147.564,4162.179,4176.667,4190.513,4188.718,4201.923,4209.231,4222.179,4183.59,4193.974,4196.795,0,0
363,62,0,0,4177.692,4109.103,4182.308,4152.436,4168.077,4185.513,4201.282,4187.821,4204.359,4230.0,4228.333,4183.333,4241.538,4203.333,0,0
364,63,0,0,4178.846,4104.231,4177.821,4157.692,4174.359,4189.359,4193.974,4184.231,4188.333,4232.821,4218.205,4182.692,4216.538,4202.179,0,0
365,64,0,2242,4180.769,4111.026,4175.769,4160.769,4170.255999999999,4182.821,4182.821,4183.974,4183.462,4210.513,4222.308,4185.385,4151.538,4199.359,0,0
366,65,0,2640,4186.538,4113.718,4184.231,4159.103,4173.59,4181.538,4187.179,4188.205,4196.41,4216.282,4254.744000000001,4190.385,4180.128,4207.821,0,0
367,66,0,2898,4177.9490000000005,4092.949,4184.872,4148.59,4178.59,4185.128,4192.692,4189.872,4198.205,4246.795,4258.077,4192.0509999999995,4219.487,4210.255999999999,0,0
368,67,0,3040,4164.359,4092.949,4173.333,4142.436,4172.308,4184.744000000001,4188.59,4187.692,4193.205,4249.103,4231.667,4182.436,4184.615,4199.487,0,0
369,68,0,3537,4174.231,4137.308,4169.615,4157.308,4172.436,4185.385,4185.897,4187.0509999999995,4196.795,4229.103,4225.513,4174.615,4177.564,4197.308,0,0
370,69,0,2050,4190.769,4187.0509999999995,4180.255999999999,4178.59,4187.692,4186.538,4183.59,4187.692,4194.359,4213.974,4223.974,4179.487,4205.255999999999,4202.308,0,0
371,70,0,2416,4191.538,4223.974,4183.462,4186.795,4197.9490000000005,4187.436,4176.795,4185.255999999999,4185.255999999999,4203.462,4201.538,4179.103,4197.308,4196.667,0,0
372,71,0,1488,4181.538,4257.308,4173.974,4185.897,4191.026,4181.667,4170.385,4178.462,4183.846,4181.538,4162.179,4168.333,4181.667,4171.026,0,0
373,72,0,1141,4173.846,4272.308,4170.385,4186.923,4184.872,4171.538,4169.744000000001,4175.0,4185.513,4150.641,4128.846,4160.385,4167.308,4145.255999999999,0,0
374,73,0,3528,4171.154,4262.308,4170.769,4189.359,4187.179,4176.154,4171.026,4174.231,4182.436,4134.744000000001,4120.769,4154.872,4155.0,4138.462,0,0
375,74,0,3099,4166.154,4251.923,4166.923,4182.179,4186.026,4184.872,4168.205,4170.0,4179.359,4136.282,4126.154,4152.564,4163.333,4137.436,0,0
376,75,0,3422,4166.795,4255.897,4171.026,4181.154,4188.077,4184.744000000001,4168.846,4168.974,4177.692,4142.308,4132.692,4161.026,4155.513,4141.538,0,0
377,76,0,3229,4181.538,4265.513,4179.231,4193.462,4200.128,4184.744000000001,4170.0,4171.282,4173.974,4141.667,4137.692,4164.615,4117.821,4153.718,0,0
378,77,0,1697,4185.385,4258.205,4171.795,4193.077,4200.128,4179.872,4165.641,4169.744000000001,4171.026,4130.769,4138.718,4159.872,4115.0,4153.462,0,0
379,78,0,3099,4171.282,4246.538,4163.205,4181.795,4186.41,4173.077,4163.077,4166.154,4174.487,4125.769,4134.872,4160.128,4156.41,4146.026,0,0
380,79,0,3422,4173.077,4254.872,4169.872,4183.333,4187.436,4182.692,4168.59,4173.205,4182.564,4142.692,4131.538,4163.974,4170.769,4153.718,0,0
381,80,0,3229,4185.255999999999,4264.487,4177.821,4189.103,4192.821,4184.615,4170.513,4180.128,4184.231,4162.564,4129.744000000001,4164.487,4160.0,4158.974,0,0
382,81,0,1697,4184.615,4262.308,4180.128,4187.179,4188.205,4168.846,4166.282,4175.128,4183.333,4161.41,4134.487,4165.385,4163.974,4156.154,0,0
383,82,0,3099,4182.436,4258.205,4180.769,4185.255999999999,4187.308,4175.897,4170.385,4171.795,4182.179,4146.538,4142.436,4166.026,4157.9490000000005,4159.744000000001,0,0
384,83,0,3422,4182.821,4251.795,4175.769,4183.205,4188.974,4186.538,4173.462,4173.462,4175.128,4139.231,4131.923,4161.923,4135.641,4158.205,0,0
385,84,0,3229,4181.667,4246.026,4167.9490000000005,4182.436,4184.872,4172.821,4168.333,4169.487,4171.667,4139.487,4117.308,4160.769,4142.564,4152.692,0,0
386,85,0,1697,4182.0509999999995,4251.923,4168.846,4190.255999999999,4187.0509999999995,4172.0509999999995,4170.385,4166.154,4172.9490000000005,4136.154,4126.026,4161.923,4164.615,4153.59,0,0
387,86,0,3099,4185.641,4262.0509999999995,4179.359,4199.103,4198.333,4187.692,4182.179,4177.179,4172.692,4137.9490000000005,4142.436,4165.897,4154.487,4159.872,0,0
388,87,0,3422,4191.923,4263.205,4186.667,4203.205,4203.718,4187.436,4187.564,4188.077,4177.0509999999995,4151.282,4139.872,4170.128,4148.59,4167.179,0,0
389,88,0,3229,4197.821,4261.41,4185.897,4203.333,4196.795,4181.667,4179.103,4180.769,4183.462,4151.795,4133.205,4170.769,4162.9490000000005,4167.564,0,0
390,89,0,1697,4200.897,4263.846,4187.308,4204.103,4196.282,4184.872,4173.077,4173.974,4184.103,4145.255999999999,4146.795,4171.923,4158.205,4172.692,0,0
391,90,0,3099,4201.923,4264.744000000001,4191.154,4205.0,4197.308,4184.615,4171.538,4174.359,4182.179,4155.255999999999,4152.179,4171.667,4149.744000000001,4180.513,0,0
392,91,0,3422,4196.026,4263.462,4187.821,4203.846,4190.0,4183.462,4171.538,4173.846,4186.154,4165.641,4143.59,4165.385,4177.692,4174.231,0,0
393,92,0,3229,4186.41,4261.667,4182.0509999999995,4201.538,4190.385,4184.872,4173.718,4172.0509999999995,4184.744000000001,4157.9490000000005,4146.41,4162.308,4201.282,4165.255999999999,0,0
394,93,0,1697,4186.026,4253.974,4183.59,4199.359,4194.103,4182.9490000000005,4171.923,4166.154,4174.872,4150.255999999999,4146.154,4165.385,4166.41,4167.436,0,0
395,94,0,3099,4186.795,4246.41,4185.385,4198.974,4186.795,4181.026,4165.769,4160.255999999999,4169.231,4150.128,4138.333,4164.615,4122.821,4170.641,0,0
396,95,0,3422,4182.179,4246.538,4182.564,4198.974,4183.718,4180.385,4164.231,4164.872,4172.0509999999995,4148.462,4142.9490000000005,4165.641,4139.872,4165.769,0,0
397,96,0,3229,4190.641,4249.744000000001,4183.077,4198.333,4195.513,4183.077,4170.0,4173.077,4179.872,4158.077,4136.667,4171.923,4181.154,4165.641,0,0
398,97,0,1697,4201.667,4252.308,4187.692,4200.255999999999,4205.0,4187.0509999999995,4171.538,4170.769,4181.538,4169.103,4125.769,4174.744000000001,4178.974,4177.436,0,0
399,98,0,3099,4193.077,4251.154,4181.026,4198.333,4202.436,4184.359,4170.0,4167.0509999999995,4170.897,4159.872,4144.487,4170.385,4142.9490000000005,4183.59,0,0
400,99,0,3422,4183.718,4245.255999999999,4172.9490000000005,4187.436,4189.231,4179.103,4169.487,4168.718,4167.692,4150.385,4160.769,4168.333,4127.564,4173.974,0,0
401,100,0,3229,4186.923,4238.974,4178.974,4184.103,4179.231,4180.897,4167.0509999999995,4168.718,4177.692,4159.744000000001,4153.59,4169.744000000001,4151.154,4168.846,0,0
402,101,0,1697,4184.744000000001,4233.59,4185.255999999999,4188.974,4182.436,4183.333,4166.41,4170.0,4178.846,4165.897,4147.0509999999995,4171.41,4179.231,4173.59,0,0
403,102,0,3099,4177.436,4231.026,4182.692,4185.255999999999,4186.026,4180.641,4168.333,4168.846,4170.385,4151.282,4137.9490000000005,4169.872,4169.103,4168.205,0,0
404,103,0,3422,4181.154,4234.744000000001,4181.538,4182.308,4185.513,4180.255999999999,4168.846,4166.41,4170.128,4142.9490000000005,4130.128,4167.436,4143.077,4164.744000000001,0,0
405,104,0,3229,4187.692,4237.564,4184.487,4188.59,4186.154,4183.846,4165.255999999999,4165.385,4173.333,4150.513,4147.436,4168.846,4153.333,4172.0509999999995,0,0
406,105,0,1697,4182.564,4231.795,4184.744000000001,4188.718,4187.0509999999995,4186.154,4164.487,4161.026,4173.077,4150.897,4155.513,4172.436,4177.0509999999995,4165.513,0,0
407,106,0,3099,4180.769,4229.744000000001,4184.872,4184.103,4185.897,4184.487,4167.179,4156.923,4169.103,4144.615,4137.179,4172.821,4165.641,4158.718,0,0
408,107,0,3422,4190.513,4234.487,4184.615,4187.308,4184.487,4180.769,4166.41,4161.667,4166.923,4151.026,4136.795,4169.103,4148.846,4174.615,0,0
409,108,0,3229,4195.128,4234.487,4180.897,4189.615,4184.231,4181.923,4168.59,4169.872,4172.436,4169.359,4159.231,4167.436,4165.769,4190.513,0,0
410,109,0,1697,4186.282,4228.077,4179.231,4184.359,4185.513,4186.667,4175.255999999999,4170.641,4174.872,4165.255999999999,4159.872,4167.821,4179.487,4182.692,0,0
411,110,0,3099,4180.385,4223.59,4182.308,4183.462,4186.026,4187.308,4180.255999999999,4167.821,4170.0,4155.641,4139.103,4167.821,4163.846,4169.359,0,0
412,111,0,3422,4183.462,4220.255999999999,4185.128,4188.333,4185.513,4184.615,4181.282,4172.436,4176.154,4167.308,4142.9490000000005,4170.128,4159.744000000001,4166.538,0,0
413,112,0,3229,4185.897,4216.923,4183.846,4187.436,4188.077,4188.718,4183.718,4179.231,4187.436,4168.205,4161.923,4168.846,4176.923,4170.128,0,0
414,113,0,1697,4185.385,4215.255999999999,4185.255999999999,4181.282,4188.974,4192.821,4183.59,4177.436,4183.333,4155.385,4164.103,4166.538,4171.667,4176.923,0,0
415,114,0,3099,4176.795,4208.462,4180.128,4175.0,4178.974,4181.154,4169.872,4168.333,4170.513,4151.154,4157.308,4163.718,4143.077,4170.385,0,0
416,115,0,3422,4166.154,4200.513,4172.9490000000005,4166.667,4171.923,4172.436,4157.821,4165.513,4167.821,4158.205,4145.897,4161.538,4140.513,4156.282,0,0
417,116,0,3229,4168.462,4202.308,4175.897,4164.744000000001,4178.077,4181.923,4162.564,4170.0,4177.564,4166.154,4133.846,4161.667,4160.255999999999,4156.282,0,0
418,117,0,1697,4174.872,4208.205,4177.0509999999995,4176.795,4182.308,4188.846,4170.128,4171.795,4184.744000000001,4168.846,4142.0509999999995,4161.41,4176.538,4161.667,0,0
419,118,0,3099,4173.077,4208.974,4177.0509999999995,4185.255999999999,4177.821,4185.128,4173.333,4176.41,4180.641,4166.795,4159.872,4162.308,4186.923,4159.615,0,0
420,119,0,3422,4170.641,4206.154,4181.282,4179.359,4179.487,4187.9490000000005,4185.769,4185.385,4176.41,4163.846,4157.564,4164.103,4178.077,4156.538,0,0
421,120,0,3229,4169.615,4204.103,4176.41,4173.205,4182.308,4191.667,4192.308,4183.718,4181.923,4159.231,4150.128,4161.026,4167.821,4155.513,0,0
422,121,0,1697,4164.103,4200.513,4166.41,4169.744000000001,4175.897,4183.333,4173.718,4176.667,4184.359,4150.255999999999,4153.077,4155.641,4180.641,4151.538,0,0
423,122,0,3099,4166.667,4198.846,4173.846,4165.255999999999,4169.359,4180.769,4161.667,4174.231,4176.154,4152.564,4155.385,4158.077,4178.333,4152.9490000000005,0,0
424,123,0,3422,4168.077,4198.205,4180.385,4164.615,4171.923,4188.077,4177.692,4171.923,4167.9490000000005,4155.0,4151.923,4158.205,4137.692,4157.9490000000005,0,0
425,124,0,3229,4160.769,4197.436,4174.615,4166.41,4178.974,4188.718,4186.538,4174.615,4168.205,4146.923,4148.333,4156.923,4115.897,4155.897,0,0
426,125,0,1697,4162.436,4196.538,4176.667,4166.41,4176.667,4182.9490000000005,4171.282,4180.769,4176.795,4150.513,4153.077,4161.795,4157.692,4153.077,0,0
427,126,0,3099,4175.897,4202.308,4187.0509999999995,4174.744000000001,4175.385,4184.872,4171.026,4176.538,4184.359,4163.846,4167.692,4169.359,4201.026,4163.462,0,0
428,127,0,52,4185.255999999999,4213.59,4192.821,4184.103,4185.255999999999,4187.0509999999995,4184.744000000001,4169.487,4183.718,4171.154,4174.615,4174.615,4175.513,4181.026,0,0
429,0,0,2235,4185.0,4215.0,4188.077,4178.077,4186.154,4182.692,4174.359,4171.795,4181.41,4171.667,4169.487,4176.154,4130.0,4186.41,0,0
430,1,0,2625,4185.513,4213.462,4190.0,4174.103,4179.359,4185.0,4167.436,4175.255999999999,4181.538,4169.872,4167.564,4175.641,4142.564,4190.385,0,0
431,2,0,2893,4194.872,4220.769,4199.615,4184.231,4189.103,4187.821,4178.718,4173.59,4182.436,4174.744000000001,4176.795,4177.0509999999995,4179.359,4200.513,0,0
432,3,0,3025,4204.487,4226.41,4201.538,4191.026,4202.308,4182.564,4170.897,4171.282,4183.462,4183.718,4187.436,4180.897,4185.897,4204.872,0,0
433,4,0,3531,4202.692,4227.821,4198.333,4188.462,4199.103,4181.923,4164.487,4171.538,4184.615,4186.282,4188.205,4180.0,4183.462,4206.795,0,0
434,5,0,2047,4199.103,4228.846,4199.615,4187.9490000000005,4198.077,4188.333,4182.564,4175.513,4184.872,4186.154,4184.231,4178.077,4187.436,4208.333,0,0
435,6,0,2410,4202.564,4224.872,4198.974,4189.872,4201.667,4188.462,4190.255999999999,4175.385,4183.974,4188.846,4185.385,4178.205,4190.0,4197.436,0,0
436,7,0,1485,4197.9490000000005,4218.974,4197.436,4186.923,4196.667,4186.154,4180.769,4171.41,4182.179,4182.821,4178.846,4177.564,4186.026,4185.0,0,0
437,8,0,1137,4186.538,4219.487,4196.795,4184.487,4194.231,4186.282,4175.255999999999,4170.128,4181.282,4171.538,4165.641,4173.077,4161.026,4188.59,0,0
438,9,0,3528,4186.538,4220.641,4191.538,4187.436,4196.538,4183.333,4168.718,4169.359,4182.308,4169.615,4171.282,4172.179,4142.564,4192.9490000000005,0,0
439,10,0,3096,4197.0509999999995,4218.462,4188.974,4190.0,4193.462,4183.462,4167.9490000000005,4170.0,4183.077,4171.154,4181.923,4175.513,4159.359,4193.205,0,0
440,11,0,3425,4198.077,4218.462,4190.0,4187.9490000000005,4194.103,4189.103,4175.897,4170.255999999999,4182.0509999999995,4170.897,4176.667,4171.667,4166.538,4194.103,0,0
441,12,0,3233,4188.846,4217.564,4188.462,4185.641,4201.41,4190.255999999999,4174.615,4169.359,4181.538,4171.923,4170.255999999999,4167.821,4156.026,4190.897,0,0
442,13,0,1693,4186.026,4217.0509999999995,4186.795,4185.641,4199.487,4184.872,4168.846,4170.255999999999,4181.41,4171.667,4173.205,4171.154,4164.487,4185.897,0,0
443,14,0,3096,4183.333,4216.282,4186.282,4186.538,4188.846,4181.41,4170.769,4169.744000000001,4179.744000000001,4167.308,4170.255999999999,4169.744000000001,4167.9490000000005,4182.179,0,0
444,15,0,3425,4178.462,4217.0509999999995,4182.9490000000005,4188.718,4186.795,4182.308,4175.641,4167.564,4181.41,4171.795,4164.487,4161.026,4165.513,4181.282,0,0
445,16,0,0,4180.769,4218.077,4183.462,4187.308,4189.231,4183.462,4178.205,4171.538,4188.59,4190.769,4175.897,4165.0,4200.128,4191.026,0,0
446,17,0,0,4186.667,4216.282,4186.667,4182.821,4186.795,4185.0,4174.487,4174.231,4184.103,4191.41,4188.205,4172.692,4202.821,4199.359,0,0
447,18,0,0,4188.333,4216.538,4186.282,4183.462,4183.205,4185.641,4176.667,4170.385,4174.359,4171.282,4182.308,4170.385,4151.667,4191.41,0,0
448,19,0,0,4182.692,4217.564,4187.436,4186.282,4181.538,4183.077,4183.974,4173.462,4181.923,4169.103,4176.795,4168.718,4176.923,4181.538,0,0
449,20,0,0,4172.179,4216.923,4185.255999999999,4184.615,4183.462,4182.436,4177.692,4177.821,4187.436,4175.769,4171.795,4171.41,4215.769,4175.128,0,0
450,21,0,0,4168.846,4216.154,4176.026,4180.769,4191.282,4186.154,4170.128,4171.026,4173.59,4165.513,4157.179,4166.41,4151.795,4170.641,0,0
451,22,0,0,4175.641,4217.9490000000005,4175.0,4181.41,4195.769,4186.282,4177.436,4165.769,4165.255999999999,4163.462,4161.154,4162.564,4110.897,4177.564,0,0
452,23,0,0,4180.0,4222.564,4185.255999999999,4185.513,4189.872,4184.487,4178.462,4170.128,4177.308,4178.846,4184.359,4169.744000000001,4172.564,4188.462,0,0
453,24,0,0,4181.026,4223.846,4189.231,4186.923,4185.641,4185.255999999999,4170.385,4172.0509999999995,4185.897,4179.872,4176.154,4172.308,4204.359,4187.564,0,0
454,25,0,0,4183.59,4220.641,4184.744000000001,4185.513,4187.564,4183.077,4167.9490000000005,4169.103,4177.821,4168.077,4156.41,4165.255999999999,4163.718,4184.487,0,0
455,26,0,0,4177.179,4216.154,4183.205,4182.564,4179.103,4180.0,4168.462,4168.333,4168.718,4157.692,4159.103,4163.077,4142.564,4183.333,0,0
456,27,0,0,4170.897,4215.897,4183.974,4180.128,4171.154,4180.641,4167.0509999999995,4170.0,4173.974,4153.974,4160.769,4163.846,4157.9490000000005,4178.077,0,0
457,28,0,0,4176.026,4217.308,4183.333,4180.513,4178.59,4177.308,4167.308,4173.205,4185.128,4165.769,4161.154,4164.231,4178.974,4172.9490000000005,0,0
458,29,0,0,4180.128,4217.436,4182.692,4183.205,4184.359,4170.641,4165.513,4171.923,4180.513,4171.154,4166.795,4164.872,4172.9490000000005,4170.897,0,0
459,30,0,0,4175.897,4217.564,4181.923,4186.667,4181.538,4174.359,4163.333,4168.59,4169.103,4156.41,4165.769,4164.103,4150.0,4176.538,0,0
460,31,0,0,4173.077,4216.795,4184.103,4182.821,4182.821,4182.564,4167.436,4175.255999999999,4172.692,4145.385,4166.154,4163.205,4154.359,4184.744000000001,0,0
461,32,0,0,4173.59,4215.385,4185.769,4173.333,4189.744000000001,4185.0,4181.154,4185.255999999999,4183.462,4163.333,4167.692,4165.128,4171.923,4184.872,0,0
462,33,0,0,4173.333,4212.308,4182.9490000000005,4173.718,4188.462,4183.974,4188.333,4185.897,4185.385,4184.359,4161.667,4166.026,4172.9490000000005,4180.128,0,0
463,34,0,0,4179.231,4212.821,4186.795,4185.0,4182.692,4183.205,4181.923,4184.359,4183.718,4185.0,4166.026,4169.231,4171.538,4182.436,0,0
464,35,0,0,4186.154,4215.385,4193.333,4185.513,4185.128,4184.231,4181.41,4184.744000000001,4185.0,4184.872,4178.077,4174.359,4185.769,4186.923,0,0
465,36,0,0,4186.282,4217.179,4191.41,4178.077,4194.615,4187.0509999999995,4188.846,4184.615,4184.359,4186.282,4179.615,4176.667,4185.769,4191.41,0,0
466,37,0,0,4188.462,4219.744000000001,4190.769,4182.0509999999995,4198.718,4187.821,4187.692,4185.641,4183.59,4181.154,4178.462,4178.974,4165.255999999999,4200.385,0,0
467,38,0,0,4190.513,4220.385,4195.0,4189.103,4196.41,4184.744000000001,4183.333,4182.308,4185.255999999999,4173.59,4176.282,4177.821,4155.0,4206.026,0,0
468,39,0,0,4187.436,4218.718,4194.615,4186.667,4194.872,4185.255999999999,4185.769,4177.9490000000005,4185.897,4171.026,4175.385,4174.744000000001,4164.744000000001,4204.231,0,0
469,40,0,0,4184.872,4217.0509999999995,4190.385,4183.974,4189.231,4187.436,4185.897,4181.026,4184.872,4174.615,4179.615,4175.513,4180.641,4197.564,0,0
470,41,0,0,4187.821,4218.718,4195.385,4188.59,4183.462,4185.128,4180.0,4184.615,4184.872,4185.385,4186.026,4180.769,4186.795,4196.41,0,0
471,42,0,0,4188.205,4219.744000000001,4195.769,4188.718,4188.462,4182.0509999999995,4176.667,4179.744000000001,4185.513,4190.769,4186.667,4180.897,4187.436,4204.359,0,0
472,43,0,0,4183.974,4216.026,4190.255999999999,4182.179,4192.692,4181.667,4179.872,4173.718,4184.872,4178.718,4180.641,4176.154,4175.769,4203.077,0,0
473,44,0,0,4183.077,4212.436,4191.795,4181.667,4191.41,4184.615,4183.205,4173.077,4183.974,4168.974,4178.718,4174.487,4171.41,4190.0,0,0
474,45,0,0,4183.077,4212.9490000000005,4191.41,4183.974,4195.641,4185.255999999999,4180.897,4170.385,4183.077,4167.436,4176.538,4176.41,4187.0509999999995,4185.255999999999,0,0
475,46,0,0,4182.0509999999995,4216.41,4192.692,4184.359,4200.641,4184.103,4182.179,4170.641,4183.077,4174.487,4178.59,4177.179,4190.897,4192.821,0,0
476,47,0,0,4189.231,4218.333,4199.359,4186.41,4200.385,4185.897,4184.744000000001,4180.255999999999,4185.255999999999,4188.333,4189.231,4176.41,4191.923,4201.923,0,0
477,48,0,0,4196.154,4220.128,4201.923,4192.0509999999995,4199.615,4187.436,4176.667,4181.282,4186.282,4190.513,4187.308,4181.795,4191.795,4206.538,0,0
478,49,0,0,4196.667,4225.385,4199.615,4197.9490000000005,4199.231,4185.385,4167.821,4174.487,4183.333,4185.897,4176.923,4187.0509999999995,4174.487,4204.231,0,0
479,50,0,0,4196.026,4227.0509999999995,4203.205,4201.282,4200.897,4185.513,4174.744000000001,4178.333,4185.0,4181.026,4185.0,4184.359,4165.385,4202.692,0,0
480,51,0,0,4192.179,4219.487,4200.513,4201.795,4202.179,4187.179,4174.872,4178.846,4185.385,4171.795,4188.718,4177.0509999999995,4177.821,4197.179,0,0
481,52,0,0,4183.846,4212.9490000000005,4187.692,4198.077,4195.128,4183.846,4155.0,4165.769,4174.744000000001,4162.9490000000005,4174.487,4172.821,4170.385,4187.692,0,0
482,53,0,0,4180.897,4216.154,4185.0,4190.897,4188.718,4181.282,4155.769,4163.974,4172.821,4167.436,4174.103,4172.0509999999995,4160.0,4190.513,0,0
483,54,0,0,4182.564,4218.077,4188.462,4185.128,4189.744000000001,4183.077,4170.255999999999,4170.641,4184.359,4172.821,4179.487,4171.795,4184.359,4192.564,0,0
484,55,0,0,4182.564,4212.9490000000005,4188.333,4185.513,4188.077,4182.436,4163.462,4170.513,4187.564,4171.667,4173.205,4173.205,4191.923,4185.128,0,0
485,56,0,0,4181.026,4213.333,4185.897,4185.897,4187.0509999999995,4181.538,4156.795,4175.641,4182.692,4174.359,4170.641,4175.641,4172.9490000000005,4187.308,0,0
486,57,0,0,4173.462,4218.846,4183.846,4182.9490000000005,4190.769,4185.385,4168.205,4178.205,4184.103,4176.795,4172.0509999999995,4171.026,4180.641,4192.436,0,0
487,58,0,0,4171.154,4215.513,4184.487,4182.9490000000005,4190.255999999999,4187.9490000000005,4173.59,4171.795,4185.641,4173.718,4165.128,4164.487,4196.282,4183.077,0,0
488,59,0,0,4180.641,4208.333,4181.923,4185.128,4184.487,4185.0,4161.795,4170.513,4182.692,4167.9490000000005,4158.59,4165.897,4185.769,4178.974,0,0
489,60,0,0,4185.128,4211.282,4178.205,4183.462,4183.462,4183.59,4155.897,4172.564,4182.821,4166.154,4166.538,4172.692,4186.41,4193.462,0,0
490,61,0,0,4184.231,4217.821,4180.513,4179.487,4182.0509999999995,4179.487,4157.308,4170.897,4182.0509999999995,4167.821,4172.179,4175.0,4192.821,4201.41,0,0
491,62,0,0,4190.0,4216.026,4187.692,4181.923,4181.41,4175.897,4160.0,4173.077,4182.0509999999995,4175.128,4168.205,4174.359,4168.077,4200.128,0,0
492,63,0,0,4200.385,4216.795,4196.026,4190.0,4192.436,4184.103,4167.436,4185.385,4186.41,4194.615,4177.436,4182.0509999999995,4166.282,4207.821,0,0
493,64,0,2240,4203.846,4223.077,4202.436,4192.9490000000005,4203.077,4191.538,4172.821,4191.41,4188.205,4204.872,4195.385,4189.615,4206.154,4218.846,0,0
494,65,0,2630,4197.564,4223.974,4201.538,4190.255999999999,4202.0509999999995,4185.769,4170.897,4182.179,4183.974,4192.308,4196.795,4185.513,4213.205,4215.641,0,0
495,66,0,2899,4188.333,4213.718,4193.462,4187.179,4196.282,4181.41,4167.0509999999995,4174.744000000001,4182.0509999999995,4181.538,4193.974,4175.513,4182.9490000000005,4205.641,0,0
496,67,0,3034,4183.846,4204.231,4188.718,4184.487,4190.641,4184.231,4168.462,4177.436,4184.103,4180.769,4186.282,4172.564,4176.026,4201.795,0,0
497,68,0,3533,4185.513,4207.436,4188.462,4182.308,4192.308,4187.692,4168.846,4176.41,4183.59,4174.487,4175.385,4174.744000000001,4193.974,4199.744000000001,0,0
498,69,0,2049,4185.641,4209.487,4188.462,4180.128,4198.333,4189.487,4168.974,4169.487,4182.821,4169.872,4175.255999999999,4174.615,4196.41,4196.282,0,0
499,70,0,2413,4182.179,4208.974,4187.9490000000005,4180.255999999999,4193.846,4185.769,4167.9490000000005,4171.923,4183.718,4168.974,4173.974,4173.077,4169.359,4190.255999999999,0,0
500,71,0,1485,4183.59,4211.026,4186.41,4183.718,4183.59,4180.128,4162.821,4180.897,4183.846,4165.513,4173.462,4174.872,4159.487,4187.0509999999995,0,0
501,72,0,1137,4186.154,4208.462,4187.436,4183.205,4186.538,4182.308,4167.436,4185.641,4186.41,4176.667,4185.385,4177.0509999999995,4195.385,4193.718,0,0
502,73,0,3523,4183.718,4202.436,4188.59,4181.41,4190.641,4185.385,4171.795,4183.077,4187.436,4188.462,4192.821,4175.513,4218.205,4202.308,0,0
503,74,0,3088,4181.923,4201.282,4187.436,4184.103,4183.974,4182.692,4158.205,4173.718,4181.538,4168.846,4178.846,4173.205,4193.59,4202.0509999999995,0,0
504,75,0,3423,4179.103,4202.0509999999995,4184.487,4180.128,4177.9490000000005,4182.179,4148.718,4172.821,4179.487,4148.846,4161.667,4172.9490000000005,4165.255999999999,4193.59,0,0
505,76,0,3231,4173.59,4198.974,4185.641,4171.667,4178.462,4183.718,4162.0509999999995,4180.769,4185.0,4160.385,4162.308,4170.513,4165.128,4185.897,0,0
506,77,0,1692,4170.769,4199.231,4186.923,4170.769,4182.821,4182.0509999999995,4168.974,4177.436,4181.795,4174.231,4172.0509999999995,4169.103,4181.154,4183.718,0,0
507,78,0,3088,4172.308,4199.744000000001,4183.333,4172.179,4184.487,4182.308,4158.974,4170.0,4174.487,4169.103,4170.513,4172.9490000000005,4179.615,4183.846,0,0
508,79,0,3423,4178.974,4201.282,4183.077,4174.487,4184.231,4183.718,4159.744000000001,4176.538,4179.744000000001,4166.538,4166.154,4172.436,4171.538,4184.872,0,0
509,80,0,3231,4182.179,4200.769,4185.128,4178.846,4186.667,4184.103,4171.026,4187.821,4186.923,4169.744000000001,4172.436,4170.897,4182.821,4186.923,0,0
510,81,0,1692,4176.667,4197.821,4183.59,4179.487,4187.821,4188.333,4175.385,4189.359,4185.255999999999,4168.077,4171.41,4170.128,4187.821,4187.308,0,0
511,82,0,3088,4174.103,4198.333,4182.436,4176.538,4178.974,4192.0509999999995,4168.333,4181.795,4183.205,4166.282,4167.692,4169.487,4182.821,4183.846,0,0
512,83,0,3423,4177.9490000000005,4199.615,4180.255999999999,4179.615,4171.923,4181.667,4156.282,4169.872,4182.692,4166.923,4173.205,4170.128,4193.974,4184.359,0,0
513,84,0,3231,4174.231,4200.0,4173.205,4181.923,4178.846,4168.846,4150.255999999999,4167.0509999999995,4181.795,4166.667,4174.615,4171.41,4199.487,4186.667,0,0
514,85,0,1692,4168.333,4199.487,4169.231,4182.0509999999995,4186.41,4173.59,4154.487,4171.154,4181.795,4169.872,4170.0,4167.308,4179.103,4183.846,0,0
515,86,0,3088,4170.128,4198.205,4172.9490000000005,4181.795,4185.128,4184.359,4157.179,4171.538,4181.41,4165.641,4168.077,4165.255999999999,4162.692,4182.179,0,0
516,87,0,3423,4172.692,4199.231,4175.255999999999,4174.615,4185.0,4185.128,4159.487,4175.255999999999,4182.0509999999995,4160.255999999999,4172.692,4169.231,4170.385,4185.769,0,0
517,88,0,3231,4173.205,4202.436,4176.923,4170.769,4187.179,4181.923,4167.821,4184.359,4183.333,4174.359,4181.667,4169.359,4191.667,4187.692,0,0
518,89,0,1692,4172.0509999999995,4201.538,4179.744000000001,4178.333,4186.538,4183.59,4171.667,4183.59,4182.308,4185.255999999999,4191.282,4168.974,4200.128,4189.487,0,0
519,90,0,3088,4176.538,4200.897,4181.538,4187.692,4184.359,4185.255999999999,4169.872,4173.59,4181.923,4168.077,4182.9490000000005,4170.897,4180.897,4187.564,0,0
520,91,0,3423,4183.077,4202.9490000000005,4178.718,4180.641,4179.359,4184.487,4166.923,4168.846,4182.692,4155.0,4163.974,4168.718,4166.154,4178.205,0,0
521,92,0,3231,4177.308,4195.255999999999,4177.692,4168.205,4172.0509999999995,4183.974,4165.128,4168.846,4182.564,4164.615,4163.718,4167.564,4172.436,4175.641,0,0
522,93,0,1692,4170.513,4189.359,4183.077,4174.103,4169.872,4183.333,4166.795,4170.641,4181.41,4171.154,4169.359,4170.0,4179.615,4190.385,0,0
523,94,0,3088,4177.692,4197.9490000000005,4187.179,4185.641,4176.538,4183.462,4170.0,4177.692,4181.538,4166.538,4168.333,4174.615,4174.103,4194.872,0,0
524,95,0,3423,4186.026,4204.744000000001,4187.821,4185.385,4185.385,4184.231,4170.385,4183.974,4183.205,4167.179,4177.821,4175.897,4170.385,4190.641,0,0
525,96,0,3231,4185.769,4201.41,4191.282,4182.179,4186.923,4184.231,4168.846,4183.59,4185.255999999999,4179.872,4191.923,4176.282,4182.564,4196.795,0,0
526,97,0,1692,4184.872,4199.615,4195.513,4184.615,4185.641,4185.0,4172.0509999999995,4181.41,4185.385,4188.59,4185.513,4179.487,4192.308,4194.103,0,0
527,98,0,3088,4184.744000000001,4201.282,4191.667,4185.255999999999,4186.923,4185.513,4174.615,4184.359,4183.205,4184.231,4180.0,4179.231,4177.821,4187.821,0,0
528,99,0,3423,4184.103,4199.103,4186.026,4181.154,4181.667,4182.9490000000005,4170.769,4182.564,4181.923,4178.974,4188.718,4174.487,4161.667,4201.282,0,0
529,100,0,3231,4183.462,4197.9490000000005,4186.026,4174.231,4175.128,4182.564,4169.487,4175.641,4183.205,4175.255999999999,4191.795,4174.103,4166.538,4206.923,0,0
530,101,0,1692,4183.205,4198.846,4187.564,4171.667,4179.359,4185.769,4172.692,4176.282,4185.513,4169.744000000001,4189.872,4177.179,4175.513,4191.795,0,0
531,102,0,3088,4185.255999999999,4199.744000000001,4186.923,4179.872,4185.128,4184.359,4171.667,4181.795,4185.128,4171.538,4185.128,4174.231,4167.9490000000005,4188.205,0,0
532,103,0,3423,4188.974,4203.205,4185.513,4189.231,4188.333,4183.333,4174.359,4183.205,4185.128,4183.59,4178.333,4174.615,4167.308,4193.205,0,0
533,104,0,3231,4189.872,4206.282,4187.9490000000005,4186.538,4190.641,4187.0509999999995,4181.282,4183.205,4186.923,4193.205,4179.487,4178.718,4201.538,4186.026,0,0
534,105,0,1692,4183.333,4200.897,4184.487,4173.974,4187.821,4187.0509999999995,4176.41,4184.231,4185.0,4186.795,4184.103,4174.872,4203.077,4180.385,0,0
535,106,0,3088,4171.795,4190.513,4173.077,4166.795,4184.231,4184.359,4166.282,4182.564,4181.923,4178.462,4176.667,4165.897,4165.769,4175.385,0,0
536,107,0,3423,4165.385,4185.0,4166.923,4164.744000000001,4182.0509999999995,4185.385,4169.103,4182.692,4183.718,4176.282,4165.513,4161.667,4170.255999999999,4170.385,0,0
537,108,0,3231,4168.846,4187.308,4173.077,4160.385,4173.974,4185.641,4179.103,4185.641,4184.744000000001,4169.359,4171.41,4163.974,4186.795,4169.231,0,0
538,109,0,1692,4174.487,4189.872,4180.128,4159.487,4171.538,4184.487,4180.128,4183.974,4183.462,4171.923,4185.897,4165.641,4169.103,4173.077,0,0
539,110,0,3088,4174.872,4188.974,4182.564,4167.179,4179.487,4185.0,4178.846,4181.923,4184.487,4187.308,4191.026,4166.667,4156.41,4180.897,0,0
540,111,0,3423,4176.282,4191.026,4183.718,4173.205,4185.128,4183.205,4182.9490000000005,4183.718,4186.41,4187.821,4181.282,4170.385,4166.667,4186.282,0,0
541,112,0,3231,4182.308,4191.795,4184.231,4171.41,4184.231,4182.821,4184.872,4183.846,4185.641,4179.359,4176.538,4175.0,4176.41,4185.255999999999,0,0
542,113,0,1692,4184.487,4187.179,4182.9490000000005,4167.0509999999995,4181.923,4185.769,4182.692,4181.282,4185.0,4184.872,4182.0509999999995,4174.615,4187.821,4184.744000000001,0,0
543,114,0,3088,4178.462,4184.744000000001,4182.179,4165.513,4182.0509999999995,4183.846,4184.103,4182.0509999999995,4186.282,4190.641,4180.641,4172.179,4196.026,4187.692,0,0
544,115,0,3423,4179.744000000001,4187.821,4185.128,4170.0,4185.255999999999,4184.231,4189.744000000001,4183.462,4185.513,4184.872,4178.718,4173.077,4185.385,4188.077,0,0
545,116,0,3231,4183.333,4186.41,4184.872,4172.179,4181.538,4181.026,4183.974,4178.333,4182.692,4177.564,4184.615,4175.0,4175.897,4182.821,0,0
546,117,0,1692,4180.0,4184.359,4178.205,4170.513,4174.744000000001,4170.897,4169.359,4173.333,4184.103,4180.385,4189.615,4173.333,4183.333,4179.487,0,0
547,118,0,3088,4179.487,4191.923,4178.718,4171.282,4179.615,4175.385,4168.077,4175.255999999999,4185.128,4183.077,4179.615,4171.923,4177.692,4182.692,0,0
548,119,0,3423,4183.974,4199.744000000001,4182.9490000000005,4170.128,4185.641,4189.872,4181.538,4182.0509999999995,4184.487,4178.59,4170.0,4174.615,4158.462,4186.538,0,0
549,120,0,3231,4185.769,4197.692,4178.59,4171.154,4179.744000000001,4184.872,4183.974,4184.487,4187.821,4180.0,4175.897,4174.615,4171.026,4189.872,0,0
550,121,0,1692,4179.103,4188.462,4171.667,4173.333,4171.154,4171.026,4172.564,4174.744000000001,4183.333,4176.282,4184.615,4167.0509999999995,4177.179,4183.974,0,0
551,122,0,3088,4170.897,4183.59,4167.821,4164.359,4165.0,4167.692,4166.282,4167.821,4172.0509999999995,4161.282,4186.026,4167.692,4144.744000000001,4169.359,0,0
552,123,0,3423,4174.487,4185.128,4168.077,4160.641,4166.538,4172.9490000000005,4167.308,4173.846,4176.282,4171.282,4180.641,4176.41,4153.333,4173.462,0,0
553,124,0,3231,4185.128,4188.333,4171.538,4172.436,4174.359,4177.9490000000005,4168.59,4176.41,4186.282,4189.744000000001,4164.103,4172.821,4186.923,4185.385,0,0
554,125,0,1692,4182.308,4188.718,4167.9490000000005,4177.0509999999995,4176.41,4173.077,4166.026,4175.128,4183.333,4175.0,4151.795,4165.255999999999,4176.154,4176.026,0,0
555,126,0,3088,4175.769,4185.0,4165.255999999999,4169.487,4176.923,4172.0509999999995,4172.308,4182.0509999999995,4182.179,4171.026,4171.923,4169.744000000001,4170.641,4166.795,0,0
556,127,0,52,4187.564,4190.897,4174.872,4168.462,4182.436,4182.692,4184.359,4187.692,4188.077,4197.9490000000005,4195.128,4175.0,4182.436,4182.0509999999995,0,0
557,0,0,2241,4196.923,4200.255999999999,4178.462,4172.564,4186.538,4185.385,4182.564,4185.0,4188.205,4206.154,4191.154,4176.282,4188.077,4198.205,0,0
558,1,0,2631,4191.538,4194.744000000001,4172.0509999999995,4171.667,4183.718,4184.744000000001,4179.103,4184.487,4185.255999999999,4191.154,4188.974,4181.282,4194.103,4199.744000000001,0,0
559,2,0,2897,4183.333,4182.564,4168.974,4168.846,4175.255999999999,4184.103,4180.255999999999,4183.974,4183.077,4182.436,4184.359,4177.308,4164.744000000001,4187.0509999999995,0,0
560,3,0,3034,4181.667,4182.564,4168.462,4171.026,4167.692,4174.744000000001,4173.846,4182.179,4182.436,4182.564,4172.0509999999995,4171.282,4134.615,4173.718,0,0
561,4,0,3533,4185.769,4187.692,4170.769,4180.385,4172.821,4173.333,4173.59,4184.231,4186.154,4185.255999999999,4189.359,4174.872,4179.872,4181.282,0,0
562,5,0,2054,4185.641,4187.692,4174.872,4180.641,4182.692,4185.769,4187.9490000000005,4183.718,4187.692,4189.231,4206.667,4175.769,4210.513,4189.744000000001,0,0
563,6,0,2417,4183.974,4189.103,4171.923,4175.769,4181.026,4187.9490000000005,4189.487,4179.487,4183.718,4185.0,4177.436,4169.103,4157.0509999999995,4183.846,0,0
564,7,0,1485,4192.0509999999995,4195.385,4173.59,4179.615,4176.795,4183.333,4179.487,4180.385,4183.333,4181.41,4159.359,4171.795,4139.103,4184.744000000001,0,0
565,8,0,1139,4198.718,4200.897,4182.564,4178.974,4179.615,4185.255999999999,4185.385,4184.359,4186.026,4193.59,4182.436,4180.769,4184.103,4190.513,0,0
566,9,0,3527,4189.744000000001,4194.359,4177.436,4170.769,4183.59,4187.692,4192.692,4185.128,4184.103,4201.667,4186.795,4175.641,4182.692,4187.308,0,0
567,10,0,3108,4178.974,4185.128,4165.385,4170.385,4184.103,4185.897,4188.846,4183.205,4182.179,4191.795,4171.923,4165.0,4169.103,4182.564,0,0
568,11,0,3424,4182.821,4188.846,4166.667,4173.974,4182.9490000000005,4183.974,4189.231,4183.974,4183.846,4184.103,4180.385,4170.641,4188.205,4178.846,0,0
569,12,0,3240,4187.564,4195.0,4173.333,4171.41,4184.615,4185.128,4193.718,4186.282,4185.0,4185.897,4186.923,4178.846,4176.154,4177.179,0,0
570,13,0,1698,4185.0,4190.641,4171.667,4173.462,4188.59,4187.0509999999995,4196.667,4185.513,4185.641,4183.718,4173.718,4173.205,4153.205,4185.385,0,0
571,14,0,3108,4182.564,4183.974,4168.077,4171.41,4183.846,4185.128,4197.308,4185.385,4186.41,4183.846,4172.821,4170.513,4165.0,4182.692,0,0
572,15,0,3424,4184.359,4184.615,4167.564,4158.333,4177.564,4183.205,4196.41,4189.103,4186.026,4192.821,4186.026,4174.359,4173.077,4176.41,0,0
573,16,0,0,4185.513,4186.667,4167.308,4157.308,4182.308,4184.744000000001,4191.282,4190.255999999999,4185.0,4196.538,4189.487,4173.077,4179.615,4182.564,0,0
574,17,0,0,4181.538,4185.385,4166.795,4168.205,4186.026,4187.0509999999995,4186.41,4186.154,4183.59,4187.436,4183.718,4170.385,4194.872,4178.077,0,0
575,18,0,0,4181.923,4184.359,4168.333,4170.897,4178.205,4186.154,4187.821,4182.692,4182.821,4180.513,4180.513,4173.077,4166.282,4168.718,0,0
576,19,0,0,4186.41,4185.255999999999,4169.872,4167.821,4174.231,4183.333,4190.128,4184.359,4184.744000000001,4195.513,4186.282,4174.231,4161.026,4177.9490000000005,0,0
577,20,0,0,4183.205,4185.385,4167.9490000000005,4170.641,4176.154,4180.641,4184.487,4183.59,4184.487,4199.359,4183.077,4169.103,4205.769,4179.872,0,0
578,21,0,0,4176.923,4180.128,4164.615,4167.564,4174.487,4180.255999999999,4181.026,4181.282,4182.564,4170.641,4168.462,4163.333,4180.641,4167.9490000000005,0,0
579,22,0,0,4184.872,4182.692,4169.359,4167.0509999999995,4183.462,4190.769,4196.795,4186.026,4185.0,4164.744000000001,4172.692,4169.103,4139.103,4178.59,0,0
580,23,0,0,4197.9490000000005,4197.0509999999995,4176.41,4180.897,4195.769,4197.436,4201.154,4190.897,4186.667,4197.436,4189.103,4175.897,4173.974,4194.615,0,0
581,24,0,0,4198.846,4202.179,4176.282,4186.282,4192.0509999999995,4185.255999999999,4181.923,4186.667,4184.103,4202.436,4187.9490000000005,4171.667,4190.255999999999,4184.744000000001,0,0
582,25,0,0,4198.59,4201.154,4177.436,4183.077,4188.846,4178.718,4187.0509999999995,4185.128,4183.333,4182.692,4178.077,4170.897,4159.231,4175.128,0,0
583,26,0,0,4204.615,4208.333,4186.154,4185.897,4199.615,4187.179,4204.872,4188.846,4185.128,4189.359,4182.0509999999995,4177.436,4173.846,4184.872,0,0
584,27,0,0,4205.385,4210.385,4184.872,4186.538,4204.103,4186.282,4192.9490000000005,4186.795,4184.615,4197.564,4188.846,4175.641,4191.795,4193.205,0,0
585,28,0,0,4199.615,4201.538,4173.974,4180.641,4195.641,4183.333,4183.974,4183.846,4184.231,4188.718,4182.0509999999995,4167.564,4169.231,4188.974,0,0
586,29,0,0,4197.9490000000005,4199.744000000001,4171.026,4180.513,4192.0509999999995,4189.359,4197.179,4185.769,4185.641,4185.513,4173.974,4169.103,4169.359,4183.718,0,0
587,30,0,0,4199.231,4202.821,4175.513,4184.359,4198.077,4187.308,4196.026,4185.128,4185.385,4188.462,4181.026,4171.538,4185.513,4182.436,0,0
588,31,0,0,4198.205,4202.179,4177.564,4182.9490000000005,4202.821,4180.641,4183.846,4183.333,4183.333,4194.359,4194.359,4169.359,4191.667,4182.692,0,0
589,32,0,0,4200.0,4205.641,4176.154,4183.462,4196.538,4182.0509999999995,4183.974,4184.872,4181.41,4200.128,4189.872,4171.282,4190.255999999999,4187.308,0,0
590,33,0,0,4199.487,4207.564,4173.077,4182.436,4187.9490000000005,4184.872,4188.846,4186.026,4184.872,4196.154,4177.564,4172.179,4185.385,4189.872,0,0
591,34,0,0,4190.513,4201.026,4170.0,4176.667,4188.333,4182.9490000000005,4187.821,4183.077,4182.9490000000005,4185.641,4173.462,4161.667,4180.897,4180.128,0,0
592,35,0,0,4188.59,4199.231,4170.0,4176.154,4186.795,4181.538,4183.846,4181.538,4172.821,4176.026,4170.769,4157.692,4170.513,4172.564,0,0
593,36,0,0,4199.359,4211.41,4172.436,4182.821,4185.0,4181.923,4183.205,4183.077,4172.821,4170.769,4177.9490000000005,4169.615,4155.128,4180.255999999999,0,0
594,37,0,0,4202.0509999999995,4214.744000000001,4172.179,4187.692,4187.0509999999995,4181.795,4186.41,4181.538,4183.077,4182.692,4181.923,4174.359,4162.821,4187.564,0,0
595,38,0,0,4196.795,4204.872,4171.026,4182.9490000000005,4187.0509999999995,4182.9490000000005,4185.641,4179.744000000001,4186.026,4188.077,4168.974,4166.41,4185.0,4188.077,0,0
596,39,0,0,4201.026,4208.462,4171.667,4173.718,4190.385,4185.385,4182.692,4182.821,4177.0509999999995,4168.846,4166.154,4165.385,4174.359,4193.077,0,0
597,40,0,0,4205.897,4217.308,4171.538,4174.744000000001,4199.615,4186.795,4188.077,4184.359,4174.103,4167.9490000000005,4187.821,4169.359,4165.0,4202.436,0,0
598,41,0,0,4201.41,4210.385,4172.564,4186.154,4202.821,4186.154,4201.026,4184.359,4181.795,4182.179,4194.615,4167.821,4181.41,4199.359,0,0
599,42,0,0,4197.179,4199.231,4174.744000000001,4183.974,4199.231,4185.769,4206.41,4188.462,4187.308,4177.0509999999995,4168.59,4165.385,4181.923,4186.026,0,0
600,43,0,0,4200.0,4199.872,4174.487,4171.923,4198.718,4185.0,4194.231,4189.872,4185.513,4176.667,4165.769,4171.41,4192.0509999999995,4184.103,0,0
601,44,0,0,4205.0,4202.179,4178.846,4175.897,4197.9490000000005,4183.974,4191.923,4184.359,4183.077,4190.385,4192.308,4174.231,4210.255999999999,4199.615,0,0
602,45,0,0,4204.487,4202.436,4185.255999999999,4184.487,4197.179,4184.615,4202.308,4183.205,4183.59,4188.974,4198.59,4172.564,4181.795,4206.538,0,0
603,46,0,0,4202.308,4204.487,4186.154,4185.385,4199.872,4182.821,4192.9490000000005,4184.487,4180.513,4178.205,4184.872,4176.923,4148.077,4191.282,0,0
604,47,0,0,4203.718,4202.0509999999995,4184.231,4186.923,4197.692,4181.795,4182.692,4183.205,4181.154,4176.538,4179.231,4178.846,4168.59,4180.385,0,0
605,48,0,0,4205.255999999999,4199.872,4184.103,4188.462,4198.846,4188.205,4199.231,4187.308,4185.513,4183.846,4185.385,4175.641,4193.205,4190.641,0,0
606,49,0,0,4204.744000000001,4205.769,4187.9490000000005,4187.9490000000005,4210.128,4191.41,4210.0,4192.0509999999995,4185.769,4195.255999999999,4191.41,4179.615,4182.308,4206.154,0,0
607,50,0,0,4204.615,4209.487,4193.205,4188.59,4212.436,4187.0509999999995,4198.59,4188.333,4185.255999999999,4194.103,4191.154,4183.846,4170.255999999999,4204.487,0,0
608,51,0,0,4203.462,4203.462,4192.436,4185.255999999999,4200.641,4185.255999999999,4197.179,4184.487,4185.897,4182.9490000000005,4182.9490000000005,4178.333,4175.641,4186.538,0,0
609,52,0,0,4200.897,4197.564,4185.897,4180.513,4192.0509999999995,4183.974,4203.59,4187.308,4186.282,4177.308,4180.385,4177.564,4182.308,4181.667,0,0
610,53,0,0,4201.667,4201.795,4186.154,4190.128,4194.487,4184.872,4200.255999999999,4187.0509999999995,4185.0,4180.897,4186.667,4181.026,4182.179,4195.897,0,0
611,54,0,0,4205.641,4207.436,4194.487,4197.436,4198.846,4191.154,4196.026,4187.179,4185.641,4193.333,4184.231,4181.667,4193.59,4203.59,0,0
612,55,0,0,4208.077,4206.667,4197.692,4192.308,4200.0,4192.179,4201.154,4193.077,4187.308,4198.59,4182.9490000000005,4183.333,4205.769,4201.795,0,0
613,56,0,0,4205.897,4198.077,4191.538,4182.0509999999995,4195.641,4181.026,4201.154,4190.385,4185.897,4189.615,4187.0509999999995,4181.41,4187.692,4202.564,0,0
614,57,0,0,4198.077,4186.795,4183.077,4171.795,4186.026,4176.154,4184.615,4180.769,4183.333,4181.282,4182.179,4173.718,4160.769,4193.462,0,0
615,58,0,0,4195.641,4185.641,4185.385,4173.974,4181.154,4183.205,4182.179,4181.667,4183.59,4184.103,4174.103,4173.846,4167.179,4183.846,0,0
616,59,0,0,4205.769,4196.026,4193.462,4184.615,4186.282,4186.282,4194.103,4187.9490000000005,4185.897,4188.077,4172.179,4180.255999999999,4198.974,4197.0509999999995,0,0
617,60,0,0,4212.308,4202.821,4191.154,4185.769,4194.487,4182.821,4191.538,4185.128,4184.872,4186.667,4174.103,4177.0509999999995,4196.667,4204.872,0,0
618,61,0,0,4205.385,4194.359,4183.846,4180.255999999999,4192.179,4180.641,4182.436,4180.641,4181.667,4180.0,4174.103,4171.538,4173.718,4187.179,0,0
619,62,0,0,4200.769,4189.359,4184.744000000001,4184.231,4185.769,4183.462,4184.615,4181.667,4182.564,4175.128,4182.0509999999995,4175.897,4179.615,4177.179,0,0
620,63,0,0,4207.436,4199.231,4192.564,4190.128,4192.692,4185.513,4192.564,4183.077,4186.154,4184.744000000001,4192.692,4182.9490000000005,4179.615,4192.564,0,0
621,64,0,2246,4212.564,4205.385,4191.282,4190.128,4203.077,4182.9490000000005,4193.462,4184.744000000001,4186.795,4198.077,4177.179,4182.0509999999995,4159.744000000001,4208.718,0,0
622,65,0,2634,4211.154,4202.0509999999995,4186.282,4190.513,4196.667,4182.9490000000005,4188.718,4186.026,4184.359,4194.744000000001,4155.385,4181.154,4166.923,4206.282,0,0
623,66,0,2899,4211.667,4200.255999999999,4187.308,4188.846,4190.128,4183.59,4190.513,4186.923,4183.718,4193.974,4171.667,4181.667,4194.231,4200.641,0,0
624,67,0,3038,4214.359,4202.0509999999995,4187.564,4186.41,4199.103,4184.744000000001,4201.795,4189.231,4186.667,4206.026,4202.179,4179.615,4210.128,4204.103,0,0
625,68,0,3533,4218.462,4204.487,4186.667,4188.205,4206.667,4195.513,4209.615,4191.41,4190.128,4211.41,4206.41,4181.41,4222.692,4204.103,0,0
626,69,0,2054,4214.359,4204.744000000001,4186.795,4188.333,4203.205,4200.0,4202.564,4188.077,4187.9490000000005,4205.255999999999,4193.462,4184.744000000001,4211.538,4199.872,0,0
627,70,0,2417,4205.897,4200.385,4185.769,4183.077,4198.974,4183.077,4188.59,4184.103,4183.974,4199.103,4183.846,4179.872,4181.923,4200.0,0,0
628,71,0,1484,4210.128,4201.154,4183.718,4182.821,4200.513,4174.103,4188.205,4190.641,4187.308,4200.255999999999,4182.0509999999995,4177.308,4192.564,4203.205,0,0
629,72,0,1140,4215.641,4205.897,4186.41,4190.385,4202.436,4185.769,4203.718,4195.897,4192.692,4206.154,4191.923,4181.795,4227.9490000000005,4204.615,0,0
630,73,0,3527,4204.359,4201.026,4187.179,4188.846,4195.769,4188.077,4202.308,4187.821,4188.59,4199.615,4187.821,4179.231,4217.436,4194.487,0,0
631,74,0,3087,4197.821,4195.513,4183.59,4184.487,4190.385,4181.667,4186.41,4183.205,4183.077,4183.205,4165.513,4175.0,4184.872,4187.436,0,0
632,75,0,3419,4212.9490000000005,4202.821,4189.359,4193.974,4198.718,4186.41,4187.0509999999995,4188.846,4185.385,4188.59,4167.564,4180.769,4198.333,4203.077,0,0
633,76,0,3242,4218.846,4207.436,4196.538,4197.821,4199.103,4187.821,4192.0509999999995,4189.231,4186.923,4202.308,4187.0509999999995,4184.231,4219.872,4210.641,0,0
634,77,0,1698,4207.9490000000005,4201.795,4193.718,4189.744000000001,4191.923,4181.538,4196.154,4186.026,4185.255999999999,4203.718,4190.769,4179.103,4202.9490000000005,4200.769,0,0
635,78,0,3087,4202.0509999999995,4198.077,4182.821,4186.795,4193.846,4181.795,4196.923,4186.282,4184.744000000001,4196.026,4181.154,4177.0509999999995,4186.923,4198.846,0,0
636,79,0,3419,4201.026,4198.205,4175.128,4187.308,4191.41,4185.897,4188.077,4186.667,4184.103,4184.359,4173.974,4176.026,4186.667,4192.308,0,0
637,80,0,3242,4199.103,4196.667,4177.179,4186.026,4186.538,4187.436,4188.462,4189.615,4183.846,4186.923,4173.462,4174.615,4183.205,4180.0,0,0
638,81,0,1698,4199.231,4194.231,4180.385,4187.9490000000005,4193.59,4185.769,4194.103,4190.128,4184.487,4194.872,4172.564,4174.359,4187.821,4190.769,0,0
639,82,0,3087,4203.333,4189.615,4180.769,4183.205,4195.255999999999,4183.974,4187.692,4186.667,4183.974,4182.692,4173.205,4172.821,4189.872,4201.667,0,0
640,83,0,3419,4197.692,4185.128,4175.128,4171.667,4181.41,4182.692,4180.255999999999,4185.128,4182.9490000000005,4173.462,4179.744000000001,4169.744000000001,4181.923,4190.769,0,0
641,84,0,3242,4188.333,4185.385,4172.179,4176.923,4177.436,4182.179,4183.974,4185.641,4184.103,4182.0509999999995,4182.9490000000005,4168.846,4186.667,4182.0509999999995,0,0
642,85,0,1698,4191.41,4186.026,4179.231,4186.538,4189.615,4184.231,4192.9490000000005,4187.564,4184.744000000001,4183.333,4174.487,4170.897,4192.308,4182.179,0,0
643,86,0,3087,4202.0509999999995,4189.744000000001,4185.0,4183.974,4196.282,4187.564,4197.0509999999995,4189.487,4185.641,4188.205,4179.359,4174.615,4199.615,4186.538,0,0
644,87,0,3419,4203.462,4191.923,4181.538,4181.795,4191.282,4186.795,4191.41,4187.436,4186.026,4193.205,4190.255999999999,4175.897,4208.462,4192.436,0,0
645,88,0,3242,4196.923,4178.59,4178.846,4180.128,4183.718,4182.9490000000005,4182.564,4182.9490000000005,4182.9490000000005,4171.923,4173.846,4174.231,4196.41,4186.154,0,0
646,89,0,1698,4198.974,4172.9490000000005,4187.0509999999995,4178.462,4185.641,4183.718,4188.718,4184.103,4181.41,4165.255999999999,4169.231,4175.128,4180.255999999999,4185.513,0,0
647,90,0,3087,4206.923,4189.359,4189.615,4185.0,4193.205,4186.282,4193.846,4186.795,4184.872,4191.538,4193.077,4178.974,4191.923,4202.9490000000005,0,0
648,91,0,3419,4206.667,4195.255999999999,4184.231,4191.026,4191.538,4185.385,4187.308,4185.385,4186.154,4196.667,4194.103,4177.179,4206.923,4200.0,0,0
649,92,0,3242,4203.077,4184.872,4183.462,4185.0,4192.692,4186.795,4192.179,4186.923,4184.615,4178.59,4176.923,4172.436,4194.487,4186.154,0,0
650,93,0,1698,4204.615,4184.487,4183.718,4181.795,4199.487,4189.487,4201.667,4191.795,4186.667,4184.744000000001,4182.179,4174.744000000001,4195.385,4196.923,0,0
651,94,0,3087,4202.9490000000005,4187.692,4178.333,4186.154,4194.487,4185.128,4195.255999999999,4188.205,4186.41,4189.744000000001,4192.436,4175.897,4211.41,4207.0509999999995,0,0
652,95,0,3419,4197.821,4184.103,4172.821,4181.667,4181.923,4179.487,4181.923,4180.513,4182.692,4169.744000000001,4182.564,4170.513,4186.154,4198.333,0,0
653,96,0,3242,4200.255999999999,4183.846,4174.615,4170.128,4183.59,4183.205,4184.103,4183.846,4183.462,4174.615,4175.769,4170.385,4163.077,4197.564,0,0
654,97,0,1698,4200.385,4179.487,4176.667,4169.872,4187.0509999999995,4186.923,4193.974,4190.128,4185.769,4194.487,4180.897,4176.026,4197.692,4199.103,0,0
655,98,0,3087,4196.538,4174.744000000001,4174.103,4180.513,4182.9490000000005,4182.0509999999995,4185.513,4185.513,4184.744000000001,4189.744000000001,4188.462,4173.205,4224.872,4188.333,0,0
656,99,0,3419,4197.692,4176.41,4171.282,4175.128,4181.026,4179.615,4170.513,4181.026,4183.333,4185.128,4187.564,4167.436,4211.667,4182.9490000000005,0,0
657,100,0,3242,4196.282,4174.103,4170.128,4163.59,4175.0,4183.846,4172.692,4183.974,4181.795,4174.744000000001,4171.667,4166.923,4188.077,4183.846,0,0
658,101,0,1698,4196.538,4170.897,4173.59,4172.0509999999995,4177.308,4185.255999999999,4183.846,4188.077,4181.282,4154.359,4164.487,4168.462,4171.026,4186.282,0,0
659,102,0,3087,4201.282,4172.692,4175.385,4178.718,4186.026,4182.692,4186.667,4190.128,4183.205,4167.821,4175.513,4169.872,4174.744000000001,4185.128,0,0
660,103,0,3419,4202.821,4177.308,4176.41,4176.41,4183.077,4185.385,4193.205,4195.385,4185.0,4194.615,4183.462,4174.615,4189.615,4181.538,0,0
661,104,0,3242,4208.462,4185.0,4185.0,4182.9490000000005,4185.513,4188.333,4204.487,4203.077,4187.564,4189.487,4187.179,4179.487,4192.179,4192.821,0,0
662,105,0,1698,4217.308,4190.897,4188.718,4190.128,4195.769,4188.59,4201.795,4201.026,4187.9490000000005,4184.872,4191.923,4177.821,4204.359,4205.897,0,0
663,106,0,3087,4217.564,4192.564,4182.821,4191.41,4199.359,4195.128,4195.641,4196.154,4186.282,4199.615,4190.128,4175.385,4224.103,4202.692,0,0
664,107,0,3419,4217.564,4196.667,4185.255999999999,4198.974,4205.641,4201.41,4201.154,4199.872,4187.692,4204.615,4187.0509999999995,4179.744000000001,4216.667,4198.59,0,0
665,108,0,3242,4217.821,4196.41,4194.359,4201.667,4206.41,4197.0509999999995,4208.462,4197.179,4188.462,4195.255999999999,4189.359,4183.077,4202.179,4205.128,0,0
666,109,0,1698,4208.077,4188.333,4190.769,4190.385,4187.436,4184.872,4196.923,4184.744000000001,4186.026,4184.359,4186.41,4177.564,4192.436,4199.872,0,0
667,110,0,3087,4199.103,4183.974,4182.692,4185.0,4179.744000000001,4183.077,4181.538,4181.795,4185.128,4182.564,4181.41,4173.974,4180.255999999999,4187.692,0,0
668,111,0,3419,4200.0,4182.821,4182.821,4186.154,4193.205,4193.462,4191.154,4186.795,4185.769,4186.026,4185.255999999999,4174.231,4192.308,4189.103,0,0
669,112,0,3242,4203.205,4183.718,4185.513,4188.974,4193.718,4193.59,4203.077,4186.41,4185.255999999999,4177.821,4183.59,4173.333,4205.769,4191.026,0,0
670,113,0,1698,4203.718,4186.923,4183.205,4187.692,4183.718,4178.846,4195.641,4187.0509999999995,4185.128,4173.205,4175.128,4172.821,4189.744000000001,4193.718,0,0
671,114,0,3087,4198.974,4185.897,4182.821,4183.333,4183.974,4179.231,4194.744000000001,4188.462,4185.0,4182.821,4181.41,4175.769,4177.0509999999995,4200.641,0,0
672,115,0,3419,4204.487,4183.205,4193.333,4192.564,4188.462,4196.923,4206.282,4190.385,4186.154,4195.385,4196.026,4180.128,4195.255999999999,4201.154,0,0
673,116,0,3242,4214.359,4187.179,4202.692,4199.231,4187.9490000000005,4196.026,4206.923,4197.9490000000005,4188.59,4205.0,4194.487,4182.436,4209.231,4200.513,0,0
674,117,0,1698,4208.462,4186.282,4195.128,4186.795,4182.0509999999995,4182.308,4197.436,4197.179,4188.59,4201.41,4180.513,4179.615,4204.615,4202.9490000000005,0,0
675,118,0,3087,4204.872,4185.385,4190.769,4185.0,4185.769,4182.436,4192.564,4185.897,4187.308,4190.513,4182.0509999999995,4176.795,4203.462,4203.718,0,0
676,119,0,3419,4218.718,4193.077,4197.179,4204.615,4196.154,4187.0509999999995,4196.667,4183.846,4186.282,4186.538,4191.795,4177.821,4200.255999999999,4206.154,0,0
677,120,0,3242,4220.255999999999,4194.615,4193.077,4205.0,4193.333,4188.077,4200.641,4188.718,4184.231,4186.282,4188.974,4178.59,4180.897,4204.615,0,0
678,121,0,1698,4206.154,4187.179,4188.846,4187.9490000000005,4181.154,4188.59,4198.077,4187.564,4184.359,4184.615,4186.154,4176.154,4174.872,4194.487,0,0
679,122,0,3087,4201.154,4183.077,4199.359,4186.282,4179.872,4186.538,4200.385,4186.538,4186.923,4184.744000000001,4186.795,4173.718,4197.436,4190.128,0,0
680,123,0,3419,4201.795,4180.769,4202.0509999999995,4187.308,4183.205,4182.0509999999995,4202.436,4186.667,4184.615,4176.282,4178.718,4174.103,4198.205,4190.513,0,0
681,124,0,3242,4200.128,4176.282,4190.641,4180.769,4182.692,4185.0,4197.564,4186.282,4180.641,4164.744000000001,4169.103,4172.692,4172.692,4187.821,0,0
682,125,0,1698,4201.923,4176.795,4187.564,4180.897,4185.897,4188.846,4198.718,4193.205,4184.359,4174.744000000001,4174.231,4172.0509999999995,4190.128,4187.821,0,0
683,126,0,3087,4203.846,4178.718,4190.0,4184.103,4185.385,4187.436,4202.0509999999995,4195.255999999999,4190.255999999999,4188.077,4178.718,4171.795,4221.667,4185.128,0,0
684,127,0,52,4202.821,4178.718,4187.179,4180.641,4179.744000000001,4187.308,4197.9490000000005,4187.821,4188.077,4185.128,4171.923,4169.487,4210.769,4179.103,0,0
685,0,0,2242,4203.333,4183.333,4185.897,4183.462,4182.821,4186.026,4196.795,4186.154,4186.282,4180.897,4174.231,4169.872,4184.359,4188.59,0,0
686,1,0,2632,4203.846,4182.436,4187.0509999999995,4184.487,4188.846,4184.359,4195.255999999999,4187.821,4188.333,4169.231,4177.9490000000005,4176.154,4158.59,4192.821,0,0
687,2,0,2898,4199.615,4176.667,4186.282,4175.128,4187.179,4186.923,4188.205,4182.821,4179.231,4158.974,4168.205,4173.846,4145.513,4178.59,0,0
688,3,0,3039,4196.795,4174.872,4183.846,4173.974,4178.462,4181.538,4181.667,4180.897,4171.026,4173.718,4160.385,4163.718,4173.974,4173.59,0,0
689,4,0,3534,4200.513,4178.462,4185.128,4176.667,4175.0,4175.128,4182.436,4186.41,4180.128,4186.538,4174.487,4166.282,4197.9490000000005,4184.103,0,0
690,5,0,2054,4202.179,4179.615,4187.436,4172.179,4179.359,4182.179,4194.359,4188.205,4182.821,4168.718,4188.718,4172.9490000000005,4167.179,4187.692,0,0
691,6,0,2417,4198.333,4179.872,4187.9490000000005,4175.128,4184.615,4187.692,4199.872,4185.769,4175.255999999999,4163.205,4176.154,4168.718,4160.641,4183.333,0,0
692,7,0,1484,4199.744000000001,4183.077,4190.255999999999,4185.641,4184.487,4181.282,4194.872,4184.744000000001,4181.41,4183.462,4165.255999999999,4167.0509999999995,4205.769,4188.205,0,0
693,8,0,1133,4198.333,4180.255999999999,4186.923,4180.897,4183.718,4184.359,4197.436,4185.769,4184.744000000001,4183.59,4167.9490000000005,4167.821,4200.897,4184.744000000001,0,0
694,9,0,3533,4186.154,4172.564,4177.9490000000005,4174.872,4184.231,4192.179,4200.0,4186.282,4172.0509999999995,4163.462,4166.026,4161.282,4159.487,4167.179,0,0
695,10,0,3088,4185.385,4171.41,4177.0509999999995,4181.923,4181.282,4179.872,4187.179,4184.359,4173.333,4161.538,4164.359,4162.308,4168.974,4168.205,0,0
696,11,0,3422,4201.667,4178.846,4185.385,4185.385,4184.359,4170.513,4181.41,4185.0,4186.154,4182.0509999999995,4170.385,4172.436,4205.769,4185.769,0,0
697,12,0,3229,4201.41,4177.564,4181.538,4181.667,4186.154,4179.231,4189.103,4187.692,4180.769,4187.436,4163.077,4169.744000000001,4189.359,4181.667,0,0
698,13,0,1693,4184.872,4169.744000000001,4170.897,4181.923,4177.692,4185.641,4186.795,4185.513,4170.255999999999,4168.077,4151.026,4159.359,4159.359,4162.821,0,0
699,14,0,3088,4187.179,4175.641,4171.026,4186.923,4178.974,4183.718,4182.564,4182.436,4170.513,4162.821,4160.641,4162.692,4171.667,4168.205,0,0
700,15,0,3422,4200.0,4185.769,4174.231,4187.308,4191.538,4181.538,4186.667,4184.359,4172.436,4176.282,4180.128,4171.795,4186.026,4188.333,0,0
701,16,0,0,4205.128,4187.436,4179.872,4187.0509999999995,4192.564,4180.0,4188.462,4188.205,4177.436,4182.179,4186.154,4174.744000000001,4193.077,4197.436,0,0
702,17,0,0,4205.128,4188.462,4182.9490000000005,4187.821,4184.615,4183.205,4186.667,4188.59,4181.667,4181.026,4176.154,4171.154,4198.462,4193.462,0,0
703,18,0,0,4195.385,4186.026,4173.974,4182.564,4179.103,4183.462,4186.538,4186.41,4174.359,4182.179,4168.462,4165.255999999999,4180.513,4178.846,0,0
704,19,0,0,4183.846,4174.615,4165.255999999999,4172.821,4171.538,4172.564,4184.744000000001,4185.513,4165.897,4181.795,4172.179,4158.333,4154.615,4166.026,0,0
705,20,0,0,4184.744000000001,4169.231,4168.846,4167.692,4170.128,4172.0509999999995,4181.41,4186.026,4171.795,4178.333,4175.255999999999,4157.436,4160.513,4166.923,0,0
706,21,0,0,4188.077,4173.718,4170.513,4171.923,4178.718,4182.0509999999995,4183.59,4186.667,4176.154,4175.0,4171.667,4161.026,4176.923,4166.026,0,0
707,22,0,0,4189.103,4178.846,4170.385,4179.744000000001,4182.308,4183.077,4188.846,4187.9490000000005,4170.0,4179.487,4172.0509999999995,4163.974,4175.255999999999,4164.359,0,0
708,23,0,0,4198.462,4184.615,4177.436,4186.923,4183.846,4183.846,4188.462,4187.564,4174.744000000001,4188.462,4173.974,4165.0,4185.385,4180.641,0,0
709,24,0,0,4200.128,4185.897,4177.821,4186.923,4187.308,4186.667,4184.744000000001,4184.359,4181.538,4185.641,4170.897,4163.846,4187.308,4189.744000000001,0,0
710,25,0,0,4187.9490000000005,4176.923,4174.872,4183.077,4185.128,4183.718,4186.538,4186.026,4177.821,4183.333,4168.333,4164.872,4171.154,4172.692,0,0
711,26,0,0,4188.077,4170.897,4180.128,4183.59,4180.897,4181.282,4187.9490000000005,4189.103,4173.846,4193.205,4171.41,4168.974,4178.846,4166.282,0,0
712,27,0,0,4199.231,4177.564,4188.846,4186.154,4179.744000000001,4182.0509999999995,4183.333,4186.923,4173.718,4189.487,4174.615,4171.282,4189.744000000001,4181.41,0,0
713,28,0,0,4203.077,4185.641,4191.667,4187.436,4185.255999999999,4183.077,4183.846,4187.179,4174.615,4180.513,4171.026,4172.692,4173.333,4187.821,0,0
714,29,0,0,4199.744000000001,4181.282,4189.615,4187.0509999999995,4185.641,4185.255999999999,4189.615,4189.615,4174.359,4182.692,4171.026,4173.205,4163.205,4183.205,0,0
715,30,0,0,4196.923,4176.026,4185.769,4184.615,4176.795,4183.333,4184.744000000001,4187.564,4176.795,4181.026,4179.744000000001,4168.59,4176.923,4181.282,0,0
716,31,0,0,4198.974,4183.205,4185.385,4181.923,4178.846,4180.641,4180.0,4187.179,4182.0509999999995,4183.718,4185.128,4167.564,4188.333,4188.846,0,0
717,32,0,0,4205.128,4190.0,4189.872,4182.564,4190.255999999999,4184.359,4188.333,4190.0,4185.128,4197.564,4186.795,4175.897,4187.9490000000005,4196.795,0,0
718,33,0,0,4206.154,4188.205,4190.0,4185.0,4191.154,4182.692,4191.154,4188.462,4184.872,4195.897,4185.128,4178.718,4177.564,4193.077,0,0
719,34,0,0,4196.41,4182.308,4186.41,4180.128,4184.231,4173.205,4183.59,4184.872,4184.359,4184.231,4176.41,4168.974,4165.385,4182.692,0,0
720,35,0,0,4187.436,4179.872,4182.692,4174.103,4179.872,4175.385,4184.744000000001,4183.974,4180.513,4185.513,4170.641,4163.974,4172.0509999999995,4173.718,0,0
721,36,0,0,4188.077,4184.359,4181.923,4177.436,4180.0,4186.154,4189.744000000001,4185.0,4177.564,4187.564,4171.154,4166.667,4178.077,4173.077,0,0
722,37,0,0,4194.103,4187.308,4180.897,4184.615,4184.103,4184.615,4185.897,4186.538,4182.821,4183.333,4167.564,4166.282,4170.0,4179.487,0,0
723,38,0,0,4200.128,4185.641,4183.077,4187.308,4187.0509999999995,4179.872,4190.385,4186.282,4186.667,4182.0509999999995,4166.41,4168.333,4199.872,4184.103,0,0
724,39,0,0,4199.615,4187.821,4185.513,4182.821,4185.897,4184.872,4201.923,4185.385,4184.872,4188.077,4172.308,4172.821,4230.0,4184.872,0,0
725,40,0,0,4190.385,4187.9490000000005,4178.077,4174.103,4185.385,4187.9490000000005,4194.744000000001,4183.846,4179.487,4183.846,4175.128,4168.205,4178.077,4182.564,0,0
726,41,0,0,4181.154,4179.359,4171.026,4169.359,4184.615,4183.077,4181.154,4182.436,4175.128,4168.718,4170.769,4161.282,4120.641,4175.255999999999,0,0
727,42,0,0,4183.462,4179.487,4173.59,4171.667,4183.59,4183.846,4191.667,4184.487,4180.0,4170.0,4165.255999999999,4164.487,4147.821,4170.255999999999,0,0
728,43,0,0,4191.154,4185.513,4175.897,4173.59,4185.641,4184.359,4204.231,4187.821,4185.769,4190.0,4175.769,4168.59,4201.667,4172.564,0,0
729,44,0,0,4191.282,4179.359,4173.718,4172.692,4184.103,4175.513,4190.513,4187.9490000000005,4184.487,4191.026,4183.59,4165.513,4201.154,4172.564,0,0
730,45,0,0,4184.103,4168.59,4171.41,4168.974,4180.0,4173.205,4176.667,4185.769,4183.077,4170.769,4162.9490000000005,4161.538,4161.282,4170.897,0,0
731,46,0,0,4182.821,4172.436,4170.513,4172.692,4182.692,4184.872,4187.308,4185.513,4177.308,4166.026,4151.795,4161.282,4137.564,4173.077,0,0
732,47,0,0,4188.974,4182.692,4171.41,4180.641,4185.513,4190.641,4195.0,4185.513,4175.255999999999,4185.128,4173.462,4163.846,4178.205,4177.436,0,0
733,48,0,0,4189.872,4181.282,4172.179,4177.564,4178.846,4178.59,4178.718,4185.641,4184.231,4195.0,4175.769,4165.769,4225.128,4175.641,0,0
734,49,0,0,4183.718,4177.9490000000005,4167.692,4174.872,4176.667,4170.513,4170.0,4184.744000000001,4186.026,4178.205,4152.692,4162.821,4192.821,4173.846,0,0
735,50,0,0,4184.231,4183.59,4169.103,4183.846,4184.359,4178.846,4182.821,4185.897,4180.897,4170.641,4154.744000000001,4163.718,4155.385,4181.667,0,0
736,51,0,0,4190.769,4187.308,4175.128,4187.9490000000005,4188.59,4187.0509999999995,4189.359,4188.462,4182.308,4184.615,4164.103,4163.718,4176.282,4181.154,0,0
737,52,0,0,4189.487,4180.513,4172.564,4182.9490000000005,4188.462,4185.641,4184.359,4181.026,4184.231,4180.0,4153.974,4160.897,4192.564,4169.872,0,0
738,53,0,0,4187.821,4181.282,4168.846,4181.538,4189.744000000001,4184.103,4183.718,4173.718,4182.9490000000005,4166.41,4158.077,4162.0509999999995,4168.205,4173.077,0,0
739,54,0,0,4194.744000000001,4192.308,4171.282,4182.821,4189.103,4180.385,4184.103,4181.41,4184.487,4178.462,4179.359,4166.282,4159.615,4187.821,0,0
740,55,0,0,4198.718,4190.385,4172.308,4182.564,4187.821,4171.154,4180.128,4188.846,4184.487,4192.436,4179.615,4165.641,4177.308,4195.385,0,0
741,56,0,0,4200.769,4183.846,4171.538,4183.333,4189.359,4175.128,4181.154,4184.103,4184.103,4188.333,4167.564,4163.462,4190.128,4195.769,0,0
742,57,0,0,4199.615,4187.9490000000005,4170.897,4186.538,4188.333,4185.769,4183.077,4182.436,4185.0,4185.641,4171.41,4166.795,4198.718,4194.103,0,0
743,58,0,0,4189.487,4188.462,4170.0,4188.077,4183.205,4183.077,4181.026,4185.0,4183.077,4178.974,4168.077,4166.026,4183.077,4186.795,0,0
744,59,0,0,4187.436,4184.231,4172.9490000000005,4187.436,4182.9490000000005,4181.41,4183.974,4182.9490000000005,4180.769,4163.846,4155.513,4165.0,4152.821,4181.41,0,0
745,60,0,0,4200.897,4195.128,4180.385,4191.923,4196.795,4181.538,4188.333,4183.59,4183.59,4173.333,4167.692,4171.154,4163.974,4193.59,0,0
746,61,0,0,4205.897,4201.667,4182.436,4192.821,4203.205,4175.513,4183.59,4185.128,4186.538,4196.667,4182.692,4175.769,4189.231,4202.436,0,0
747,62,0,0,4200.0,4190.0,4180.385,4187.0509999999995,4191.282,4177.564,4181.923,4186.026,4183.462,4196.026,4178.59,4173.974,4182.0509999999995,4188.846,0,0
748,63,0,0,4199.615,4183.205,4181.667,4186.154,4185.513,4185.128,4188.333,4187.436,4181.923,4180.897,4176.923,4173.077,4173.205,4179.103,0,0
749,64,0,2241,4200.0,4185.0,4182.436,4186.667,4188.333,4185.128,4187.0509999999995,4186.795,4184.744000000001,4173.333,4185.897,4174.231,4185.769,4194.231,0,0
750,65,0,2633,4199.231,4186.41,4183.333,4186.795,4187.9490000000005,4179.359,4180.897,4185.0,4185.897,4172.564,4182.179,4176.667,4195.897,4201.667,0,0
751,66,0,2898,4201.795,4188.077,4185.897,4195.128,4188.462,4177.0509999999995,4182.436,4183.718,4184.744000000001,4174.103,4170.897,4177.692,4179.615,4193.462,0,0
752,67,0,3040,4203.462,4188.974,4186.154,4200.385,4189.359,4176.538,4181.026,4182.0509999999995,4179.487,4174.103,4175.641,4177.692,4150.513,4195.641,0,0
753,68,0,3532,4202.821,4187.436,4186.026,4192.436,4187.564,4175.641,4173.59,4181.154,4175.769,4176.795,4186.667,4177.564,4148.205,4201.41,0,0
754,69,0,2049,4200.513,4187.692,4184.744000000001,4184.872,4188.974,4179.103,4168.846,4183.205,4180.385,4182.0509999999995,4187.9490000000005,4177.821,4173.077,4198.205,0,0
755,70,0,2415,4201.667,4188.718,4184.231,4186.538,4193.718,4183.59,4169.872,4186.282,4186.538,4188.333,4186.923,4176.538,4187.0509999999995,4196.282,0,0
756,71,0,1484,4203.846,4188.077,4184.487,4190.769,4195.255999999999,4183.462,4180.0,4188.974,4185.897,4196.026,4189.359,4177.179,4184.615,4202.436,0,0
757,72,0,1133,4198.462,4184.872,4181.795,4189.359,4189.744000000001,4183.846,4186.538,4186.923,4184.487,4191.154,4186.282,4177.436,4176.154,4204.487,0,0
758,73,0,3529,4193.974,4181.667,4180.641,4185.128,4182.9490000000005,4182.564,4173.718,4181.41,4184.872,4174.103,4182.692,4174.103,4166.41,4196.538,0,0
759,74,0,3085,4193.846,4182.564,4181.154,4184.615,4182.821,4173.974,4164.872,4182.308,4183.718,4168.462,4187.821,4173.333,4169.103,4189.103,0,0
760,75,0,3419,4188.462,4183.077,4176.538,4185.897,4185.255999999999,4175.641,4181.026,4188.59,4182.9490000000005,4179.487,4186.282,4173.333,4176.795,4185.255999999999,0,0
761,76,0,3232,4183.846,4183.846,4174.872,4183.59,4186.538,4186.667,4188.205,4187.9490000000005,4183.718,4189.615,4181.667,4175.128,4187.692,4182.308,0,0
762,77,0,1693,4184.103,4182.564,4174.744000000001,4181.154,4186.026,4181.282,4171.538,4181.154,4184.615,4186.795,4182.308,4173.077,4188.077,4180.641,0,0
763,78,0,3085,4181.923,4184.487,4170.897,4185.255999999999,4184.103,4175.128,4166.538,4180.255999999999,4184.744000000001,4179.103,4179.487,4167.436,4166.667,4177.821,0,0
764,79,0,3419,4184.744000000001,4192.0509999999995,4174.615,4190.255999999999,4190.897,4181.41,4178.718,4185.255999999999,4186.026,4185.385,4177.0509999999995,4168.974,4170.897,4179.103,0,0
765,80,0,3232,4193.333,4193.59,4181.41,4187.0509999999995,4199.744000000001,4183.205,4184.103,4186.026,4186.41,4195.255999999999,4184.487,4173.718,4192.436,4187.692,0,0
766,81,0,1693,4201.282,4201.154,4180.897,4187.821,4193.333,4180.641,4182.179,4182.9490000000005,4182.821,4187.179,4193.718,4172.436,4175.897,4199.615,0,0
767,82,0,3085,4218.462,4221.41,4184.487,4195.897,4184.103,4183.59,4184.231,4185.128,4182.308,4183.205,4198.205,4174.615,4156.026,4217.436,0,0
768,83,0,3419,4242.436,4234.872,4188.974,4201.795,4190.641,4185.513,4186.795,4187.692,4186.154,4197.436,4207.436,4182.436,4177.436,4243.462,0,0
769,84,0,3232,4262.821,4248.846,4185.128,4208.462,4195.0,4182.564,4181.923,4184.744000000001,4185.513,4199.103,4215.897,4183.846,4191.923,4274.359,0,0
