,COUNTER, INTERPOLATED, RAW_CQ, AF3, F7, F3, FC5, T7, P7, O1, O2, P8, T8, FC6, F4, F8, AF4, MARKER_HARDWARE, MARKER
0,59,0,0,4197.821,4253.974,4180.769,4200.641,4197.308,4180.385,4180.769,4167.308,4181.923,4180.255999999999,4169.744000000001,4160.385,4178.59,4185.128,0,0
1,60,0,0,4181.667,4241.795,4186.923,4201.282,4201.154,4185.0,4187.436,4173.333,4184.487,4178.333,4164.231,4165.128,4183.333,4161.538,0,0
2,61,0,0,4167.308,4230.128,4190.128,4192.308,4198.974,4182.821,4182.308,4169.872,4180.0,4166.795,4162.564,4163.077,4180.897,4155.513,0,0
3,62,0,0,4152.179,4218.59,4180.769,4185.769,4191.026,4175.769,4179.231,4166.41,4178.333,4151.923,4152.179,4159.487,4178.974,4147.564,0,0
4,63,0,0,4145.128,4208.974,4173.462,4182.821,4190.0,4181.667,4184.231,4176.538,4181.667,4164.615,4146.667,4160.0,4184.359,4128.333,0,0
5,64,0,2227,4140.255999999999,4198.718,4171.154,4174.744000000001,4194.487,4188.59,4188.205,4182.564,4183.077,4183.205,4152.436,4158.333,4186.282,4117.0509999999995,0,0
6,65,0,2609,4127.179,4188.205,4167.692,4167.436,4185.255999999999,4177.179,4187.436,4172.9490000000005,4183.846,4175.128,4153.974,4152.0509999999995,4181.41,4112.0509999999995,0,0
7,66,0,2865,4118.974,4183.59,4164.615,4170.385,4170.0,4166.667,4182.179,4170.641,4184.231,4172.821,4134.103,4148.077,4183.462,4098.077,0,0
8,67,0,3032,4122.179,4183.333,4167.821,4176.538,4175.897,4176.282,4182.692,4177.9490000000005,4183.718,4183.077,4115.0,4153.077,4186.282,4090.0,0,0
9,68,0,3532,4124.487,4183.077,4171.154,4175.769,4189.615,4186.282,4186.795,4177.308,4183.974,4181.538,4131.41,4157.9490000000005,4185.769,4109.744000000001,0,0
10,69,0,2030,4124.872,4185.897,4169.231,4172.692,4186.41,4182.821,4185.255999999999,4175.128,4184.744000000001,4178.846,4161.282,4158.077,4188.205,4125.641,0,0
11,70,0,2375,4124.744000000001,4186.923,4166.154,4170.128,4181.154,4181.923,4185.128,4180.0,4184.103,4175.128,4163.718,4156.538,4189.231,4111.282,0,0
12,71,0,1339,4125.897,4184.231,4168.718,4171.795,4181.026,4181.795,4189.231,4180.0,4184.231,4167.0509999999995,4145.0,4155.769,4187.692,4101.538,0,0
13,72,0,1052,4124.872,4178.974,4173.077,4173.59,4179.744000000001,4172.436,4186.667,4173.077,4185.128,4175.385,4138.974,4153.205,4186.795,4111.538,0,0
14,73,0,3517,4120.255999999999,4173.718,4164.744000000001,4165.0,4179.359,4172.0509999999995,4183.205,4174.487,4184.231,4185.128,4149.487,4149.487,4185.0,4110.897,0,0
15,74,0,3083,4118.59,4175.641,4152.0509999999995,4159.872,4181.282,4183.974,4192.436,4183.974,4184.103,4176.923,4147.179,4148.846,4186.282,4100.0,0,0
16,75,0,3428,4122.308,4179.744000000001,4153.077,4169.744000000001,4186.538,4186.282,4200.255999999999,4186.923,4185.897,4176.667,4135.385,4150.128,4188.974,4101.282,0,0
17,76,0,3235,4125.0,4180.385,4158.59,4176.795,4190.255999999999,4181.282,4198.205,4186.026,4187.0509999999995,4186.667,4142.0509999999995,4151.154,4190.641,4107.179,0,0
18,77,0,1635,4121.154,4181.282,4155.897,4170.769,4184.615,4182.436,4198.205,4187.179,4186.538,4184.359,4155.769,4150.513,4191.282,4110.255999999999,0,0
19,78,0,3083,4119.615,4182.308,4150.513,4166.795,4184.487,4183.718,4198.846,4187.0509999999995,4187.436,4178.462,4151.923,4152.308,4190.769,4112.179,0,0
20,79,0,3428,4128.205,4184.103,4152.9490000000005,4170.641,4195.128,4183.718,4199.615,4184.872,4189.872,4190.641,4149.231,4155.513,4195.255999999999,4113.846,0,0
21,80,0,3235,4135.255999999999,4186.026,4155.255999999999,4171.41,4195.641,4185.641,4203.077,4187.179,4189.872,4202.692,4156.026,4152.692,4199.359,4119.872,0,0
22,81,0,1635,4131.282,4185.0,4148.846,4170.128,4189.615,4183.846,4199.359,4183.333,4187.9490000000005,4194.487,4156.154,4147.436,4193.974,4125.385,0,0
23,82,0,3083,4126.026,4182.436,4146.795,4170.385,4188.718,4181.923,4193.846,4175.641,4185.769,4182.436,4145.641,4148.077,4186.026,4114.231,0,0
24,83,0,3428,4126.538,4183.59,4154.487,4172.692,4188.205,4183.59,4193.718,4178.077,4186.026,4188.846,4144.103,4147.0509999999995,4185.255999999999,4106.41,0,0
25,84,0,3235,4126.923,4185.769,4154.744000000001,4178.205,4190.0,4185.128,4192.179,4184.359,4188.462,4192.564,4160.897,4145.769,4187.0509999999995,4116.795,0,0
26,85,0,1635,4130.0,4187.564,4150.897,4185.0,4195.513,4184.231,4192.692,4184.615,4187.308,4182.308,4174.359,4150.513,4189.872,4127.821,0,0
27,86,0,3083,4142.308,4192.564,4161.154,4188.974,4202.308,4182.821,4198.974,4184.615,4187.692,4188.59,4168.462,4154.872,4197.0509999999995,4135.769,0,0
28,87,0,3428,4153.462,4198.846,4172.692,4188.333,4206.923,4181.795,4201.795,4187.821,4190.897,4206.026,4157.308,4155.0,4200.385,4140.385,0,0
29,88,0,3235,4152.9490000000005,4199.359,4172.821,4187.564,4208.205,4182.821,4203.333,4188.205,4190.255999999999,4204.103,4150.897,4160.0,4196.795,4139.872,0,0
30,89,0,1635,4142.436,4190.385,4171.282,4185.641,4199.615,4184.103,4199.359,4180.513,4186.154,4185.385,4150.385,4156.154,4186.923,4135.897,0,0
31,90,0,3083,4137.821,4182.564,4178.718,4183.59,4191.667,4181.795,4187.308,4177.436,4185.255999999999,4181.026,4156.282,4149.103,4182.0509999999995,4134.359,0,0
32,91,0,3428,4146.282,4186.923,4184.872,4183.846,4195.641,4181.667,4184.231,4182.179,4186.538,4188.462,4159.744000000001,4156.538,4185.0,4133.718,0,0
33,92,0,3235,4152.179,4190.128,4177.821,4182.692,4202.179,4185.385,4188.974,4184.615,4185.769,4186.667,4153.59,4161.538,4185.897,4138.077,0,0
34,93,0,1635,4150.0,4190.255999999999,4167.9490000000005,4183.077,4202.436,4186.154,4188.462,4182.436,4184.744000000001,4185.385,4150.128,4157.308,4186.154,4139.615,0,0
35,94,0,3083,4148.333,4191.923,4167.0509999999995,4186.667,4200.0,4182.436,4185.128,4179.103,4184.359,4184.744000000001,4160.641,4156.795,4187.179,4133.205,0,0
36,95,0,3428,4151.026,4189.872,4172.436,4188.974,4196.667,4181.538,4185.641,4178.718,4184.231,4177.308,4171.41,4158.718,4184.872,4143.846,0,0
37,96,0,3235,4154.872,4192.692,4179.359,4188.59,4197.179,4185.641,4195.128,4181.282,4184.487,4177.179,4169.615,4159.487,4182.308,4159.231,0,0
38,97,0,1635,4154.359,4199.487,4187.308,4187.9490000000005,4203.077,4185.897,4199.103,4183.333,4184.231,4188.462,4163.59,4164.231,4186.282,4149.744000000001,0,0
39,98,0,3083,4151.154,4192.692,4182.692,4185.0,4204.744000000001,4181.923,4186.667,4182.564,4184.231,4192.179,4159.231,4164.103,4190.641,4142.308,0,0
40,99,0,3428,4151.795,4184.487,4168.333,4177.436,4198.974,4183.077,4182.308,4183.077,4185.513,4191.795,4151.923,4161.154,4189.359,4152.179,0,0
41,100,0,3235,4154.231,4192.179,4168.846,4176.41,4201.154,4185.385,4190.769,4186.154,4187.692,4203.974,4154.487,4162.308,4192.308,4152.436,0,0
42,101,0,1635,4152.564,4196.923,4178.333,4183.846,4200.128,4182.564,4186.282,4185.897,4186.795,4204.103,4167.9490000000005,4158.077,4198.718,4140.769,0,0
43,102,0,3083,4151.538,4190.897,4177.564,4186.795,4192.179,4182.821,4188.333,4186.154,4187.0509999999995,4196.667,4175.769,4154.103,4201.41,4143.846,0,0
44,103,0,3428,4151.795,4187.308,4170.128,4181.923,4194.744000000001,4184.615,4200.255999999999,4187.436,4190.897,4204.359,4170.769,4157.436,4202.692,4151.667,0,0
45,104,0,3235,4153.59,4196.41,4169.359,4183.846,4205.0,4181.667,4192.9490000000005,4187.564,4190.385,4212.9490000000005,4163.077,4156.282,4207.308,4155.255999999999,0,0
46,105,0,1635,4157.0509999999995,4210.897,4171.282,4189.359,4207.179,4183.974,4187.0509999999995,4187.9490000000005,4186.026,4202.9490000000005,4157.564,4149.487,4201.282,4158.077,0,0
47,106,0,3083,4151.667,4206.667,4170.385,4184.231,4202.436,4185.255999999999,4190.0,4183.077,4185.255999999999,4182.821,4145.769,4145.897,4186.923,4146.026,0,0
48,107,0,3428,4147.0509999999995,4195.385,4166.923,4180.255999999999,4195.255999999999,4173.718,4178.462,4173.462,4180.255999999999,4170.0,4136.795,4145.0,4182.692,4125.255999999999,0,0
49,108,0,3235,4150.0,4200.128,4166.154,4185.513,4189.103,4172.9490000000005,4175.0,4170.128,4176.923,4168.462,4145.128,4144.872,4180.769,4122.564,0,0
50,109,0,1635,4145.255999999999,4201.667,4167.179,4183.59,4189.872,4184.231,4183.462,4170.255999999999,4181.026,4170.385,4145.255999999999,4149.231,4177.179,4129.103,0,0
51,110,0,3083,4135.255999999999,4185.0,4167.564,4169.872,4185.128,4174.487,4171.923,4168.462,4178.846,4162.436,4119.744000000001,4154.359,4173.077,4120.255999999999,0,0
52,111,0,3428,4137.436,4180.641,4174.231,4167.436,4173.333,4163.846,4161.538,4173.462,4175.0,4152.564,4106.923,4156.538,4169.615,4110.385,0,0
53,112,0,3235,4141.154,4187.692,4186.026,4176.026,4167.692,4177.692,4171.026,4182.9490000000005,4182.9490000000005,4151.795,4119.487,4166.41,4170.255999999999,4111.538,0,0
54,113,0,1635,4131.026,4180.128,4189.231,4174.615,4161.41,4181.154,4174.103,4185.641,4186.923,4148.333,4126.667,4173.718,4168.974,4108.718,0,0
55,114,0,3083,4121.538,4166.154,4184.615,4167.821,4152.564,4167.0509999999995,4168.462,4179.615,4177.564,4142.564,4118.846,4171.154,4158.974,4100.513,0,0
56,115,0,3428,4121.667,4160.0,4179.487,4165.897,4153.205,4167.821,4168.718,4173.846,4178.59,4139.103,4106.41,4169.231,4152.821,4095.0,0,0
57,116,0,3235,4119.872,4157.0509999999995,4173.974,4160.385,4151.154,4174.359,4168.974,4173.462,4180.641,4131.923,4100.769,4170.128,4152.692,4086.026,0,0
58,117,0,1635,4113.462,4152.564,4169.744000000001,4151.667,4141.026,4169.615,4168.462,4176.795,4171.538,4124.872,4107.821,4166.667,4147.821,4080.1279999999997,0,0
59,118,0,3083,4114.359,4153.846,4174.487,4157.0509999999995,4141.923,4169.103,4171.026,4180.897,4172.9490000000005,4133.59,4114.615,4167.308,4148.077,4085.6409999999996,0,0
60,119,0,3428,4123.59,4161.667,4184.359,4169.744000000001,4153.59,4175.897,4171.667,4184.615,4182.179,4143.205,4111.667,4174.103,4158.846,4092.949,0,0
61,120,0,3235,4131.41,4169.359,4188.846,4171.923,4155.385,4172.564,4170.641,4186.41,4182.821,4137.436,4110.897,4175.769,4163.333,4101.538,0,0
62,121,0,1635,4136.795,4172.0509999999995,4187.0509999999995,4170.255999999999,4152.0509999999995,4167.0509999999995,4177.436,4185.128,4180.0,4139.487,4110.0,4174.744000000001,4162.179,4114.744000000001,0,0
63,122,0,3083,4139.744000000001,4170.0,4187.436,4172.564,4159.487,4177.564,4186.667,4185.897,4183.462,4151.154,4106.795,4176.667,4163.205,4118.974,0,0
64,123,0,3428,4134.872,4168.205,4185.255999999999,4171.154,4165.0,4185.128,4181.795,4185.897,4185.0,4147.821,4111.923,4175.641,4164.359,4109.615,0,0
65,124,0,3235,4128.077,4170.769,4175.641,4167.9490000000005,4159.744000000001,4174.359,4177.179,4185.0,4185.0,4145.0,4126.795,4169.487,4160.897,4108.333,0,0
66,125,0,1635,4125.128,4166.026,4169.359,4163.718,4155.385,4167.564,4183.59,4186.282,4185.385,4152.179,4133.333,4163.846,4156.667,4109.359,0,0
67,126,0,3083,4122.308,4157.0509999999995,4171.282,4158.846,4153.462,4171.41,4181.154,4184.103,4182.9490000000005,4152.0509999999995,4120.0,4163.846,4158.718,4105.0,0,0
68,127,0,52,4124.744000000001,4160.769,4175.0,4163.333,4152.179,4170.513,4170.255999999999,4181.41,4183.077,4148.846,4117.821,4169.103,4166.538,4112.308,0,0
69,0,0,2228,4133.974,4171.538,4175.255999999999,4172.564,4159.103,4169.359,4170.128,4186.41,4186.795,4155.128,4133.333,4173.974,4170.385,4120.128,0,0
70,1,0,2609,4140.0,4172.692,4173.077,4171.923,4165.385,4172.821,4173.205,4187.564,4186.795,4157.308,4134.744000000001,4175.769,4165.513,4124.487,0,0
71,2,0,2867,4137.821,4168.974,4171.026,4168.462,4163.205,4169.487,4169.231,4176.923,4182.179,4154.231,4130.769,4173.462,4163.462,4132.308,0,0
72,3,0,3032,4135.897,4169.231,4169.359,4168.974,4162.179,4169.103,4166.154,4174.744000000001,4181.282,4156.667,4136.795,4170.513,4162.0509999999995,4128.974,0,0
73,4,0,3526,4135.641,4167.564,4167.9490000000005,4167.436,4163.974,4175.255999999999,4168.077,4182.821,4184.359,4155.128,4130.769,4168.718,4156.026,4117.564,0,0
74,5,0,2030,4132.308,4165.128,4169.487,4165.385,4162.179,4174.231,4165.0,4184.231,4184.231,4146.667,4117.9490000000005,4166.41,4155.255999999999,4120.255999999999,0,0
75,6,0,2375,4131.41,4165.513,4168.077,4166.282,4156.667,4168.718,4159.231,4181.667,4184.359,4148.077,4132.179,4165.385,4160.641,4123.974,0,0
76,7,0,1339,4135.128,4167.9490000000005,4167.179,4168.205,4150.897,4167.9490000000005,4163.59,4185.897,4187.436,4162.821,4149.872,4170.255999999999,4166.923,4120.641,0,0
77,8,0,1052,4140.385,4170.769,4176.026,4170.0,4154.359,4171.667,4170.513,4189.103,4187.179,4172.9490000000005,4143.846,4174.487,4170.897,4125.385,0,0
78,9,0,3524,4140.0,4170.255999999999,4184.359,4169.103,4167.821,4175.769,4168.718,4186.667,4185.128,4165.897,4140.385,4174.487,4172.0509999999995,4125.513,0,0
79,10,0,3084,4137.821,4172.0509999999995,4181.282,4166.538,4172.179,4175.255999999999,4165.769,4184.359,4183.846,4154.103,4140.897,4173.333,4170.0,4123.974,0,0
80,11,0,3428,4144.872,4179.615,4177.308,4167.436,4167.9490000000005,4171.41,4165.897,4181.538,4182.9490000000005,4155.641,4134.231,4173.077,4168.974,4133.205,0,0
81,12,0,3245,4151.026,4185.641,4182.692,4171.538,4172.436,4176.282,4166.538,4183.333,4184.103,4170.0,4141.667,4174.744000000001,4171.795,4140.255999999999,0,0
82,13,0,1634,4150.513,4184.872,4185.769,4174.487,4177.9490000000005,4184.103,4168.333,4187.0509999999995,4185.128,4177.564,4155.0,4175.641,4177.564,4143.077,0,0
83,14,0,3084,4145.641,4183.333,4184.103,4173.462,4175.641,4181.026,4166.538,4185.513,4183.974,4172.436,4146.795,4173.205,4180.769,4144.103,0,0
84,15,0,3428,4144.359,4182.564,4186.154,4169.615,4176.923,4180.641,4167.821,4184.487,4182.9490000000005,4169.615,4138.205,4172.179,4178.077,4138.846,0,0
85,16,0,0,4146.667,4179.487,4189.487,4169.359,4178.462,4184.103,4171.795,4186.667,4183.718,4168.59,4145.128,4174.231,4175.128,4133.974,0,0
86,17,0,0,4143.333,4177.692,4183.333,4172.179,4171.667,4178.462,4165.513,4180.641,4183.59,4160.897,4142.692,4167.9490000000005,4171.538,4135.769,0,0
87,18,0,0,4138.333,4174.103,4178.205,4171.923,4168.846,4171.154,4158.077,4173.974,4181.41,4150.897,4139.359,4159.487,4167.436,4134.744000000001,0,0
88,19,0,0,4138.846,4174.872,4185.0,4170.128,4170.255999999999,4170.128,4154.615,4178.846,4181.538,4150.513,4137.9490000000005,4160.0,4167.821,4133.974,0,0
89,20,0,0,4141.154,4177.9490000000005,4186.538,4171.795,4167.436,4175.385,4157.179,4185.128,4184.487,4164.103,4120.769,4165.255999999999,4171.026,4135.385,0,0
90,21,0,0,4142.821,4173.974,4184.231,4172.0509999999995,4175.128,4185.769,4174.872,4185.897,4186.538,4172.9490000000005,4122.9490000000005,4165.897,4175.897,4136.282,0,0
91,22,0,0,4151.795,4174.487,4192.436,4171.667,4184.872,4188.846,4186.667,4185.641,4185.641,4165.897,4151.282,4164.103,4179.359,4145.128,0,0
92,23,0,0,4158.846,4186.795,4197.821,4178.718,4180.255999999999,4181.538,4173.59,4185.128,4185.255999999999,4162.179,4159.103,4165.641,4173.59,4157.821,0,0
93,24,0,0,4155.769,4192.692,4190.769,4182.821,4176.026,4181.154,4165.128,4184.872,4185.255999999999,4165.128,4151.795,4168.333,4167.564,4156.154,0,0
94,25,0,0,4153.333,4186.795,4178.846,4176.923,4175.897,4182.308,4176.026,4187.179,4183.718,4165.513,4150.897,4165.385,4166.795,4143.59,0,0
95,26,0,0,4152.436,4183.205,4173.462,4171.282,4170.513,4172.179,4177.308,4186.795,4182.821,4162.692,4139.615,4159.487,4166.41,4138.077,0,0
96,27,0,0,4151.795,4187.436,4175.0,4176.667,4169.103,4169.103,4167.179,4183.718,4183.718,4159.359,4132.692,4159.744000000001,4166.282,4140.0,0,0
97,28,0,0,4153.333,4191.923,4178.077,4182.0509999999995,4180.769,4175.769,4168.077,4182.821,4184.615,4158.59,4146.026,4161.538,4168.718,4142.436,0,0
98,29,0,0,4151.41,4190.255999999999,4174.359,4178.846,4188.077,4177.821,4182.0509999999995,4183.333,4184.487,4161.538,4147.0509999999995,4156.923,4168.077,4141.026,0,0
99,30,0,0,4148.077,4190.255999999999,4172.436,4178.462,4185.641,4176.923,4185.128,4184.359,4184.103,4163.59,4141.154,4153.974,4172.692,4141.41,0,0
100,31,0,0,4152.0509999999995,4197.0509999999995,4176.154,4181.538,4184.615,4182.436,4175.897,4180.385,4184.615,4167.821,4152.0509999999995,4158.205,4181.667,4149.103,0,0
101,32,0,0,4155.0,4198.846,4173.462,4181.923,4186.795,4187.308,4174.103,4176.538,4184.359,4178.974,4159.103,4160.0,4177.436,4156.026,0,0
102,33,0,0,4151.538,4195.769,4172.436,4180.769,4185.513,4180.128,4171.026,4180.385,4182.564,4180.385,4151.282,4157.692,4170.255999999999,4151.667,0,0
103,34,0,0,4154.615,4198.205,4179.615,4181.538,4184.744000000001,4173.205,4167.308,4183.59,4182.308,4175.897,4155.897,4158.59,4178.974,4149.615,0,0
104,35,0,0,4164.872,4202.0509999999995,4184.744000000001,4182.692,4189.487,4178.974,4179.872,4181.667,4184.744000000001,4179.487,4167.0509999999995,4160.769,4185.0,4162.692,0,0
105,36,0,0,4168.59,4201.538,4180.897,4185.513,4189.103,4185.641,4192.0509999999995,4183.462,4186.026,4182.821,4163.718,4156.41,4179.359,4171.667,0,0
106,37,0,0,4166.154,4202.692,4177.821,4183.462,4181.282,4182.692,4185.385,4186.923,4184.231,4177.308,4147.308,4152.436,4180.513,4167.436,0,0
107,38,0,0,4166.538,4208.462,4179.615,4176.41,4184.103,4180.385,4182.564,4185.0,4184.487,4176.795,4126.795,4154.487,4188.718,4170.385,0,0
108,39,0,0,4170.255999999999,4213.974,4181.795,4181.154,4197.0509999999995,4185.513,4187.436,4184.231,4186.667,4187.564,4131.795,4160.128,4190.897,4178.718,0,0
109,40,0,0,4174.487,4215.0,4180.769,4192.436,4204.615,4188.462,4187.0509999999995,4187.436,4187.0509999999995,4197.564,4164.487,4163.205,4189.231,4180.0,0,0
110,41,0,0,4173.846,4211.41,4175.255999999999,4191.154,4202.0509999999995,4186.41,4185.897,4187.564,4185.641,4198.462,4177.821,4161.795,4188.718,4177.564,0,0
111,42,0,0,4166.923,4204.487,4171.923,4182.9490000000005,4194.744000000001,4181.538,4179.615,4185.128,4184.744000000001,4190.255999999999,4165.255999999999,4159.744000000001,4187.821,4177.0509999999995,0,0
112,43,0,0,4164.231,4200.385,4169.103,4182.436,4192.0509999999995,4182.821,4176.282,4182.179,4184.359,4187.564,4169.744000000001,4156.41,4186.154,4175.641,0,0
113,44,0,0,4169.615,4201.923,4165.128,4184.103,4197.564,4181.154,4184.487,4180.897,4184.103,4189.872,4180.897,4155.385,4186.026,4176.795,0,0
114,45,0,0,4170.769,4201.026,4167.9490000000005,4183.077,4201.538,4171.41,4185.641,4182.0509999999995,4184.359,4182.692,4171.667,4156.282,4187.0509999999995,4174.872,0,0
115,46,0,0,4165.255999999999,4202.0509999999995,4176.923,4183.333,4197.179,4175.513,4178.974,4183.718,4184.487,4177.9490000000005,4164.744000000001,4155.769,4188.462,4167.564,0,0
116,47,0,0,4170.385,4208.205,4177.564,4186.026,4193.974,4184.615,4188.333,4185.0,4188.718,4198.59,4172.179,4153.718,4194.744000000001,4175.641,0,0
117,48,0,0,4183.59,4209.359,4173.205,4188.59,4203.333,4185.641,4204.615,4187.564,4193.59,4223.462,4185.897,4159.231,4205.385,4194.359,0,0
118,49,0,0,4183.846,4208.077,4172.692,4187.308,4211.538,4187.564,4201.282,4188.59,4190.641,4219.487,4198.718,4162.564,4207.308,4195.513,0,0
119,50,0,0,4171.795,4205.0,4169.872,4183.59,4198.59,4181.282,4182.821,4184.744000000001,4185.897,4200.897,4191.282,4154.615,4197.9490000000005,4183.846,0,0
120,51,0,0,4171.026,4200.0,4168.718,4185.513,4193.205,4173.333,4180.641,4182.564,4186.538,4198.846,4170.0,4152.436,4196.026,4183.59,0,0
121,52,0,0,4177.564,4201.41,4169.872,4189.744000000001,4209.103,4183.462,4193.974,4184.487,4187.179,4201.154,4168.205,4159.615,4196.667,4188.462,0,0
122,53,0,0,4174.487,4204.615,4168.59,4186.795,4209.103,4190.0,4187.436,4180.897,4184.359,4183.333,4180.0,4158.846,4191.282,4185.128,0,0
123,54,0,0,4175.641,4203.205,4174.872,4184.872,4198.974,4180.385,4172.308,4177.9490000000005,4183.974,4179.744000000001,4184.487,4158.59,4191.154,4187.179,0,0
124,55,0,0,4184.744000000001,4206.026,4181.538,4187.9490000000005,4203.333,4180.769,4177.821,4183.718,4186.026,4202.9490000000005,4187.564,4165.385,4197.436,4195.641,0,0
125,56,0,0,4186.154,4209.615,4176.154,4188.59,4204.615,4186.667,4187.821,4187.0509999999995,4186.667,4208.333,4182.436,4165.769,4199.103,4197.821,0,0
126,57,0,0,4181.154,4204.744000000001,4172.308,4188.718,4200.897,4185.513,4186.026,4183.846,4185.513,4194.487,4167.308,4161.154,4196.667,4190.385,0,0
127,58,0,0,4184.359,4203.974,4171.154,4188.205,4205.769,4184.872,4185.385,4183.846,4184.231,4199.231,4172.9490000000005,4162.692,4197.9490000000005,4183.462,0,0
128,59,0,0,4185.0,4206.923,4165.769,4187.0509999999995,4207.436,4184.744000000001,4185.513,4181.795,4185.255999999999,4203.333,4191.026,4158.846,4201.026,4186.538,0,0
129,60,0,0,4173.846,4198.718,4165.513,4184.359,4198.846,4184.872,4181.923,4177.564,4185.513,4186.667,4184.487,4149.872,4197.821,4189.615,0,0
130,61,0,0,4163.462,4185.513,4169.231,4175.385,4190.255999999999,4184.744000000001,4184.359,4180.385,4183.462,4177.436,4171.154,4151.667,4186.154,4183.718,0,0
131,62,0,0,4166.667,4188.205,4167.436,4173.333,4192.179,4181.795,4184.359,4183.846,4183.205,4187.9490000000005,4171.282,4158.462,4184.487,4182.0509999999995,0,0
132,63,0,0,4178.718,4199.359,4170.385,4186.154,4202.436,4183.205,4184.103,4183.846,4185.0,4201.026,4170.769,4160.897,4197.821,4187.564,0,0
133,64,0,2234,4178.59,4201.538,4173.846,4193.077,4207.436,4187.564,4196.154,4185.0,4185.897,4204.615,4177.436,4160.897,4202.9490000000005,4186.795,0,0
134,65,0,2610,4169.487,4194.359,4168.077,4186.538,4205.513,4187.692,4200.641,4185.128,4186.026,4198.333,4185.0,4162.564,4197.308,4185.513,0,0
135,66,0,2867,4167.0509999999995,4187.179,4164.359,4182.692,4200.128,4184.231,4188.974,4182.9490000000005,4186.41,4190.255999999999,4171.923,4158.846,4196.154,4185.641,0,0
136,67,0,3032,4169.744000000001,4186.282,4166.923,4185.255999999999,4195.513,4183.846,4186.923,4183.59,4185.385,4186.923,4166.795,4152.436,4195.513,4174.487,0,0
137,68,0,3533,4169.359,4187.0509999999995,4165.128,4185.128,4198.718,4186.923,4195.513,4183.59,4184.231,4185.0,4173.462,4148.974,4192.692,4168.462,0,0
138,69,0,2031,4167.692,4186.923,4161.538,4182.308,4203.846,4188.59,4191.538,4182.0509999999995,4184.103,4182.436,4162.692,4147.308,4191.538,4182.179,0,0
139,70,0,2379,4170.897,4187.179,4163.077,4182.9490000000005,4205.0,4187.692,4190.0,4184.359,4184.359,4188.974,4161.795,4149.744000000001,4194.231,4189.487,0,0
140,71,0,1339,4171.282,4187.821,4167.308,4186.41,4206.41,4187.9490000000005,4201.026,4186.41,4187.179,4200.513,4181.154,4152.692,4192.821,4180.769,0,0
141,72,0,1052,4169.872,4188.846,4170.385,4185.641,4203.077,4186.923,4202.436,4186.154,4189.359,4206.538,4186.026,4151.154,4188.846,4180.385,0,0
142,73,0,3525,4173.333,4192.436,4171.154,4181.538,4198.59,4183.974,4196.41,4185.385,4187.179,4203.718,4177.692,4150.769,4190.255999999999,4185.513,0,0
143,74,0,3085,4177.179,4192.436,4171.026,4182.9490000000005,4204.231,4184.872,4197.9490000000005,4184.359,4184.231,4196.154,4174.359,4156.667,4190.0,4185.513,0,0
144,75,0,3422,4175.385,4187.436,4170.897,4187.9490000000005,4208.205,4187.436,4199.359,4183.974,4184.103,4191.282,4167.564,4156.923,4187.179,4190.385,0,0
145,76,0,3248,4171.282,4184.744000000001,4170.255999999999,4186.41,4204.487,4185.513,4192.564,4180.641,4184.231,4186.154,4164.487,4150.385,4184.103,4188.462,0,0
146,77,0,1638,4173.718,4185.255999999999,4167.821,4182.308,4205.641,4182.9490000000005,4184.744000000001,4177.0509999999995,4183.718,4183.462,4176.282,4150.0,4182.0509999999995,4179.872,0,0
147,78,0,3085,4183.333,4194.359,4167.9490000000005,4190.641,4209.231,4183.205,4184.872,4180.513,4183.846,4188.077,4177.179,4157.692,4183.077,4185.255999999999,0,0
148,79,0,3422,4185.897,4203.077,4169.231,4200.128,4205.255999999999,4183.974,4189.231,4184.359,4183.333,4188.718,4158.974,4160.128,4184.231,4193.462,0,0
149,80,0,3248,4176.154,4195.897,4165.513,4192.9490000000005,4201.282,4182.821,4188.205,4177.821,4184.359,4183.077,4151.538,4154.487,4179.615,4186.154,0,0
150,81,0,1638,4167.9490000000005,4184.615,4157.436,4183.974,4201.795,4182.692,4177.308,4168.59,4184.103,4186.026,4164.103,4147.821,4176.538,4172.0509999999995,0,0
151,82,0,3085,4167.0509999999995,4185.769,4152.179,4187.179,4199.487,4182.179,4171.154,4167.692,4180.641,4185.128,4166.667,4148.205,4178.846,4159.872,0,0
152,83,0,3422,4168.718,4188.205,4154.744000000001,4184.103,4199.103,4182.564,4180.128,4171.923,4181.154,4178.077,4158.462,4151.026,4180.385,4154.103,0,0
153,84,0,3248,4166.41,4182.179,4157.692,4171.923,4197.436,4185.255999999999,4187.564,4178.59,4184.487,4184.359,4159.231,4149.487,4179.615,4158.077,0,0
154,85,0,1638,4159.872,4180.128,4154.231,4171.923,4185.641,4186.282,4185.897,4181.923,4184.231,4187.308,4162.179,4148.974,4177.308,4157.308,0,0
155,86,0,3085,4162.0509999999995,4181.795,4156.026,4182.692,4180.255999999999,4182.821,4186.667,4183.205,4184.231,4182.179,4160.0,4152.0509999999995,4175.513,4154.744000000001,0,0
156,87,0,3422,4168.205,4178.59,4167.564,4187.436,4186.538,4180.385,4187.436,4185.513,4185.897,4184.744000000001,4159.872,4152.436,4174.103,4163.205,0,0
157,88,0,3248,4161.154,4171.41,4173.462,4183.333,4182.179,4183.205,4184.231,4178.077,4184.359,4183.59,4162.0509999999995,4154.103,4170.385,4164.487,0,0
158,89,0,1638,4153.846,4172.179,4168.462,4182.0509999999995,4171.41,4184.359,4180.769,4167.692,4182.692,4177.179,4162.821,4159.359,4170.128,4157.564,0,0
159,90,0,3085,4164.231,4179.103,4163.718,4183.974,4176.923,4183.077,4182.564,4175.513,4184.103,4178.974,4165.128,4160.897,4172.436,4156.282,0,0
160,91,0,3422,4171.154,4173.846,4164.872,4176.41,4181.026,4182.692,4180.641,4183.462,4184.231,4172.0509999999995,4170.255999999999,4159.744000000001,4169.231,4159.359,0,0
161,92,0,3248,4171.41,4170.769,4170.128,4168.718,4175.897,4181.154,4172.436,4174.872,4181.538,4164.359,4181.026,4161.41,4171.667,4173.077,0,0
162,93,0,1638,4178.59,4181.41,4173.333,4177.0509999999995,4178.333,4182.179,4174.231,4174.872,4180.513,4181.667,4185.255999999999,4162.692,4183.846,4188.974,0,0
163,94,0,3085,4183.462,4186.026,4172.821,4182.692,4186.538,4185.0,4186.026,4186.41,4183.846,4202.0509999999995,4183.462,4162.179,4192.179,4189.231,0,0
164,95,0,3422,4184.872,4182.692,4177.821,4174.103,4189.231,4183.59,4184.487,4186.923,4186.923,4205.769,4186.538,4166.154,4192.308,4187.564,0,0
165,96,0,3248,4184.872,4185.641,4185.128,4172.308,4186.667,4184.359,4172.692,4181.923,4187.308,4206.026,4178.59,4169.615,4189.487,4188.205,0,0
166,97,0,1638,4178.077,4183.846,4186.41,4175.0,4180.641,4184.615,4171.154,4178.974,4184.103,4201.282,4157.308,4168.462,4187.436,4176.538,0,0
167,98,0,3085,4167.0509999999995,4171.795,4182.179,4169.103,4179.359,4172.564,4169.231,4171.538,4177.821,4184.872,4156.667,4163.718,4184.359,4169.103,0,0
168,99,0,3422,4164.487,4169.872,4176.538,4168.846,4183.846,4165.513,4163.59,4169.487,4174.615,4175.513,4170.897,4163.077,4179.231,4169.231,0,0
169,100,0,3248,4168.333,4170.897,4172.436,4172.692,4177.0509999999995,4172.436,4164.872,4173.59,4176.41,4179.103,4164.487,4168.718,4173.462,4158.846,0,0
170,101,0,1638,4162.821,4161.538,4167.821,4168.846,4162.179,4170.385,4166.795,4176.667,4174.103,4175.897,4150.769,4169.487,4166.154,4147.692,0,0
171,102,0,3085,4156.795,4158.205,4166.667,4167.692,4162.692,4165.641,4168.333,4180.0,4168.462,4162.564,4152.308,4166.667,4159.103,4148.846,0,0
172,103,0,3422,4162.9490000000005,4167.692,4180.513,4170.128,4173.333,4177.821,4176.154,4183.59,4173.333,4159.872,4167.436,4172.179,4163.205,4160.897,0,0
173,104,0,3248,4173.718,4173.59,4197.179,4173.974,4177.564,4185.513,4184.487,4186.923,4184.615,4175.769,4179.231,4181.538,4178.718,4172.564,0,0
174,105,0,1638,4174.231,4170.255999999999,4194.872,4178.718,4169.231,4172.564,4183.462,4188.333,4185.897,4186.41,4165.641,4182.308,4182.0509999999995,4173.077,0,0
175,106,0,3085,4167.692,4166.667,4186.282,4178.205,4158.077,4167.692,4181.282,4188.077,4181.154,4186.41,4150.255999999999,4178.077,4174.231,4168.59,0,0
176,107,0,3422,4167.308,4167.821,4188.462,4172.179,4162.9490000000005,4180.513,4183.59,4187.821,4182.692,4184.359,4167.692,4178.205,4177.821,4164.744000000001,0,0
177,108,0,3248,4170.0,4170.769,4192.308,4170.255999999999,4173.462,4186.667,4184.487,4188.846,4186.154,4175.255999999999,4176.41,4178.718,4182.179,4160.513,0,0
178,109,0,1638,4172.692,4170.641,4189.231,4176.923,4173.462,4182.692,4184.231,4187.0509999999995,4182.0509999999995,4172.308,4156.538,4176.41,4179.359,4164.872,0,0
179,110,0,3085,4170.128,4167.179,4185.641,4178.846,4170.255999999999,4181.795,4184.103,4184.615,4176.923,4178.59,4156.026,4175.897,4178.846,4174.359,0,0
180,111,0,3422,4161.282,4165.641,4183.846,4172.692,4175.641,4185.513,4188.205,4187.821,4180.385,4175.769,4172.179,4177.692,4177.692,4169.744000000001,0,0
181,112,0,3248,4154.615,4161.667,4182.9490000000005,4169.872,4177.436,4181.923,4192.0509999999995,4188.718,4184.103,4164.615,4174.103,4177.179,4170.128,4163.462,0,0
182,113,0,1638,4157.436,4158.974,4181.795,4171.282,4169.615,4172.692,4182.0509999999995,4178.462,4176.795,4166.923,4169.872,4169.872,4164.872,4166.154,0,0
183,114,0,3085,4158.846,4160.128,4182.308,4171.538,4169.231,4174.231,4173.077,4171.667,4167.821,4177.436,4161.667,4166.923,4165.385,4162.821,0,0
184,115,0,3422,4154.744000000001,4162.308,4186.154,4172.9490000000005,4171.41,4183.333,4183.462,4181.41,4174.103,4181.154,4156.667,4171.667,4168.077,4160.385,0,0
185,116,0,3248,4160.769,4162.692,4188.077,4175.255999999999,4168.974,4185.897,4192.436,4190.128,4183.205,4177.692,4165.513,4175.128,4172.692,4163.333,0,0
186,117,0,1638,4170.769,4163.077,4185.641,4171.282,4172.179,4182.9490000000005,4183.846,4186.154,4181.795,4169.487,4170.128,4172.436,4173.077,4163.718,0,0
187,118,0,3085,4169.872,4166.538,4185.897,4169.487,4180.385,4184.231,4180.0,4183.974,4181.154,4168.333,4167.308,4172.0509999999995,4177.692,4165.769,0,0
188,119,0,3422,4168.974,4167.564,4186.667,4172.9490000000005,4177.308,4187.436,4189.872,4189.231,4186.282,4179.872,4166.282,4177.436,4187.436,4174.359,0,0
189,120,0,3248,4167.436,4160.513,4178.205,4173.462,4167.0509999999995,4183.205,4190.0,4190.255999999999,4187.436,4188.333,4159.103,4178.333,4184.103,4171.667,0,0
190,121,0,1638,4157.821,4150.128,4171.795,4164.872,4166.41,4175.255999999999,4177.308,4179.615,4183.077,4185.897,4158.59,4173.718,4174.872,4162.692,0,0
191,122,0,3085,4152.436,4150.385,4182.821,4154.103,4171.026,4170.897,4168.462,4172.0509999999995,4180.641,4176.795,4174.487,4174.487,4175.128,4164.487,0,0
192,123,0,3422,4158.077,4154.359,4188.205,4156.795,4166.538,4172.564,4173.077,4179.359,4182.821,4173.846,4172.564,4179.231,4177.179,4161.923,0,0
193,124,0,3248,4156.538,4150.385,4176.026,4167.0509999999995,4154.872,4179.359,4179.487,4187.436,4185.128,4176.667,4157.9490000000005,4175.385,4173.077,4154.359,0,0
194,125,0,1638,4152.179,4149.615,4174.615,4170.0,4151.795,4180.641,4176.538,4185.255999999999,4184.615,4176.538,4161.667,4171.41,4173.462,4154.744000000001,0,0
195,126,0,3085,4162.564,4159.487,4187.179,4167.9490000000005,4158.462,4173.462,4166.41,4182.179,4185.0,4181.154,4179.231,4175.641,4181.538,4167.308,0,0
196,127,0,52,4165.641,4158.59,4190.128,4167.0509999999995,4166.923,4175.128,4164.872,4184.359,4186.795,4183.974,4181.282,4177.692,4185.0,4168.846,0,0
197,0,0,2232,4152.564,4145.128,4186.667,4168.974,4178.59,4186.41,4178.077,4186.41,4186.154,4179.487,4170.128,4175.0,4184.231,4154.487,0,0
198,1,0,2610,4157.0509999999995,4147.0509999999995,4190.385,4171.795,4182.179,4186.538,4181.41,4186.154,4186.154,4180.255999999999,4170.385,4175.128,4185.0,4163.077,0,0
199,2,0,2865,4182.179,4160.255999999999,4193.718,4172.821,4176.41,4182.436,4176.026,4184.487,4189.487,4197.9490000000005,4187.692,4175.641,4188.59,4193.462,0,0
200,3,0,3034,4193.077,4157.0509999999995,4189.231,4173.462,4175.769,4182.821,4179.615,4186.026,4190.385,4213.205,4202.821,4177.564,4190.897,4206.923,0,0
201,4,0,3531,4189.103,4144.231,4183.846,4176.026,4176.667,4178.462,4179.615,4187.179,4185.897,4203.333,4202.0509999999995,4178.718,4186.667,4201.795,0,0
202,5,0,2031,4187.564,4137.436,4178.077,4167.308,4167.821,4177.179,4171.282,4181.41,4183.077,4186.026,4199.487,4175.255999999999,4183.462,4197.436,0,0
203,6,0,2379,4181.282,4132.179,4168.974,4151.667,4165.255999999999,4182.821,4173.718,4178.974,4184.744000000001,4185.513,4204.359,4173.846,4183.462,4194.103,0,0
204,7,0,1339,4178.077,4131.538,4167.821,4155.255999999999,4176.026,4185.769,4185.513,4183.974,4186.282,4197.179,4205.641,4177.179,4185.641,4198.974,0,0
205,8,0,1052,4182.9490000000005,4136.41,4176.41,4171.154,4176.538,4185.641,4184.872,4185.255999999999,4185.769,4203.59,4201.41,4178.077,4193.333,4204.744000000001,0,0
206,9,0,3528,4183.59,4137.0509999999995,4175.769,4170.641,4168.462,4183.077,4180.128,4183.333,4186.41,4208.718,4200.385,4175.769,4201.795,4202.308,0,0
207,10,0,3084,4182.821,4135.641,4171.154,4158.333,4167.564,4182.308,4181.41,4183.974,4187.179,4212.821,4193.462,4174.744000000001,4198.974,4204.103,0,0
208,11,0,3425,4185.897,4136.667,4181.41,4158.333,4173.077,4181.667,4182.436,4183.59,4185.897,4203.205,4159.103,4173.205,4191.795,4205.255999999999,0,0
209,12,0,3230,4182.436,4126.795,4186.154,4160.769,4171.667,4178.59,4181.795,4180.897,4184.872,4190.769,4140.897,4173.59,4191.154,4198.846,0,0
210,13,0,1637,4178.59,4107.692,4174.615,4153.846,4166.282,4180.0,4182.821,4180.513,4185.128,4186.154,4178.462,4173.718,4189.487,4200.897,0,0
211,14,0,3084,4182.0509999999995,4104.872,4173.077,4154.359,4170.513,4181.154,4184.103,4181.282,4186.154,4189.359,4211.026,4172.564,4184.872,4208.077,0,0
212,15,0,3425,4176.923,4107.564,4177.179,4159.231,4172.179,4176.923,4183.462,4182.564,4188.462,4196.026,4193.462,4169.744000000001,4185.897,4200.128,0,0
213,16,0,0,4165.769,4095.6409999999996,4168.846,4155.0,4166.795,4181.538,4186.923,4184.872,4189.487,4189.103,4176.282,4166.026,4185.128,4184.615,0,0
214,17,0,0,4166.154,4086.026,4164.231,4149.872,4164.359,4185.513,4189.615,4185.641,4186.795,4177.564,4184.872,4161.282,4176.923,4182.179,0,0
215,18,0,0,4170.385,4091.026,4170.897,4151.923,4161.41,4175.128,4187.436,4186.923,4185.385,4181.41,4186.538,4161.41,4171.538,4185.0,0,0
216,19,0,0,4162.692,4092.949,4166.667,4151.282,4156.667,4171.026,4188.59,4187.9490000000005,4188.077,4187.692,4183.718,4164.487,4176.026,4181.282,0,0
217,20,0,0,4158.718,4089.744,4154.615,4148.462,4158.462,4177.0509999999995,4182.564,4185.513,4188.59,4187.436,4189.615,4163.974,4180.128,4183.462,0,0
218,21,0,0,4166.923,4091.41,4152.821,4151.282,4164.359,4173.333,4168.974,4183.59,4184.744000000001,4185.513,4187.821,4161.026,4182.436,4189.744000000001,0,0
219,22,0,0,4169.487,4093.205,4159.744000000001,4155.897,4162.179,4170.255999999999,4174.487,4185.255999999999,4183.333,4184.231,4190.255999999999,4160.385,4180.513,4184.487,0,0
220,23,0,0,4167.9490000000005,4096.41,4167.821,4156.923,4162.821,4173.462,4186.282,4186.154,4185.513,4186.923,4205.769,4162.436,4174.872,4185.641,0,0
221,24,0,0,4170.641,4101.154,4169.103,4154.103,4162.821,4168.333,4177.564,4182.308,4186.026,4187.692,4201.154,4163.59,4175.385,4195.513,0,0
222,25,0,0,4167.436,4106.282,4168.077,4153.205,4156.154,4168.974,4166.026,4180.255999999999,4184.231,4176.795,4177.692,4161.795,4176.795,4188.846,0,0
223,26,0,0,4160.769,4118.974,4169.231,4154.872,4159.487,4179.487,4169.615,4182.308,4184.103,4174.872,4182.436,4159.744000000001,4176.154,4184.231,0,0
224,27,0,0,4165.897,4135.513,4170.769,4153.59,4166.923,4179.487,4177.436,4184.487,4186.538,4188.846,4205.513,4163.718,4180.513,4198.077,0,0
225,28,0,0,4177.308,4143.077,4170.0,4156.667,4169.487,4171.795,4178.718,4183.462,4187.436,4196.923,4206.795,4166.026,4185.385,4205.513,0,0
226,29,0,0,4183.718,4143.077,4168.462,4166.538,4169.231,4170.255999999999,4172.564,4180.255999999999,4185.769,4197.821,4200.641,4165.0,4181.667,4201.667,0,0
227,30,0,0,4183.718,4146.795,4171.282,4169.359,4169.231,4171.667,4170.769,4180.385,4185.513,4194.615,4204.359,4169.231,4177.821,4205.897,0,0
228,31,0,0,4184.231,4152.692,4179.487,4168.333,4166.538,4171.282,4173.462,4183.077,4185.897,4190.641,4201.923,4175.513,4184.615,4217.692,0,0
229,32,0,0,4195.385,4159.872,4183.077,4174.103,4171.282,4170.641,4171.154,4183.077,4186.795,4197.564,4206.41,4176.154,4194.615,4230.128,0,0
230,33,0,0,4199.872,4162.0509999999995,4178.846,4177.436,4183.333,4171.667,4175.255999999999,4181.154,4186.667,4198.974,4212.821,4172.692,4195.513,4231.667,0,0
231,34,0,0,4190.641,4160.769,4182.9490000000005,4178.846,4189.487,4178.974,4186.154,4181.923,4186.41,4193.846,4199.872,4171.41,4193.333,4218.974,0,0
232,35,0,0,4189.872,4166.795,4191.026,4186.282,4190.513,4186.923,4187.564,4185.128,4187.692,4199.359,4195.513,4175.0,4195.513,4213.718,0,0
233,36,0,0,4192.9490000000005,4171.154,4187.308,4188.333,4187.308,4185.897,4185.641,4186.795,4188.718,4201.282,4206.026,4177.0509999999995,4196.538,4219.231,0,0
234,37,0,0,4193.333,4172.692,4186.282,4185.513,4184.872,4183.077,4186.154,4184.103,4187.179,4194.231,4205.513,4169.231,4194.487,4221.41,0,0
235,38,0,0,4198.59,4175.641,4186.026,4186.667,4187.308,4183.846,4183.974,4177.436,4184.872,4196.41,4206.41,4165.0,4195.897,4219.872,0,0
236,39,0,0,4195.385,4166.795,4175.0,4181.282,4190.641,4186.282,4183.974,4177.692,4187.0509999999995,4203.462,4215.897,4173.077,4197.9490000000005,4218.718,0,0
237,40,0,0,4186.282,4162.436,4169.744000000001,4179.231,4187.0509999999995,4183.718,4187.179,4182.564,4188.846,4197.436,4209.231,4173.974,4193.846,4217.564,0,0
238,41,0,0,4196.41,4187.436,4174.615,4195.0,4183.333,4181.923,4184.103,4183.974,4185.769,4185.385,4196.282,4165.641,4188.462,4215.128,0,0
239,42,0,0,4203.205,4210.0,4169.615,4201.282,4186.795,4183.974,4175.513,4179.487,4183.718,4178.205,4196.026,4163.333,4185.385,4206.667,0,0
240,43,0,0,4182.692,4204.103,4159.872,4189.103,4191.41,4178.846,4167.9490000000005,4172.9490000000005,4184.231,4178.205,4186.282,4161.667,4187.308,4187.821,0,0
241,44,0,0,4167.0509999999995,4196.923,4157.692,4183.718,4189.744000000001,4170.641,4169.103,4171.923,4184.872,4177.179,4164.744000000001,4158.718,4188.718,4172.436,0,0
242,45,0,0,4168.077,4200.128,4156.41,4186.667,4182.564,4170.0,4173.846,4173.974,4184.487,4172.308,4159.231,4158.59,4186.026,4173.205,0,0
243,46,0,0,4169.359,4200.513,4162.436,4184.872,4182.9490000000005,4170.641,4172.179,4171.282,4179.231,4168.974,4172.564,4158.333,4184.359,4173.974,0,0
244,47,0,0,4168.718,4197.821,4168.59,4179.615,4189.359,4170.641,4170.0,4168.205,4176.154,4160.255999999999,4161.41,4153.205,4183.333,4164.487,0,0
245,48,0,0,4166.923,4197.436,4158.59,4180.385,4189.487,4172.692,4172.564,4172.436,4181.154,4143.333,4122.692,4150.641,4180.641,4158.846,0,0
246,49,0,0,4157.436,4197.308,4148.333,4184.231,4184.103,4171.282,4172.179,4171.538,4182.308,4141.282,4108.59,4148.462,4173.846,4162.9490000000005,0,0
247,50,0,0,4149.872,4191.795,4151.923,4178.077,4183.333,4167.564,4169.103,4171.026,4177.308,4160.128,4114.744000000001,4144.744000000001,4171.282,4161.282,0,0
248,51,0,0,4154.487,4192.179,4156.282,4172.692,4191.667,4170.0,4176.795,4179.231,4179.487,4176.282,4114.231,4143.077,4180.255999999999,4157.564,0,0
249,52,0,0,4152.692,4195.897,4153.077,4176.923,4193.59,4174.231,4186.538,4178.462,4184.615,4172.9490000000005,4116.538,4144.103,4183.59,4153.333,0,0
250,53,0,0,4142.692,4190.641,4152.308,4177.308,4184.359,4170.128,4180.128,4173.077,4182.436,4162.436,4122.564,4145.641,4178.462,4141.41,0,0
251,54,0,0,4145.513,4184.487,4153.974,4176.538,4183.462,4166.026,4174.872,4179.103,4181.538,4163.59,4123.974,4147.436,4181.923,4142.436,0,0
252,55,0,0,4156.923,4190.0,4154.359,4182.564,4197.692,4177.436,4185.513,4187.0509999999995,4184.744000000001,4168.077,4127.308,4148.462,4189.103,4162.436,0,0
253,56,0,0,4159.615,4195.128,4155.769,4185.641,4199.615,4182.692,4190.897,4185.513,4185.513,4166.538,4122.821,4147.436,4186.026,4168.205,0,0
254,57,0,0,4156.41,4191.154,4157.179,4183.59,4188.846,4171.154,4183.718,4184.615,4184.487,4166.41,4107.9490000000005,4145.769,4182.436,4157.0509999999995,0,0
255,58,0,0,4156.154,4191.282,4152.436,4184.487,4193.205,4172.308,4189.872,4188.718,4185.641,4172.308,4111.154,4145.769,4186.154,4160.0,0,0
256,59,0,0,4156.795,4191.923,4140.769,4186.538,4200.641,4186.026,4204.615,4189.231,4186.923,4169.359,4117.564,4145.255999999999,4182.436,4159.872,0,0
257,60,0,0,4155.128,4188.333,4136.538,4181.026,4195.128,4184.615,4198.462,4184.872,4184.103,4159.615,4114.615,4143.205,4177.692,4145.641,0,0
258,61,0,0,4153.718,4185.769,4147.821,4170.897,4189.744000000001,4181.026,4190.641,4184.231,4183.205,4165.128,4122.692,4146.282,4179.744000000001,4150.513,0,0
259,62,0,0,4156.026,4187.179,4153.462,4171.667,4191.538,4184.487,4197.0509999999995,4187.436,4186.282,4173.974,4127.436,4148.974,4181.026,4163.718,0,0
260,63,0,0,4159.744000000001,4187.821,4144.872,4184.231,4184.359,4177.436,4195.897,4186.41,4187.0509999999995,4165.769,4123.205,4148.974,4183.462,4159.231,0,0
261,64,0,2229,4157.0509999999995,4184.103,4137.179,4187.564,4174.744000000001,4168.077,4183.333,4181.538,4185.255999999999,4158.846,4130.769,4148.718,4183.59,4151.795,0,0
262,65,0,2613,4154.231,4185.128,4140.128,4177.9490000000005,4179.872,4170.641,4181.795,4180.513,4184.615,4165.128,4137.692,4148.974,4176.538,4152.692,0,0
263,66,0,2861,4157.9490000000005,4186.667,4144.359,4175.385,4187.0509999999995,4175.128,4186.795,4181.795,4184.103,4166.538,4130.255999999999,4149.359,4170.641,4153.077,0,0
264,67,0,3035,4157.308,4185.0,4149.231,4181.41,4187.308,4173.462,4181.026,4182.692,4182.436,4162.9490000000005,4125.769,4149.615,4170.897,4153.59,0,0
265,68,0,3532,4149.744000000001,4183.462,4151.923,4181.282,4187.564,4175.897,4177.179,4183.462,4182.692,4170.0,4129.359,4147.0509999999995,4176.026,4154.744000000001,0,0
266,69,0,2031,4147.0509999999995,4180.385,4142.564,4171.154,4185.385,4180.769,4181.538,4183.333,4184.872,4178.077,4133.974,4145.897,4180.128,4148.333,0,0
267,70,0,2377,4152.692,4177.179,4138.59,4164.744000000001,4175.769,4181.667,4183.718,4183.974,4184.359,4173.846,4143.205,4151.41,4178.462,4140.897,0,0
268,71,0,1339,4153.846,4175.255999999999,4148.718,4168.077,4176.41,4182.692,4183.462,4185.385,4183.333,4170.128,4142.308,4151.923,4175.0,4143.718,0,0
269,72,0,1051,4142.9490000000005,4173.462,4152.179,4166.282,4186.41,4178.205,4179.744000000001,4183.974,4183.462,4168.462,4128.205,4146.154,4174.744000000001,4144.487,0,0
270,73,0,3525,4140.641,4173.333,4151.282,4165.641,4187.0509999999995,4168.718,4177.821,4183.333,4182.821,4166.41,4127.564,4147.308,4177.308,4143.205,0,0
271,74,0,3083,4147.692,4173.462,4155.128,4171.923,4177.9490000000005,4167.564,4184.103,4186.154,4184.103,4170.128,4133.59,4151.667,4179.487,4150.769,0,0
272,75,0,3425,4144.487,4170.0,4149.359,4169.615,4169.487,4172.308,4187.692,4186.41,4185.641,4173.077,4129.615,4149.231,4179.615,4154.615,0,0
273,76,0,3237,4133.718,4166.538,4136.154,4155.255999999999,4164.872,4169.231,4176.795,4183.205,4184.103,4167.564,4109.359,4144.231,4172.821,4138.59,0,0
274,77,0,1634,4133.59,4166.282,4137.179,4151.795,4169.359,4168.718,4177.821,4183.974,4184.487,4169.744000000001,4100.128,4145.897,4170.0,4131.026,0,0
275,78,0,3083,4144.615,4169.744000000001,4148.846,4167.436,4180.897,4173.718,4186.41,4186.923,4186.538,4179.872,4126.282,4153.59,4177.308,4151.923,0,0
276,79,0,3425,4152.821,4176.41,4154.872,4175.897,4187.0509999999995,4172.0509999999995,4177.0509999999995,4186.026,4186.795,4173.718,4155.385,4156.667,4182.9490000000005,4163.974,0,0
277,80,0,3237,4155.769,4179.487,4160.0,4173.333,4183.718,4166.923,4165.769,4183.718,4184.744000000001,4164.872,4154.744000000001,4160.385,4181.667,4158.077,0,0
278,81,0,1634,4155.255999999999,4174.615,4163.846,4173.974,4181.026,4172.692,4168.718,4183.846,4182.692,4168.077,4139.744000000001,4165.128,4172.564,4156.41,0,0
279,82,0,3083,4151.795,4163.974,4157.692,4173.59,4181.923,4182.179,4180.255999999999,4186.538,4183.333,4168.077,4132.308,4164.231,4167.564,4157.821,0,0
280,83,0,3425,4152.564,4158.333,4150.255999999999,4171.282,4176.154,4177.0509999999995,4184.872,4186.795,4186.282,4172.564,4138.205,4162.9490000000005,4174.872,4166.41,0,0
281,84,0,3237,4162.564,4165.385,4152.821,4174.872,4168.846,4168.205,4174.359,4183.205,4186.154,4187.308,4160.769,4165.255999999999,4181.026,4183.974,0,0
282,85,0,1634,4172.564,4175.385,4160.385,4177.436,4166.282,4169.231,4166.154,4182.308,4184.744000000001,4191.154,4177.436,4169.103,4178.59,4192.9490000000005,0,0
283,86,0,3083,4176.282,4176.538,4165.128,4172.9490000000005,4169.103,4172.692,4178.077,4186.538,4186.795,4185.385,4171.923,4174.487,4179.872,4194.615,0,0
284,87,0,3425,4181.795,4173.205,4168.846,4169.103,4171.282,4172.308,4187.692,4190.385,4188.077,4184.615,4163.59,4177.179,4185.128,4200.641,0,0
285,88,0,3237,4187.436,4173.077,4173.205,4172.179,4169.487,4177.179,4184.487,4188.59,4187.0509999999995,4184.744000000001,4165.0,4175.513,4185.0,4202.308,0,0
286,89,0,1634,4187.436,4172.821,4174.872,4176.282,4167.9490000000005,4185.769,4187.9490000000005,4185.128,4185.897,4188.462,4170.128,4177.821,4182.821,4202.436,0,0
287,90,0,3083,4186.154,4175.513,4165.641,4174.615,4169.103,4182.308,4183.974,4183.974,4185.0,4193.718,4170.513,4175.641,4180.513,4199.359,0,0
288,91,0,3425,4184.744000000001,4181.538,4158.205,4170.641,4172.564,4171.41,4171.923,4184.744000000001,4184.103,4186.667,4171.667,4169.359,4178.974,4186.667,0,0
289,92,0,3237,4183.59,4184.744000000001,4167.564,4170.641,4172.692,4168.205,4174.744000000001,4185.255999999999,4184.359,4180.513,4171.538,4172.308,4179.744000000001,4191.41,0,0
290,93,0,1634,4185.385,4183.59,4178.718,4171.667,4169.872,4171.667,4186.923,4184.744000000001,4185.769,4182.692,4160.255999999999,4177.308,4177.308,4200.513,0,0
291,94,0,3083,4183.462,4179.487,4178.333,4171.154,4168.718,4170.128,4182.179,4185.255999999999,4185.641,4184.744000000001,4155.769,4173.462,4174.615,4186.026,0,0
292,95,0,3425,4177.564,4176.41,4178.59,4172.821,4167.436,4170.128,4170.385,4186.282,4185.0,4189.872,4172.436,4172.308,4175.897,4179.487,0,0
293,96,0,3237,4174.615,4172.308,4180.128,4171.154,4164.487,4169.744000000001,4168.974,4187.179,4185.897,4193.718,4177.564,4176.538,4178.462,4191.282,0,0
294,97,0,1634,4178.205,4169.615,4174.359,4168.846,4159.359,4169.615,4170.513,4187.436,4185.769,4188.205,4162.436,4175.769,4178.333,4188.846,0,0
295,98,0,3083,4183.846,4173.846,4171.026,4172.308,4161.026,4181.667,4176.026,4187.692,4184.487,4182.821,4160.128,4171.41,4177.179,4179.231,0,0
296,99,0,3425,4185.897,4183.077,4171.41,4171.282,4166.026,4186.154,4184.359,4190.897,4185.769,4183.846,4166.795,4173.846,4180.641,4191.154,0,0
297,100,0,3237,4185.769,4188.59,4171.795,4171.667,4168.077,4178.077,4188.718,4198.205,4188.462,4192.692,4172.692,4177.0509999999995,4187.308,4201.923,0,0
298,101,0,1634,4184.744000000001,4185.513,4169.615,4176.538,4170.0,4176.667,4188.846,4201.795,4188.846,4197.9490000000005,4177.436,4172.308,4183.077,4188.59,0,0
299,102,0,3083,4178.974,4181.41,4162.9490000000005,4176.026,4170.513,4176.41,4179.744000000001,4193.59,4186.923,4189.615,4172.692,4167.179,4172.9490000000005,4175.641,0,0
300,103,0,3425,4177.692,4187.436,4158.462,4175.513,4169.103,4168.205,4166.923,4182.821,4184.872,4184.359,4172.436,4170.897,4174.615,4185.769,0,0
301,104,0,3237,4188.846,4196.667,4164.872,4181.41,4169.359,4170.641,4167.564,4182.0509999999995,4184.103,4188.333,4184.615,4176.923,4177.436,4199.231,0,0
302,105,0,1634,4202.0509999999995,4204.231,4175.769,4185.385,4172.179,4176.795,4173.462,4187.9490000000005,4184.487,4185.513,4189.103,4178.462,4171.538,4205.128,0,0
303,106,0,3083,4224.487,4223.846,4183.077,4190.513,4171.538,4167.564,4167.308,4187.0509999999995,4184.487,4182.692,4191.538,4184.103,4168.846,4235.255999999999,0,0
304,107,0,3425,4276.41,4265.513,4201.41,4207.9490000000005,4174.872,4169.872,4171.154,4182.564,4184.231,4192.179,4224.231,4198.462,4177.0509999999995,4301.923,0,0
305,108,0,3237,4335.0,4308.846,4223.846,4225.513,4185.0,4185.0,4186.026,4185.769,4183.974,4199.872,4256.795,4215.641,4178.974,4367.308,0,0
306,109,0,1634,4374.872,4338.718,4226.795,4237.308,4189.615,4185.769,4186.923,4187.436,4184.615,4205.128,4262.0509999999995,4223.077,4170.897,4409.103,0,0
307,110,0,3083,4412.179,4366.026,4226.154,4246.282,4186.795,4180.769,4183.333,4182.692,4186.026,4215.513,4271.026,4229.487,4169.359,4446.538,0,0
308,111,0,3425,4445.897,4388.077,4240.897,4251.923,4189.872,4183.077,4187.308,4183.333,4186.41,4222.564,4290.0,4240.769,4176.667,4485.769,0,0
309,112,0,3237,4464.744000000001,4403.59,4253.846,4261.282,4199.359,4185.769,4188.333,4187.9490000000005,4186.41,4227.436,4294.744000000001,4248.59,4182.692,4512.821,0,0
310,113,0,1634,4479.103,4415.513,4254.231,4267.564,4206.026,4186.026,4186.282,4187.0509999999995,4188.205,4236.667,4293.462,4250.385,4185.769,4522.308,0,0
311,114,0,3083,4480.513,4409.615,4256.538,4263.205,4205.641,4186.667,4193.205,4192.179,4190.513,4228.718,4302.0509999999995,4248.974,4183.59,4518.718,0,0
312,115,0,3425,4470.128,4396.538,4254.744000000001,4262.564,4204.615,4186.154,4196.923,4199.487,4189.487,4213.846,4300.897,4249.359,4177.308,4513.077,0,0
313,116,0,3237,4467.308,4395.897,4246.538,4267.821,4204.615,4188.205,4191.154,4193.333,4188.333,4233.462,4295.641,4249.872,4180.385,4505.385,0,0
314,117,0,1634,4461.795,4391.282,4242.564,4259.103,4197.821,4188.077,4192.0509999999995,4185.513,4192.692,4254.359,4306.667,4245.769,4188.59,4495.0,0,0
315,118,0,3083,4448.718,4371.154,4236.795,4247.9490000000005,4193.846,4184.103,4198.077,4190.385,4198.333,4244.744000000001,4315.0,4241.026,4191.667,4492.179,0,0
316,119,0,3425,4439.744000000001,4352.436,4231.923,4251.41,4202.308,4187.9490000000005,4201.667,4195.255999999999,4199.615,4241.41,4308.205,4242.564,4195.641,4485.255999999999,0,0
317,120,0,3237,4421.795,4330.513,4233.333,4248.205,4209.231,4191.667,4202.9490000000005,4195.128,4197.821,4249.872,4296.282,4239.744000000001,4198.718,4454.103,0,0
318,121,0,1634,4386.538,4296.282,4231.41,4231.41,4201.795,4185.513,4196.282,4198.59,4198.333,4243.462,4279.872,4230.128,4193.718,4417.308,0,0
319,122,0,3083,4353.333,4264.615,4222.0509999999995,4214.744000000001,4190.128,4181.41,4190.769,4197.692,4198.205,4229.615,4259.103,4223.718,4187.0509999999995,4384.103,0,0
320,123,0,3425,4319.103,4238.462,4214.872,4204.359,4186.282,4184.615,4198.077,4191.154,4192.308,4218.846,4249.231,4216.923,4185.385,4344.615,0,0
321,124,0,3237,4286.667,4217.436,4208.333,4197.436,4187.564,4184.872,4196.41,4186.282,4186.667,4215.769,4246.154,4208.846,4186.795,4313.974,0,0
322,125,0,1634,4269.744000000001,4198.59,4200.128,4189.359,4186.795,4181.795,4176.923,4181.795,4185.255999999999,4218.333,4231.026,4206.538,4187.0509999999995,4291.41,0,0
323,126,0,3083,4252.308,4184.487,4191.667,4185.513,4182.308,4180.385,4173.59,4179.615,4185.255999999999,4202.179,4213.718,4202.436,4185.255999999999,4263.333,0,0
324,127,0,52,4232.0509999999995,4178.462,4185.128,4188.718,4181.795,4182.308,4186.923,4183.974,4186.154,4192.179,4212.821,4196.538,4185.255999999999,4243.462,0,0
325,0,0,2223,4220.513,4172.692,4183.462,4190.385,4184.615,4185.255999999999,4184.359,4187.692,4188.077,4212.179,4218.205,4192.9490000000005,4186.923,4233.59,0,0
326,1,0,2606,4210.0,4168.333,4185.255999999999,4187.436,4185.255999999999,4179.231,4170.385,4186.282,4187.436,4218.462,4209.231,4191.026,4186.41,4218.077,0,0
327,2,0,2857,4194.744000000001,4167.692,4182.9490000000005,4181.795,4185.128,4172.179,4166.923,4181.538,4185.0,4201.538,4197.564,4187.0509999999995,4184.487,4200.641,0,0
328,3,0,3030,4181.41,4162.0509999999995,4174.615,4172.0509999999995,4186.667,4181.923,4172.436,4175.513,4184.231,4191.282,4198.205,4180.897,4185.513,4186.026,0,0
329,4,0,3534,4169.744000000001,4145.769,4167.308,4165.255999999999,4186.282,4187.9490000000005,4174.359,4171.154,4184.103,4187.436,4192.308,4174.744000000001,4184.359,4171.026,0,0
330,5,0,2031,4162.564,4136.538,4168.974,4172.179,4182.564,4177.179,4170.897,4170.128,4185.897,4180.641,4175.128,4173.077,4180.769,4163.974,0,0
331,6,0,2375,4168.462,4141.282,4178.077,4183.462,4185.897,4175.255999999999,4170.0,4172.436,4185.769,4176.538,4171.795,4175.385,4180.769,4168.718,0,0
332,7,0,1339,4175.641,4145.897,4184.744000000001,4182.821,4191.538,4186.538,4178.333,4180.385,4184.487,4178.59,4187.308,4178.077,4183.333,4176.282,0,0
333,8,0,1051,4172.692,4140.641,4184.231,4169.872,4186.154,4184.231,4182.564,4187.9490000000005,4185.897,4186.923,4193.333,4177.692,4183.59,4173.846,0,0
334,9,0,3526,4168.205,4135.769,4181.923,4165.0,4177.308,4172.564,4172.308,4180.255999999999,4186.282,4190.641,4185.128,4175.0,4184.359,4169.103,0,0
335,10,0,3082,4170.641,4139.487,4182.692,4172.308,4174.231,4168.974,4159.872,4169.359,4184.103,4184.103,4186.667,4176.282,4188.974,4175.769,0,0
336,11,0,3418,4173.333,4141.41,4183.462,4171.41,4178.846,4174.744000000001,4167.692,4175.769,4184.359,4189.103,4196.282,4176.667,4188.205,4187.821,0,0
337,12,0,3234,4172.0509999999995,4140.0,4181.667,4167.0509999999995,4188.077,4184.615,4184.615,4187.9490000000005,4185.513,4200.513,4191.538,4175.641,4186.282,4185.769,0,0
338,13,0,1634,4169.103,4139.103,4175.385,4169.231,4185.897,4188.974,4187.9490000000005,4188.333,4184.872,4200.128,4184.103,4177.308,4193.462,4172.179,0,0
339,14,0,3082,4163.846,4134.487,4168.974,4165.0,4171.154,4181.41,4186.282,4185.255999999999,4184.744000000001,4186.923,4187.179,4177.564,4195.769,4166.923,0,0
340,15,0,3418,4156.538,4125.897,4169.359,4156.538,4168.846,4173.462,4187.0509999999995,4187.0509999999995,4185.385,4176.154,4188.59,4170.769,4190.641,4170.641,0,0
341,16,0,0,4152.308,4121.282,4171.282,4154.487,4176.282,4177.692,4185.641,4186.154,4185.513,4179.359,4185.513,4167.564,4188.59,4166.667,0,0
342,17,0,0,4152.692,4123.59,4169.487,4155.0,4177.308,4185.255999999999,4184.744000000001,4185.128,4185.385,4187.0509999999995,4178.846,4167.564,4188.462,4161.667,0,0
343,18,0,0,4152.0509999999995,4125.513,4167.308,4156.026,4178.718,4185.128,4189.487,4186.154,4184.615,4186.667,4166.538,4163.205,4184.487,4164.231,0,0
344,19,0,0,4153.718,4127.821,4167.564,4157.308,4181.795,4183.59,4189.744000000001,4187.0509999999995,4186.154,4183.974,4170.255999999999,4164.744000000001,4185.513,4163.205,0,0
345,20,0,0,4163.462,4133.718,4167.436,4159.231,4182.821,4185.513,4186.667,4186.154,4187.308,4184.231,4189.103,4173.718,4189.103,4160.385,0,0
346,21,0,0,4169.615,4139.231,4170.897,4166.667,4186.795,4186.923,4190.513,4184.359,4185.128,4184.359,4196.026,4178.205,4189.487,4170.769,0,0
347,22,0,0,4167.564,4139.615,4178.59,4175.641,4189.103,4184.615,4191.667,4186.795,4186.026,4190.385,4196.154,4177.0509999999995,4192.179,4186.41,0,0
348,23,0,0,4169.872,4141.795,4184.103,4175.128,4188.333,4182.179,4187.308,4184.359,4188.205,4187.821,4195.641,4177.692,4192.564,4190.769,0,0
349,24,0,0,4172.564,4148.333,4185.897,4172.0509999999995,4188.59,4184.231,4182.9490000000005,4176.923,4185.128,4181.667,4191.667,4179.103,4188.846,4185.128,0,0
350,25,0,0,4168.205,4149.872,4187.0509999999995,4173.462,4190.128,4186.026,4182.179,4180.128,4183.974,4193.462,4195.0,4179.872,4187.9490000000005,4180.897,0,0
351,26,0,0,4174.872,4149.103,4184.872,4170.641,4196.026,4183.974,4187.436,4188.462,4187.821,4206.795,4204.615,4178.974,4190.641,4186.923,0,0
352,27,0,0,4184.615,4150.769,4178.59,4169.615,4196.923,4183.077,4189.359,4186.667,4186.282,4203.59,4198.205,4177.308,4189.103,4190.513,0,0
353,28,0,0,4180.385,4145.128,4179.231,4174.103,4187.308,4184.231,4188.205,4183.59,4184.615,4200.0,4185.769,4177.0509999999995,4188.077,4185.385,0,0
354,29,0,0,4175.513,4131.667,4187.308,4174.231,4181.41,4184.744000000001,4190.128,4187.692,4188.718,4202.9490000000005,4191.026,4180.769,4196.923,4184.744000000001,0,0
355,30,0,0,4178.205,4141.923,4183.846,4176.282,4191.795,4185.385,4192.821,4189.359,4188.205,4200.513,4204.103,4181.538,4205.0,4189.872,0,0
356,31,0,0,4176.41,4170.255999999999,4171.667,4185.641,4200.0,4180.255999999999,4188.205,4185.769,4184.359,4192.821,4206.923,4175.641,4198.974,4185.513,0,0
357,32,0,0,4164.744000000001,4177.9490000000005,4168.462,4189.744000000001,4191.282,4173.718,4175.513,4178.59,4185.513,4177.308,4189.103,4166.667,4180.0,4166.795,0,0
358,33,0,0,4150.769,4173.205,4171.154,4180.897,4179.615,4172.564,4163.077,4170.128,4182.564,4153.462,4164.615,4162.692,4168.462,4143.846,0,0
359,34,0,0,4140.641,4177.692,4168.077,4170.128,4177.436,4171.667,4163.974,4167.821,4173.333,4143.462,4156.026,4158.205,4169.615,4128.974,0,0
360,35,0,0,4136.282,4178.846,4158.333,4168.205,4178.077,4176.923,4170.385,4169.744000000001,4169.359,4152.179,4155.769,4153.333,4165.641,4122.436,0,0
361,36,0,0,4137.436,4173.718,4149.359,4169.359,4175.769,4183.077,4164.231,4169.872,4171.41,4156.923,4141.538,4154.744000000001,4157.9490000000005,4121.282,0,0
362,37,0,0,4146.667,4180.769,4155.513,4169.744000000001,4181.154,4176.026,4160.641,4167.308,4171.667,4153.077,4140.513,4156.667,4163.974,4130.897,0,0
363,38,0,0,4155.0,4187.821,4166.538,4175.128,4188.077,4165.128,4166.41,4165.385,4172.0509999999995,4148.205,4168.333,4157.0509999999995,4172.179,4145.128,0,0
364,39,0,0,4151.667,4182.821,4160.513,4182.436,4181.795,4166.154,4165.0,4170.385,4176.538,4144.487,4175.641,4156.154,4167.436,4142.564,0,0
365,40,0,0,4151.667,4183.718,4154.359,4183.205,4177.436,4175.897,4163.718,4176.41,4181.282,4147.9490000000005,4162.308,4156.923,4165.769,4138.333,0,0
366,41,0,0,4160.0,4192.9490000000005,4161.41,4185.769,4185.897,4182.436,4171.538,4175.128,4185.641,4163.718,4166.795,4157.692,4173.846,4150.769,0,0
367,42,0,0,4161.154,4193.59,4160.0,4190.128,4188.077,4183.462,4175.513,4175.255999999999,4183.205,4172.308,4167.9490000000005,4158.846,4174.231,4151.667,0,0
368,43,0,0,4154.872,4184.103,4148.974,4184.872,4180.255999999999,4182.436,4169.744000000001,4181.667,4175.769,4163.205,4155.0,4157.179,4168.718,4135.769,0,0
369,44,0,0,4152.564,4180.255999999999,4149.487,4181.923,4177.179,4180.128,4170.513,4184.744000000001,4176.026,4153.462,4151.667,4153.846,4169.359,4136.667,0,0
370,45,0,0,4153.077,4182.9490000000005,4160.769,4186.282,4178.974,4171.795,4179.615,4183.974,4181.923,4153.462,4152.9490000000005,4153.718,4172.9490000000005,4143.846,0,0
371,46,0,0,4152.564,4178.974,4176.538,4178.846,4179.487,4168.846,4185.128,4184.487,4183.846,4158.077,4158.077,4157.0509999999995,4169.744000000001,4138.846,0,0
372,47,0,0,4152.436,4175.255999999999,4183.077,4171.795,4178.718,4177.564,4182.179,4184.231,4181.667,4160.897,4170.897,4160.128,4167.821,4144.103,0,0
373,48,0,0,4153.333,4179.872,4171.795,4181.923,4174.487,4183.333,4181.026,4184.615,4184.615,4167.564,4167.692,4158.333,4174.359,4151.538,0,0
374,49,0,0,4153.205,4180.0,4163.333,4183.718,4175.513,4183.59,4184.872,4186.667,4187.436,4174.487,4152.436,4155.255999999999,4176.282,4145.0,0,0
375,50,0,0,4151.795,4172.821,4168.846,4173.333,4185.255999999999,4183.205,4184.103,4185.255999999999,4184.872,4164.103,4156.026,4156.923,4169.487,4142.564,0,0
376,51,0,0,4150.641,4175.897,4178.718,4177.9490000000005,4188.718,4184.359,4185.769,4183.205,4181.41,4156.026,4171.923,4161.41,4169.615,4147.9490000000005,0,0
377,52,0,0,4157.0509999999995,4185.513,4184.872,4186.667,4186.026,4188.462,4185.385,4182.436,4182.179,4167.821,4171.795,4163.846,4176.026,4147.436,0,0
378,53,0,0,4167.436,4185.513,4185.769,4186.538,4188.59,4186.538,4175.897,4182.564,4185.0,4175.769,4165.128,4162.692,4177.564,4150.897,0,0
379,54,0,0,4170.513,4191.282,4185.641,4195.255999999999,4193.974,4180.0,4176.282,4184.487,4184.487,4173.205,4176.538,4163.462,4180.0,4166.026,0,0
380,55,0,0,4171.923,4199.487,4194.103,4205.897,4193.59,4183.718,4189.744000000001,4185.897,4185.641,4184.615,4192.692,4166.282,4188.59,4169.487,0,0
381,56,0,0,4174.359,4192.564,4193.077,4197.436,4188.077,4183.333,4187.436,4181.026,4186.667,4189.872,4183.59,4165.128,4184.615,4158.59,0,0
382,57,0,0,4164.615,4184.231,4173.462,4185.513,4180.0,4173.974,4172.692,4175.513,4183.718,4170.513,4169.103,4161.41,4173.462,4154.231,0,0
383,58,0,0,4155.641,4185.513,4163.718,4182.436,4176.538,4177.179,4176.154,4178.59,4181.795,4167.692,4176.538,4160.255999999999,4176.538,4157.308,0,0
384,59,0,0,4165.513,4187.308,4170.769,4186.538,4183.846,4187.821,4186.41,4184.231,4183.846,4182.564,4187.9490000000005,4165.385,4181.41,4157.0509999999995,0,0
385,60,0,0,4176.282,4192.0509999999995,4173.718,4197.179,4192.308,4188.205,4190.128,4186.667,4186.538,4186.282,4186.538,4172.0509999999995,4178.974,4161.154,0,0
386,61,0,0,4171.154,4196.41,4168.205,4197.179,4190.897,4183.846,4189.103,4187.308,4186.282,4181.667,4177.9490000000005,4172.564,4176.795,4170.128,0,0
387,62,0,0,4166.667,4190.641,4167.821,4190.513,4183.59,4182.179,4178.846,4182.0509999999995,4184.359,4177.0509999999995,4176.538,4170.769,4178.333,4167.692,0,0
388,63,0,0,4177.436,4193.205,4176.795,4197.0509999999995,4184.103,4181.538,4175.641,4177.436,4184.615,4177.436,4186.282,4176.154,4183.59,4165.897,0,0
389,64,0,2229,4189.487,4206.667,4188.205,4205.513,4197.821,4185.0,4183.974,4181.282,4185.255999999999,4178.077,4192.692,4182.9490000000005,4186.667,4175.128,0,0
390,65,0,2607,4181.41,4198.462,4189.615,4199.872,4201.026,4186.667,4178.205,4184.615,4183.846,4171.282,4185.769,4180.385,4179.872,4170.385,0,0
391,66,0,2866,4168.718,4183.333,4180.513,4195.513,4190.513,4184.231,4164.231,4182.821,4182.821,4171.538,4184.231,4174.744000000001,4176.154,4161.667,0,0
392,67,0,3034,4175.897,4189.744000000001,4177.692,4196.923,4189.487,4184.744000000001,4174.231,4184.103,4184.615,4185.385,4198.846,4176.923,4185.255999999999,4175.641,0,0
393,68,0,3535,4182.9490000000005,4189.744000000001,4181.795,4188.718,4193.59,4184.615,4187.9490000000005,4186.026,4185.897,4191.026,4202.564,4179.359,4188.077,4183.333,0,0
394,69,0,2031,4174.487,4174.103,4185.641,4184.231,4190.0,4184.615,4182.436,4183.205,4185.0,4184.487,4187.692,4177.821,4181.538,4169.872,0,0
395,70,0,2375,4168.59,4169.487,4185.0,4186.41,4187.692,4188.974,4183.462,4181.154,4183.462,4176.538,4173.462,4176.154,4177.179,4164.744000000001,0,0
396,71,0,1339,4169.103,4172.179,4177.0509999999995,4182.436,4187.692,4184.487,4185.769,4182.0509999999995,4183.59,4170.897,4168.974,4174.872,4178.718,4163.974,0,0
397,72,0,1051,4168.718,4166.41,4174.103,4179.615,4178.846,4169.359,4170.513,4181.923,4185.513,4176.667,4178.59,4174.231,4183.718,4157.436,0,0
398,73,0,3520,4170.0,4165.0,4182.308,4182.0509999999995,4178.59,4175.385,4169.615,4182.436,4186.154,4186.282,4192.821,4173.718,4184.615,4164.872,0,0
399,74,1,3480,4170.128,4165.641,4182.9490000000005,4182.821,4180.128,4176.41,4171.282,4182.564,4185.641,4183.333,4191.923,4173.846,4182.308,4165.641,0,0
400,75,1,3440,4170.255999999999,4166.282,4183.59,4183.59,4181.667,4177.436,4172.9490000000005,4182.692,4185.128,4180.385,4191.026,4173.974,4180.0,4166.41,0,0
401,76,1,3400,4170.385,4166.923,4184.231,4184.359,4183.205,4178.462,4174.615,4182.821,4184.615,4177.436,4190.128,4174.103,4177.692,4167.179,0,0
402,77,1,3360,4170.513,4167.564,4184.872,4185.128,4184.744000000001,4179.487,4176.282,4182.9490000000005,4184.103,4174.487,4189.231,4174.231,4175.385,4167.9490000000005,0,0
403,78,1,3320,4170.641,4168.205,4185.513,4185.897,4186.282,4180.513,4177.9490000000005,4183.077,4183.59,4171.538,4188.333,4174.359,4173.077,4168.718,0,0
404,79,1,3280,4170.769,4168.846,4186.154,4186.667,4187.821,4181.538,4179.615,4183.205,4183.077,4168.59,4187.436,4174.487,4170.769,4169.487,0,0
405,80,0,3238,4171.41,4169.487,4187.564,4187.9490000000005,4189.359,4182.692,4181.282,4183.462,4181.923,4165.0,4185.769,4174.744000000001,4168.462,4171.026,0,0
406,81,0,1637,4160.641,4168.846,4180.385,4182.308,4185.385,4181.923,4178.462,4185.0,4182.692,4162.179,4168.077,4172.692,4169.103,4154.103,0,0
407,82,0,3087,4157.9490000000005,4163.333,4171.923,4175.0,4180.769,4183.462,4180.769,4185.897,4183.333,4156.923,4162.179,4172.692,4170.255999999999,4148.59,0,0
408,83,0,3425,4165.0,4156.667,4177.179,4171.795,4178.462,4185.769,4187.9490000000005,4188.462,4185.128,4163.333,4165.769,4175.385,4171.41,4152.692,0,0
409,84,0,3238,4167.0509999999995,4159.487,4189.744000000001,4177.308,4172.692,4182.564,4183.59,4188.462,4185.385,4163.846,4162.179,4176.667,4171.282,4149.615,0,0
410,85,0,1637,4165.513,4170.128,4191.667,4184.359,4175.255999999999,4182.0509999999995,4180.513,4187.692,4183.59,4158.718,4161.795,4176.923,4168.462,4153.462,0,0
411,86,0,3087,4171.923,4176.795,4188.974,4187.436,4182.308,4181.923,4184.231,4185.769,4182.821,4169.744000000001,4177.9490000000005,4179.487,4170.128,4169.872,0,0
412,87,0,3425,4176.026,4174.103,4193.718,4188.462,4177.0509999999995,4173.59,4179.487,4181.41,4183.462,4175.769,4185.513,4181.154,4173.077,4169.744000000001,0,0
413,88,0,3238,4169.872,4168.718,4194.487,4184.231,4170.897,4171.154,4173.974,4177.692,4183.333,4167.821,4171.795,4176.154,4170.769,4153.846,0,0
414,89,0,1637,4167.0509999999995,4169.615,4187.9490000000005,4180.385,4180.513,4180.385,4172.692,4174.487,4183.462,4166.923,4165.255999999999,4170.897,4169.487,4152.436,0,0
415,90,0,3087,4172.821,4172.564,4182.308,4190.897,4188.974,4185.385,4169.872,4174.103,4182.9490000000005,4169.744000000001,4179.615,4172.821,4171.538,4159.872,0,0
416,91,0,3425,4180.255999999999,4172.821,4187.0509999999995,4200.0,4186.538,4185.385,4175.897,4181.026,4182.308,4166.41,4182.821,4177.692,4173.846,4151.538,0,0
417,92,0,3238,4181.667,4178.205,4198.462,4192.564,4192.0509999999995,4183.718,4186.026,4186.795,4185.385,4165.513,4173.205,4180.897,4176.026,4153.974,0,0
418,93,0,1637,4174.872,4181.667,4195.641,4184.615,4192.308,4175.128,4177.0509999999995,4177.308,4183.333,4170.769,4171.154,4179.487,4176.154,4168.846,0,0
419,94,0,3087,4167.564,4171.795,4178.077,4183.974,4172.308,4166.667,4161.923,4167.179,4177.0509999999995,4169.359,4169.359,4171.026,4170.641,4162.179,0,0
420,95,0,3425,4169.231,4165.0,4169.359,4181.154,4165.513,4172.0509999999995,4165.128,4175.641,4178.333,4168.974,4175.513,4170.128,4168.974,4154.615,0,0
421,96,0,3238,4179.744000000001,4176.282,4181.538,4182.436,4180.897,4183.077,4173.333,4186.923,4184.231,4177.0509999999995,4194.487,4183.59,4172.308,4171.154,0,0
422,97,0,1637,4187.0509999999995,4184.359,4199.872,4188.462,4182.0509999999995,4181.538,4174.872,4185.897,4183.59,4173.974,4194.744000000001,4189.872,4171.923,4178.333,0,0
423,98,0,3087,4181.795,4175.513,4202.0509999999995,4184.487,4171.026,4171.538,4172.436,4179.359,4181.154,4164.103,4171.41,4183.205,4169.359,4163.205,0,0
424,99,0,3425,4174.103,4169.359,4191.538,4179.359,4172.9490000000005,4168.59,4167.308,4177.564,4181.923,4162.564,4163.462,4180.769,4168.59,4157.436,0,0
425,100,0,3238,4172.692,4172.308,4189.487,4183.205,4176.41,4171.923,4167.9490000000005,4180.513,4184.103,4161.667,4174.359,4182.564,4167.821,4161.538,0,0
426,101,0,1637,4171.026,4170.128,4195.769,4185.897,4169.872,4169.359,4172.564,4183.59,4181.923,4153.205,4172.9490000000005,4180.255999999999,4161.538,4154.872,0,0
427,102,0,3087,4167.692,4166.795,4194.487,4178.718,4163.974,4168.718,4170.0,4181.795,4173.333,4146.282,4165.128,4178.205,4155.769,4150.0,0,0
428,103,0,3425,4169.103,4170.641,4188.205,4174.231,4165.769,4172.564,4166.538,4180.128,4173.846,4150.769,4172.9490000000005,4180.513,4156.282,4155.0,0,0
429,104,0,3238,4172.436,4172.692,4190.128,4181.538,4171.923,4170.897,4168.974,4183.077,4183.333,4159.872,4181.538,4186.538,4158.077,4161.026,0,0
430,105,0,1637,4171.923,4175.385,4201.026,4187.179,4177.9490000000005,4175.255999999999,4171.923,4186.154,4184.615,4165.641,4171.795,4187.564,4160.769,4165.513,0,0
431,106,0,3087,4171.154,4178.718,4202.9490000000005,4183.333,4174.231,4181.795,4170.385,4181.154,4180.513,4162.564,4167.564,4181.795,4160.641,4165.641,0,0
432,107,0,3425,4170.897,4174.487,4191.538,4181.923,4168.59,4176.667,4168.077,4172.564,4181.923,4160.897,4182.0509999999995,4176.41,4160.385,4162.0509999999995,0,0
433,108,0,3238,4168.59,4169.487,4188.974,4182.692,4170.255999999999,4168.718,4167.821,4177.0509999999995,4184.103,4162.436,4189.615,4173.462,4162.564,4161.923,0,0
434,109,0,1637,4170.385,4170.385,4195.513,4177.179,4171.538,4169.231,4171.41,4185.641,4182.564,4164.359,4187.436,4172.821,4166.795,4167.821,0,0
435,110,0,3087,4173.462,4171.667,4190.385,4170.897,4170.255999999999,4169.744000000001,4166.923,4177.9490000000005,4181.795,4166.667,4187.564,4177.179,4168.462,4173.718,0,0
436,111,0,3425,4172.436,4171.923,4177.308,4169.615,4168.718,4167.179,4153.462,4168.974,4183.333,4165.641,4185.128,4176.667,4168.333,4172.308,0,0
437,112,0,3238,4172.308,4173.974,4174.487,4176.026,4166.538,4171.026,4155.513,4173.718,4183.974,4166.667,4185.255999999999,4174.103,4170.128,4171.154,0,0
438,113,0,1637,4174.487,4176.282,4181.154,4184.487,4170.128,4174.744000000001,4170.128,4178.59,4183.462,4168.974,4186.667,4174.231,4169.487,4176.795,0,0
439,114,0,3087,4174.359,4181.538,4184.231,4181.026,4177.179,4174.231,4168.718,4180.0,4185.513,4171.282,4185.897,4171.667,4170.255999999999,4180.897,0,0
440,115,0,3425,4171.795,4183.333,4184.744000000001,4173.59,4179.615,4172.821,4157.564,4179.487,4182.179,4169.615,4189.872,4170.0,4170.897,4177.308,0,0
441,116,0,3238,4171.282,4177.0509999999995,4184.359,4171.923,4175.255999999999,4167.564,4154.103,4172.564,4176.282,4161.795,4190.0,4172.9490000000005,4165.641,4172.564,0,0
442,117,0,1637,4175.769,4175.128,4183.333,4171.795,4170.641,4166.026,4157.9490000000005,4168.462,4179.231,4157.436,4180.641,4174.231,4159.872,4168.974,0,0
443,118,0,3087,4185.255999999999,4183.718,4184.231,4178.205,4178.077,4177.436,4169.487,4176.154,4184.359,4162.564,4186.795,4174.615,4164.872,4177.0509999999995,0,0
444,119,0,3425,4190.385,4188.718,4187.436,4187.564,4186.667,4183.205,4172.308,4180.128,4183.974,4165.513,4198.462,4179.744000000001,4171.538,4189.744000000001,0,0
445,120,0,3238,4184.103,4182.821,4182.179,4180.385,4177.564,4171.282,4156.795,4172.0509999999995,4180.897,4161.026,4185.255999999999,4177.821,4166.923,4180.897,0,0
446,121,0,1637,4181.026,4178.333,4171.154,4168.077,4168.462,4167.0509999999995,4150.385,4168.077,4176.795,4157.9490000000005,4175.385,4171.41,4165.769,4167.9490000000005,0,0
447,122,0,3087,4183.974,4177.9490000000005,4170.897,4172.179,4177.308,4174.231,4158.205,4170.385,4172.308,4155.255999999999,4187.9490000000005,4170.513,4167.436,4175.0,0,0
448,123,0,3425,4178.974,4173.846,4178.462,4177.9490000000005,4179.231,4173.462,4158.077,4170.385,4172.308,4147.0509999999995,4184.615,4170.641,4158.333,4171.026,0,0
449,124,0,3238,4168.333,4169.359,4182.564,4175.0,4165.513,4170.897,4152.308,4170.385,4172.9490000000005,4142.692,4172.9490000000005,4168.846,4154.231,4156.41,0,0
450,125,0,1637,4167.9490000000005,4167.692,4183.59,4171.282,4166.41,4172.179,4152.821,4170.897,4171.026,4149.487,4187.0509999999995,4170.128,4161.41,4163.205,0,0
451,126,0,3087,4171.026,4168.077,4180.769,4168.718,4177.9490000000005,4168.974,4153.077,4170.0,4174.487,4158.59,4206.667,4171.026,4166.026,4172.436,0,0
452,127,0,52,4167.9490000000005,4174.872,4178.846,4174.487,4181.41,4169.872,4154.744000000001,4176.41,4181.923,4166.667,4208.333,4169.359,4167.564,4172.0509999999995,0,0
453,0,0,2228,4171.795,4184.231,4178.59,4185.641,4181.923,4175.897,4162.692,4182.9490000000005,4183.718,4178.462,4210.255999999999,4171.154,4173.077,4174.872,0,0
454,1,0,2607,4184.103,4187.564,4181.282,4187.179,4182.436,4172.692,4163.59,4179.103,4181.282,4183.205,4217.821,4176.154,4178.333,4182.436,0,0
455,2,0,2866,4190.0,4186.795,4185.769,4184.615,4181.026,4167.436,4156.538,4176.026,4182.308,4177.9490000000005,4215.128,4177.692,4177.821,4194.615,0,0
456,3,0,3034,4187.179,4186.795,4186.538,4188.077,4183.077,4175.641,4160.897,4181.41,4182.821,4173.846,4213.974,4177.9490000000005,4173.462,4202.0509999999995,0,0
457,4,0,3537,4186.538,4186.41,4186.538,4188.59,4184.359,4180.897,4168.077,4180.897,4182.0509999999995,4175.897,4220.641,4177.692,4170.897,4193.718,0,0
458,5,0,2031,4190.255999999999,4186.795,4181.795,4185.128,4184.744000000001,4176.795,4162.821,4172.436,4181.154,4180.385,4214.872,4177.436,4173.333,4185.255999999999,0,0
459,6,0,2374,4182.436,4182.692,4171.154,4178.846,4181.795,4179.103,4156.154,4168.718,4176.41,4176.282,4198.59,4173.846,4171.026,4181.41,0,0
460,7,0,1340,4174.231,4176.154,4165.641,4175.897,4171.154,4182.564,4156.923,4172.692,4175.897,4165.769,4195.128,4165.513,4169.872,4173.974,0,0
461,8,0,1051,4179.231,4181.282,4173.59,4181.923,4170.769,4181.41,4157.0509999999995,4177.179,4181.026,4167.9490000000005,4203.846,4162.821,4179.359,4179.231,0,0
462,9,0,3525,4178.846,4184.487,4174.359,4180.128,4184.487,4183.846,4155.769,4173.59,4180.769,4178.333,4201.41,4163.462,4185.769,4191.795,0,0
463,10,0,3086,4169.872,4173.718,4162.821,4167.821,4183.205,4178.974,4153.974,4168.718,4177.308,4175.128,4198.974,4161.026,4180.769,4183.205,0,0
464,11,0,3423,4174.359,4172.821,4167.308,4172.179,4174.359,4171.795,4158.59,4173.59,4179.359,4173.846,4212.9490000000005,4161.795,4177.692,4173.462,0,0
465,12,0,3235,4189.872,4187.436,4182.692,4188.718,4183.333,4180.769,4177.0509999999995,4183.205,4183.846,4188.077,4218.59,4171.667,4187.564,4189.744000000001,0,0
466,13,0,1635,4200.641,4192.436,4188.718,4190.255999999999,4196.923,4189.359,4187.179,4185.769,4185.769,4193.333,4212.436,4177.308,4195.385,4213.846,0,0
467,14,0,3086,4201.667,4187.436,4191.795,4185.513,4195.0,4181.026,4176.923,4180.641,4183.462,4182.436,4215.641,4173.462,4190.513,4216.026,0,0
468,15,0,3423,4191.026,4182.821,4196.154,4185.255999999999,4187.564,4175.128,4167.0509999999995,4178.974,4181.667,4178.846,4219.103,4169.103,4184.359,4202.308,0,0
469,16,0,0,4185.769,4182.0509999999995,4193.205,4185.641,4186.667,4183.462,4168.333,4179.487,4184.487,4190.641,4214.103,4169.231,4186.538,4195.255999999999,0,0
470,17,0,0,4189.615,4185.897,4182.0509999999995,4184.744000000001,4191.795,4185.513,4168.077,4172.821,4181.538,4192.436,4216.282,4166.282,4188.333,4193.846,0,0
471,18,0,0,4179.103,4181.923,4172.821,4182.179,4190.255999999999,4174.231,4158.462,4167.308,4176.923,4177.692,4214.487,4159.231,4183.333,4184.744000000001,0,0
472,19,0,0,4171.795,4177.692,4172.436,4181.538,4186.154,4171.923,4157.308,4177.0509999999995,4181.667,4176.026,4201.538,4158.077,4181.923,4178.974,0,0
473,20,0,0,4183.205,4185.897,4178.846,4184.744000000001,4193.846,4184.103,4172.564,4186.282,4187.308,4190.0,4203.974,4163.974,4190.897,4191.538,0,0
474,21,0,0,4189.872,4192.9490000000005,4185.897,4188.974,4202.692,4189.103,4186.538,4181.538,4185.641,4190.0,4217.0509999999995,4171.282,4199.103,4203.846,0,0
475,22,0,0,4187.9490000000005,4195.641,4187.692,4190.641,4205.128,4184.487,4184.615,4181.282,4184.231,4181.923,4216.026,4172.179,4201.667,4197.9490000000005,0,0
476,23,0,0,4183.59,4198.462,4182.436,4188.59,4205.128,4184.359,4174.615,4185.0,4184.872,4188.077,4208.846,4165.769,4202.179,4187.308,0,0
477,24,0,0,4176.282,4192.0509999999995,4171.026,4185.769,4203.974,4185.0,4172.436,4178.077,4182.9490000000005,4193.718,4204.487,4157.0509999999995,4202.436,4183.846,0,0
478,25,0,0,4174.103,4183.077,4167.0509999999995,4186.667,4202.692,4184.487,4180.897,4172.179,4180.769,4188.59,4202.821,4155.769,4197.821,4181.923,0,0
479,26,0,0,4183.077,4192.564,4170.513,4186.923,4201.795,4186.41,4190.0,4176.41,4181.923,4189.103,4209.359,4159.615,4195.255999999999,4186.667,0,0
480,27,0,0,4188.205,4201.538,4170.255999999999,4185.769,4199.231,4186.41,4182.692,4175.897,4184.231,4190.641,4216.538,4162.179,4199.103,4198.333,0,0
481,28,0,0,4186.667,4194.487,4169.231,4187.692,4197.564,4184.872,4169.231,4171.026,4183.205,4189.231,4215.641,4161.923,4201.282,4201.154,0,0
482,29,0,0,4187.308,4186.795,4169.487,4188.077,4200.0,4187.308,4176.538,4177.9490000000005,4181.923,4195.0,4217.9490000000005,4163.718,4199.359,4196.667,0,0
483,30,0,0,4185.641,4186.795,4170.385,4185.128,4203.974,4190.128,4190.769,4186.667,4184.103,4200.385,4220.513,4164.872,4197.179,4191.538,0,0
484,31,0,0,4184.359,4191.667,4171.026,4184.103,4206.667,4185.0,4187.308,4184.744000000001,4186.026,4194.744000000001,4213.077,4162.564,4199.872,4184.744000000001,0,0
485,32,0,0,4187.0509999999995,4197.692,4171.026,4188.205,4210.897,4188.59,4186.154,4184.872,4187.308,4197.436,4214.231,4162.821,4209.103,4187.9490000000005,0,0
486,33,0,0,4187.308,4198.462,4170.255999999999,4193.718,4213.974,4200.641,4200.897,4187.436,4188.59,4213.974,4226.41,4163.333,4213.333,4196.282,0,0
487,34,0,0,4183.59,4191.667,4171.026,4190.255999999999,4207.692,4195.641,4200.385,4185.897,4186.667,4213.59,4220.513,4162.0509999999995,4204.744000000001,4191.667,0,0
488,35,0,0,4182.179,4188.462,4173.974,4182.436,4200.897,4182.9490000000005,4185.513,4186.282,4185.897,4201.923,4211.026,4162.436,4200.255999999999,4185.0,0,0
489,36,0,0,4185.128,4189.359,4174.231,4183.205,4199.744000000001,4184.615,4183.718,4188.333,4188.205,4203.462,4222.9490000000005,4163.333,4205.769,4186.923,0,0
490,37,0,0,4184.103,4186.538,4169.872,4185.0,4200.513,4188.077,4185.128,4183.846,4185.641,4204.231,4221.026,4161.538,4203.974,4191.154,0,0
491,38,0,0,4181.538,4184.615,4165.385,4180.513,4198.718,4184.359,4185.128,4181.282,4181.538,4190.0,4201.667,4162.9490000000005,4195.769,4194.744000000001,0,0
492,39,0,0,4188.846,4186.026,4170.769,4183.718,4199.103,4187.179,4191.795,4183.846,4183.205,4184.615,4205.897,4169.359,4197.692,4201.41,0,0
493,40,0,0,4197.564,4188.077,4181.538,4191.026,4202.179,4190.897,4192.692,4186.667,4186.026,4194.744000000001,4217.564,4174.103,4203.59,4204.744000000001,0,0
494,41,0,0,4192.0509999999995,4191.026,4178.333,4185.513,4200.769,4185.897,4184.872,4186.538,4185.769,4199.744000000001,4210.513,4168.846,4199.872,4201.538,0,0
495,42,0,0,4183.718,4193.462,4166.667,4183.846,4198.333,4188.333,4184.231,4182.308,4184.359,4199.744000000001,4202.9490000000005,4162.692,4194.615,4197.308,0,0
496,43,0,0,4193.462,4196.795,4167.821,4196.667,4202.308,4201.41,4190.128,4179.872,4184.615,4200.897,4206.795,4164.359,4198.462,4197.564,0,0
497,44,0,0,4200.769,4198.974,4176.154,4199.359,4206.41,4201.154,4182.0509999999995,4182.9490000000005,4186.538,4202.308,4211.154,4168.333,4203.205,4205.769,0,0
498,45,0,0,4190.128,4196.282,4173.205,4192.821,4204.359,4186.154,4168.077,4181.923,4186.667,4200.255999999999,4215.641,4164.872,4200.513,4201.923,0,0
499,46,0,0,4183.205,4197.179,4168.974,4195.385,4202.308,4183.718,4175.0,4180.641,4185.897,4197.179,4211.538,4161.923,4199.359,4184.359,0,0
500,47,0,0,4189.615,4201.667,4173.974,4198.333,4206.538,4189.872,4183.333,4184.103,4186.795,4200.255999999999,4203.333,4163.077,4203.333,4186.538,0,0
501,48,0,0,4195.0,4202.821,4182.0509999999995,4195.255999999999,4208.718,4186.923,4170.255999999999,4184.359,4186.154,4204.231,4212.179,4162.308,4203.846,4208.205,0,0
502,49,0,0,4195.513,4202.179,4182.9490000000005,4198.974,4208.59,4184.359,4163.205,4183.077,4184.359,4202.308,4222.436,4161.923,4201.026,4212.436,0,0
503,50,0,0,4194.359,4202.0509999999995,4177.436,4198.59,4207.9490000000005,4188.59,4175.255999999999,4183.974,4185.513,4203.718,4220.513,4162.308,4201.795,4199.744000000001,0,0
504,51,0,0,4189.359,4197.564,4174.103,4188.59,4205.255999999999,4188.333,4176.41,4184.103,4186.154,4206.538,4213.974,4161.667,4200.641,4197.436,0,0
505,52,0,0,4189.103,4195.0,4174.487,4184.359,4201.667,4185.513,4167.308,4184.487,4184.615,4201.282,4207.821,4163.077,4197.821,4200.128,0,0
506,53,0,0,4194.872,4198.205,4178.974,4185.897,4202.308,4191.795,4172.179,4185.641,4184.872,4200.897,4202.9490000000005,4165.255999999999,4201.41,4200.385,0,0
507,54,0,0,4198.462,4200.641,4185.255999999999,4191.795,4208.333,4201.154,4182.564,4184.615,4185.897,4209.615,4208.462,4166.026,4205.128,4202.179,0,0
508,55,0,0,4196.795,4197.308,4185.128,4195.769,4207.9490000000005,4202.179,4188.462,4185.897,4187.0509999999995,4208.718,4217.179,4166.41,4200.0,4201.282,0,0
509,56,0,0,4191.026,4194.359,4177.564,4189.359,4198.59,4193.462,4185.385,4187.0509999999995,4186.667,4197.436,4211.538,4164.103,4197.308,4195.513,0,0
510,57,0,0,4188.59,4198.974,4172.9490000000005,4184.744000000001,4197.692,4188.59,4181.923,4183.59,4185.128,4192.692,4201.282,4161.026,4203.59,4192.436,0,0
511,58,0,0,4187.692,4202.821,4171.282,4187.9490000000005,4203.718,4189.487,4185.513,4183.333,4186.154,4194.359,4200.641,4161.026,4205.385,4192.179,0,0
512,59,0,0,4182.692,4195.385,4168.846,4187.308,4200.255999999999,4186.154,4179.359,4185.385,4188.974,4196.154,4198.462,4162.308,4202.0509999999995,4183.59,0,0
513,60,0,0,4180.513,4190.385,4171.538,4184.487,4195.128,4191.154,4171.282,4185.769,4188.718,4199.103,4193.59,4159.615,4203.077,4177.692,0,0
514,61,0,0,4179.615,4190.0,4173.205,4186.026,4198.205,4198.077,4172.308,4186.282,4186.154,4196.154,4194.231,4160.0,4198.718,4181.154,0,0
515,62,0,0,4172.821,4188.205,4170.769,4182.692,4196.923,4193.333,4174.744000000001,4186.667,4185.641,4184.487,4188.205,4163.462,4189.744000000001,4180.769,0,0
516,63,0,0,4175.255999999999,4190.513,4171.026,4181.667,4194.872,4189.487,4174.872,4186.41,4186.667,4180.0,4182.0509999999995,4165.513,4190.641,4179.872,0,0
517,64,0,2232,4187.179,4195.513,4175.0,4187.436,4200.769,4195.513,4174.744000000001,4186.026,4189.103,4191.41,4190.0,4166.41,4200.385,4184.359,0,0
518,65,0,2610,4185.513,4192.821,4172.0509999999995,4186.154,4200.128,4198.333,4168.974,4185.0,4190.255999999999,4198.59,4189.872,4164.231,4201.282,4185.385,0,0
519,66,0,2866,4179.487,4187.308,4163.718,4183.974,4187.308,4193.077,4165.0,4184.744000000001,4187.179,4185.255999999999,4178.462,4162.436,4192.821,4183.077,0,0
520,67,0,3034,4185.0,4186.282,4164.615,4183.59,4182.436,4187.692,4172.179,4185.641,4184.359,4169.359,4181.667,4163.59,4188.59,4179.487,0,0
521,68,0,3538,4181.795,4182.0509999999995,4171.41,4174.872,4186.282,4184.744000000001,4171.154,4183.462,4184.744000000001,4166.538,4187.564,4163.077,4188.462,4172.564,0,0
522,69,0,2031,4171.41,4180.513,4170.385,4171.154,4186.026,4185.513,4166.667,4182.179,4185.255999999999,4174.231,4181.795,4160.385,4186.41,4173.846,0,0
523,70,0,2376,4176.154,4184.231,4171.667,4182.821,4188.718,4186.667,4177.821,4186.41,4185.0,4183.077,4188.205,4165.641,4186.923,4183.974,0,0
524,71,0,1341,4187.179,4187.436,4185.385,4190.769,4197.179,4189.231,4185.255999999999,4188.846,4186.154,4193.333,4198.974,4173.718,4197.692,4195.128,0,0
525,72,0,1051,4183.333,4187.0509999999995,4190.385,4181.154,4196.923,4198.205,4183.718,4188.462,4187.308,4200.128,4190.769,4174.615,4201.154,4192.308,0,0
526,73,0,3528,4170.897,4178.205,4178.718,4170.769,4187.436,4198.333,4185.128,4188.718,4186.282,4191.667,4186.026,4172.436,4190.769,4176.41,0,0
527,74,0,3087,4167.436,4170.513,4174.359,4170.769,4180.0,4189.487,4181.282,4186.154,4182.692,4170.641,4179.359,4171.795,4181.154,4167.9490000000005,0,0
528,75,0,3428,4167.308,4167.564,4177.564,4171.282,4172.308,4185.0,4169.744000000001,4180.641,4181.795,4161.41,4156.538,4172.564,4173.974,4161.795,0,0
529,76,0,3240,4165.513,4162.692,4179.103,4168.333,4165.0,4186.026,4169.231,4181.41,4184.231,4162.821,4151.923,4177.436,4167.0509999999995,4150.897,0,0
530,77,0,1642,4167.0509999999995,4161.667,4185.255999999999,4168.718,4166.667,4188.077,4179.744000000001,4187.0509999999995,4183.077,4160.0,4174.231,4184.231,4167.179,4158.205,0,0
531,78,0,3087,4169.744000000001,4163.846,4189.872,4171.538,4164.615,4186.154,4183.59,4186.923,4181.923,4158.205,4175.255999999999,4189.487,4171.795,4169.744000000001,0,0
532,79,0,3428,4168.974,4164.231,4186.154,4171.026,4160.897,4184.359,4182.821,4184.231,4185.0,4157.821,4160.385,4193.462,4170.769,4162.308,0,0
533,80,0,3240,4170.769,4167.692,4184.744000000001,4171.282,4166.282,4192.564,4184.615,4185.0,4184.615,4156.154,4172.0509999999995,4191.282,4168.846,4161.41,0,0
534,81,0,1642,4173.718,4168.077,4188.205,4175.128,4163.462,4196.923,4185.0,4185.513,4181.923,4157.179,4183.462,4183.974,4170.513,4168.846,0,0
535,82,0,3087,4169.231,4157.564,4186.538,4171.538,4150.513,4187.436,4176.538,4182.0509999999995,4183.462,4155.897,4172.564,4179.359,4164.744000000001,4156.538,0,0
536,83,0,3428,4164.872,4152.821,4185.769,4160.255999999999,4148.333,4181.026,4171.41,4181.667,4183.333,4147.308,4163.718,4180.641,4156.154,4144.103,0,0
537,84,0,3240,4167.436,4156.923,4187.0509999999995,4157.308,4156.026,4186.795,4180.769,4185.385,4181.282,4147.308,4170.128,4179.615,4161.154,4152.308,0,0
538,85,0,1642,4167.308,4153.846,4184.744000000001,4164.231,4153.974,4189.615,4186.538,4185.641,4183.462,4154.231,4171.282,4179.231,4169.744000000001,4161.667,0,0
539,86,0,3087,4165.0,4154.487,4187.308,4170.385,4146.538,4184.359,4181.923,4183.846,4184.487,4158.846,4165.641,4185.769,4169.231,4164.359,0,0
540,87,0,3428,4169.487,4166.795,4195.128,4173.333,4152.564,4186.795,4182.179,4186.026,4183.205,4166.795,4175.255999999999,4188.974,4169.231,4168.462,0,0
541,88,0,3240,4172.564,4173.333,4193.718,4174.103,4166.154,4195.255999999999,4183.974,4188.205,4185.255999999999,4173.974,4187.564,4180.0,4172.0509999999995,4171.538,0,0
542,89,0,1642,4168.974,4167.0509999999995,4182.0509999999995,4171.923,4165.255999999999,4191.282,4174.615,4185.897,4181.795,4165.128,4180.255999999999,4176.923,4169.103,4167.9490000000005,0,0
543,90,0,3087,4172.179,4162.564,4182.0509999999995,4174.744000000001,4158.462,4182.821,4164.487,4183.846,4174.615,4156.026,4172.308,4185.769,4165.769,4171.154,0,0
544,91,0,3428,4184.231,4169.615,4199.103,4184.744000000001,4168.205,4190.769,4173.205,4186.923,4177.821,4165.0,4183.718,4192.308,4166.923,4184.872,0,0
545,92,0,3240,4189.744000000001,4173.462,4208.718,4187.564,4176.923,4197.179,4189.359,4189.231,4185.128,4172.9490000000005,4192.436,4192.821,4172.564,4190.769,0,0
546,93,0,1642,4184.487,4169.231,4203.333,4179.615,4166.923,4187.9490000000005,4183.205,4185.769,4183.846,4168.077,4188.59,4192.692,4178.333,4184.872,0,0
547,94,0,3087,4182.821,4168.974,4200.769,4170.897,4162.821,4183.462,4168.974,4183.462,4181.795,4169.872,4188.59,4190.128,4179.487,4180.128,0,0
548,95,0,3428,4183.333,4168.846,4203.718,4170.0,4165.769,4187.0509999999995,4176.795,4185.641,4185.0,4179.103,4188.462,4189.231,4182.564,4179.487,0,0
549,96,0,3240,4177.436,4161.026,4197.692,4171.538,4158.974,4185.385,4188.205,4187.821,4185.641,4178.333,4182.9490000000005,4192.564,4188.333,4176.923,0,0
550,97,0,1642,4169.744000000001,4155.385,4191.154,4171.282,4153.077,4184.103,4183.333,4188.846,4183.718,4172.821,4185.255999999999,4190.255999999999,4181.538,4172.308,0,0
551,98,0,3087,4167.564,4155.128,4194.359,4170.385,4157.436,4188.974,4178.718,4185.255999999999,4183.462,4170.128,4184.231,4180.641,4170.513,4163.205,0,0
552,99,0,3428,4168.846,4153.333,4194.487,4168.205,4163.205,4199.744000000001,4187.564,4187.821,4184.744000000001,4170.255999999999,4169.744000000001,4181.026,4172.436,4160.255999999999,0,0
553,100,0,3240,4169.231,4153.077,4186.667,4168.077,4166.282,4202.564,4194.744000000001,4197.308,4186.538,4167.436,4165.513,4189.615,4176.41,4169.487,0,0
554,101,0,1642,4165.769,4152.0509999999995,4180.769,4164.744000000001,4164.744000000001,4188.846,4181.41,4191.923,4183.59,4157.179,4168.846,4185.255999999999,4170.128,4171.795,0,0
555,102,0,3087,4161.923,4147.436,4187.9490000000005,4157.308,4154.744000000001,4179.359,4167.564,4181.026,4180.385,4153.077,4168.462,4179.359,4166.538,4165.128,0,0
556,103,0,3428,4171.538,4156.923,4201.923,4161.667,4157.308,4187.564,4182.692,4186.282,4183.59,4164.487,4181.667,4188.59,4177.179,4173.718,0,0
557,104,0,3240,4187.9490000000005,4173.462,4202.436,4177.0509999999995,4172.564,4195.897,4199.872,4190.0,4185.897,4170.385,4202.0509999999995,4197.179,4185.0,4190.385,0,0
558,105,0,1642,4188.333,4171.026,4189.103,4177.179,4171.282,4189.744000000001,4189.872,4183.205,4182.308,4166.538,4200.0,4191.41,4181.923,4186.154,0,0
559,106,0,3087,4181.538,4161.923,4187.308,4165.769,4165.385,4185.641,4184.872,4184.744000000001,4181.795,4174.615,4188.077,4187.436,4182.308,4178.846,0,0
560,107,0,3428,4191.538,4172.564,4195.255999999999,4171.795,4176.667,4196.538,4200.0,4189.615,4186.282,4184.615,4194.231,4193.846,4188.205,4193.333,0,0
561,108,0,3240,4202.436,4184.103,4192.564,4188.077,4182.692,4203.59,4204.231,4188.59,4186.795,4183.205,4204.872,4196.538,4189.359,4206.282,0,0
562,109,0,1642,4192.564,4176.538,4185.897,4186.923,4174.615,4191.795,4191.795,4186.282,4183.205,4182.821,4206.026,4187.436,4185.255999999999,4194.872,0,0
563,110,0,3087,4180.641,4167.9490000000005,4185.897,4171.154,4176.282,4181.282,4184.231,4183.462,4182.436,4188.59,4196.154,4180.255999999999,4181.667,4182.436,0,0
564,111,0,3428,4178.462,4167.564,4187.821,4169.487,4183.077,4191.538,4186.282,4183.846,4184.231,4183.846,4184.103,4178.462,4179.487,4183.974,0,0
565,112,0,3240,4178.846,4168.333,4183.974,4180.128,4179.487,4200.769,4186.538,4185.641,4185.641,4172.692,4190.0,4174.615,4180.513,4184.744000000001,0,0
566,113,0,1642,4180.513,4168.59,4182.308,4175.513,4178.205,4193.077,4186.538,4184.359,4185.897,4176.154,4197.821,4172.564,4181.282,4182.564,0,0
567,114,0,3087,4184.103,4168.974,4193.718,4167.9490000000005,4184.487,4186.923,4192.436,4183.974,4184.872,4183.205,4192.821,4175.255999999999,4181.282,4187.9490000000005,0,0
568,115,0,3428,4185.0,4171.923,4200.128,4177.9490000000005,4184.231,4186.41,4190.513,4185.641,4184.359,4184.359,4199.231,4179.103,4184.487,4196.923,0,0
569,116,0,3240,4186.667,4180.769,4191.154,4186.41,4183.59,4185.0,4184.872,4190.128,4184.359,4192.436,4212.9490000000005,4181.538,4185.769,4201.538,0,0
570,117,0,1642,4190.385,4186.282,4186.923,4183.333,4189.744000000001,4195.255999999999,4197.821,4194.487,4184.231,4201.41,4209.487,4181.282,4186.026,4201.923,0,0
571,118,0,3087,4190.513,4185.255999999999,4190.641,4186.795,4191.026,4202.564,4202.692,4190.0,4184.359,4197.821,4204.872,4177.308,4192.308,4203.333,0,0
572,119,0,3428,4188.974,4183.718,4190.0,4186.026,4186.154,4192.436,4185.769,4183.846,4185.897,4196.026,4202.821,4178.205,4195.641,4199.359,0,0
573,120,0,3240,4185.385,4178.205,4186.795,4172.0509999999995,4184.231,4192.692,4187.179,4185.897,4185.385,4199.744000000001,4193.462,4178.333,4190.769,4190.128,0,0
574,121,0,1642,4181.795,4170.255999999999,4185.0,4172.692,4181.538,4202.0509999999995,4202.9490000000005,4186.282,4182.821,4188.462,4194.487,4172.0509999999995,4185.513,4183.333,0,0
575,122,0,3087,4182.821,4171.282,4184.615,4183.718,4178.718,4193.718,4201.795,4183.718,4184.231,4177.9490000000005,4207.9490000000005,4169.615,4185.641,4185.385,0,0
576,123,0,3428,4185.897,4174.615,4186.154,4181.795,4183.333,4183.59,4195.385,4184.487,4185.897,4183.077,4211.154,4171.538,4185.897,4193.205,0,0
577,124,0,3240,4187.179,4172.9490000000005,4179.487,4181.538,4186.538,4189.744000000001,4191.923,4183.205,4184.231,4189.487,4203.846,4171.41,4188.077,4196.795,0,0
578,125,0,1642,4185.769,4171.41,4173.205,4181.026,4181.667,4197.564,4187.564,4180.641,4183.333,4188.333,4192.179,4168.718,4192.0509999999995,4189.872,0,0
579,126,0,3087,4183.333,4168.974,4175.897,4170.513,4180.128,4200.0,4191.154,4186.154,4185.128,4188.077,4190.255999999999,4164.359,4192.0509999999995,4188.846,0,0
580,127,0,52,4184.231,4170.0,4183.333,4172.0509999999995,4183.077,4195.897,4199.872,4191.795,4186.923,4196.154,4207.436,4168.59,4197.179,4201.282,0,0
581,0,0,2223,4188.077,4180.513,4190.513,4186.282,4185.897,4188.846,4201.026,4190.385,4185.513,4204.231,4211.538,4176.154,4202.436,4198.462,0,0
582,1,0,2609,4187.0509999999995,4183.846,4189.615,4186.795,4187.692,4185.255999999999,4196.795,4187.179,4186.41,4207.9490000000005,4198.846,4170.385,4199.359,4187.692,0,0
583,2,0,2865,4182.308,4174.615,4183.333,4177.692,4191.154,4185.641,4194.487,4187.9490000000005,4188.59,4207.564,4206.282,4165.255999999999,4195.641,4196.154,0,0
584,3,0,3032,4182.436,4174.487,4183.333,4177.821,4193.718,4191.154,4197.0509999999995,4189.231,4186.026,4201.026,4216.667,4170.897,4197.821,4205.513,0,0
585,4,0,3533,4186.41,4184.615,4185.769,4184.231,4192.0509999999995,4197.821,4205.513,4188.846,4183.846,4197.564,4205.0,4173.718,4198.974,4200.255999999999,0,0
586,5,0,2031,4189.744000000001,4187.308,4179.872,4189.744000000001,4196.282,4198.974,4210.385,4189.487,4186.026,4203.333,4205.641,4172.821,4200.0,4195.897,0,0
587,6,0,2376,4186.538,4184.615,4177.0509999999995,4184.487,4200.255999999999,4196.795,4206.026,4186.923,4186.667,4209.103,4216.538,4172.436,4202.0509999999995,4200.385,0,0
588,7,0,1337,4186.026,4185.513,4178.462,4177.692,4198.077,4200.769,4201.154,4183.59,4185.641,4211.282,4210.0,4166.923,4199.744000000001,4209.103,0,0
589,8,0,1051,4192.692,4189.359,4181.538,4184.359,4198.205,4200.641,4203.333,4186.154,4186.795,4209.231,4205.897,4169.359,4199.359,4217.821,0,0
590,9,0,3530,4195.128,4190.769,4181.41,4190.641,4203.333,4190.255999999999,4204.359,4187.564,4186.026,4199.615,4207.436,4174.744000000001,4200.769,4210.513,0,0
591,10,0,3084,4189.872,4187.821,4173.846,4186.41,4202.436,4188.333,4197.564,4183.205,4183.333,4197.179,4197.564,4168.333,4198.974,4195.385,0,0
592,11,0,3420,4191.795,4191.41,4166.41,4184.744000000001,4201.282,4198.59,4196.154,4183.462,4184.103,4204.615,4198.59,4161.923,4200.513,4201.538,0,0
593,12,0,3238,4197.308,4197.436,4163.846,4187.692,4207.436,4199.231,4199.744000000001,4186.923,4186.026,4200.769,4213.846,4164.359,4203.462,4215.0,0,0
594,13,0,1639,4190.769,4193.077,4165.0,4184.103,4206.923,4192.179,4197.564,4184.872,4186.282,4193.718,4218.974,4165.0,4202.564,4212.436,0,0
595,14,0,3084,4183.333,4185.513,4170.255999999999,4186.538,4200.769,4195.513,4199.231,4185.513,4186.026,4202.0509999999995,4210.641,4163.59,4201.41,4200.255999999999,0,0
596,15,0,3420,4187.9490000000005,4188.333,4175.128,4200.255999999999,4204.872,4203.205,4205.641,4189.487,4187.9490000000005,4211.538,4207.0509999999995,4166.41,4201.923,4202.821,0,0
597,16,0,0,4190.513,4193.718,4174.872,4202.692,4213.333,4203.974,4206.026,4188.333,4189.744000000001,4213.718,4212.436,4169.872,4202.308,4211.282,0,0
598,17,0,0,4187.564,4193.077,4176.41,4190.513,4208.59,4197.692,4202.0509999999995,4185.641,4187.9490000000005,4215.513,4211.41,4167.692,4204.872,4206.026,0,0
599,18,0,0,4190.769,4192.564,4176.538,4185.255999999999,4204.103,4194.744000000001,4204.872,4187.179,4186.154,4215.0,4207.308,4164.872,4203.846,4205.0,0,0
600,19,0,0,4193.846,4192.821,4170.897,4188.333,4206.795,4197.436,4198.846,4187.179,4186.41,4205.0,4205.385,4166.026,4201.538,4210.385,0,0
601,20,0,0,4186.538,4189.103,4167.692,4186.795,4202.821,4199.615,4186.026,4184.359,4185.641,4198.846,4203.077,4163.462,4207.564,4205.769,0,0
602,21,0,0,4182.9490000000005,4185.0,4168.462,4183.077,4195.641,4199.231,4190.769,4185.255999999999,4185.641,4208.077,4210.0,4160.513,4212.821,4201.538,0,0
603,22,0,0,4185.0,4189.872,4167.564,4179.872,4197.436,4198.077,4193.077,4186.667,4187.564,4221.667,4221.026,4164.231,4211.795,4207.821,0,0
604,23,0,0,4186.667,4194.103,4168.333,4180.513,4206.154,4196.667,4182.0509999999995,4186.282,4188.462,4225.513,4216.026,4166.41,4214.103,4212.821,0,0
605,24,0,0,4188.333,4188.974,4171.41,4184.359,4205.641,4198.462,4188.974,4186.667,4187.179,4218.333,4208.333,4162.308,4217.692,4210.385,0,0
606,25,0,0,4187.0509999999995,4185.0,4170.0,4185.769,4203.462,4201.154,4202.436,4187.308,4188.205,4215.385,4207.179,4161.538,4215.128,4205.769,0,0
607,26,0,0,4186.923,4185.769,4165.128,4185.385,4206.667,4196.795,4194.487,4185.641,4188.333,4219.103,4205.255999999999,4161.154,4212.564,4202.308,0,0
608,27,0,0,4196.795,4191.41,4168.846,4184.359,4205.769,4194.359,4190.641,4185.513,4184.872,4216.667,4219.231,4161.026,4216.795,4211.923,0,0
609,28,0,0,4205.897,4198.846,4179.231,4188.718,4207.9490000000005,4202.179,4209.231,4188.59,4188.077,4213.718,4236.667,4166.282,4219.359,4224.744000000001,0,0
610,29,0,0,4204.744000000001,4203.59,4175.513,4194.615,4221.026,4207.821,4217.179,4188.462,4193.462,4226.41,4225.255999999999,4171.154,4217.179,4223.205,0,0
611,30,0,0,4202.179,4201.538,4165.0,4191.667,4224.487,4199.103,4206.154,4185.769,4189.359,4237.308,4201.282,4167.179,4213.846,4217.821,0,0
612,31,0,0,4203.59,4201.026,4173.205,4188.718,4214.359,4191.538,4197.692,4184.744000000001,4184.872,4225.0,4202.0509999999995,4161.923,4214.615,4224.359,0,0
613,32,0,0,4206.795,4205.128,4184.359,4196.923,4217.564,4195.641,4200.0,4187.821,4189.231,4221.282,4220.769,4163.077,4221.282,4237.564,0,0
614,33,0,0,4204.231,4204.487,4174.615,4198.333,4224.359,4199.359,4204.231,4190.255999999999,4189.231,4231.538,4227.821,4160.385,4224.103,4231.538,0,0
615,34,0,0,4191.795,4195.769,4164.872,4187.0509999999995,4213.077,4196.923,4203.59,4187.9490000000005,4186.667,4228.59,4218.205,4153.718,4221.538,4206.538,0,0
616,35,0,0,4188.077,4191.795,4169.231,4180.897,4204.359,4196.282,4201.41,4184.615,4192.0509999999995,4219.359,4212.308,4147.821,4221.795,4199.359,0,0
617,36,0,0,4198.333,4198.462,4170.769,4184.487,4211.41,4199.103,4202.308,4185.128,4193.974,4220.641,4217.821,4148.846,4223.462,4216.026,0,0
618,37,0,0,4203.077,4203.205,4169.359,4193.077,4222.564,4201.923,4208.077,4187.564,4187.436,4227.0509999999995,4219.487,4153.846,4218.974,4227.9490000000005,0,0
619,38,0,0,4197.308,4201.538,4169.744000000001,4197.308,4222.9490000000005,4203.205,4206.41,4186.667,4187.9490000000005,4227.179,4218.333,4154.103,4215.769,4223.462,0,0
620,39,0,0,4196.795,4200.513,4161.026,4194.231,4223.205,4201.154,4200.255999999999,4187.692,4196.282,4231.026,4221.923,4153.59,4224.103,4216.154,0,0
621,40,0,0,4203.077,4203.59,4161.282,4195.385,4231.026,4202.0509999999995,4211.41,4192.308,4198.59,4233.205,4225.769,4158.974,4228.59,4219.615,0,0
622,41,0,0,4203.718,4205.0,4177.821,4198.333,4232.308,4201.923,4220.769,4191.026,4193.974,4227.0509999999995,4222.436,4162.9490000000005,4221.154,4226.282,0,0
623,42,0,0,4201.538,4202.436,4176.795,4197.0509999999995,4228.077,4198.462,4212.308,4186.795,4191.026,4224.487,4218.205,4162.0509999999995,4214.359,4221.795,0,0
624,43,0,0,4204.872,4204.231,4164.872,4199.231,4228.718,4201.026,4212.179,4188.974,4190.513,4224.744000000001,4226.41,4162.308,4219.359,4217.564,0,0
625,44,0,0,4207.9490000000005,4212.564,4174.231,4203.205,4230.769,4201.538,4221.282,4195.255999999999,4186.923,4217.0509999999995,4230.897,4164.487,4226.41,4222.692,0,0
626,45,0,0,4203.974,4218.462,4185.513,4199.872,4233.718,4203.077,4220.513,4198.205,4187.436,4216.41,4221.538,4165.128,4222.692,4223.974,0,0
627,46,0,0,4202.436,4212.436,4180.385,4196.41,4231.795,4208.974,4218.59,4199.744000000001,4196.282,4232.564,4213.974,4166.282,4218.462,4220.897,0,0
628,47,0,0,4205.897,4204.744000000001,4181.41,4200.0,4223.462,4205.769,4217.9490000000005,4200.513,4198.333,4233.59,4216.923,4165.385,4217.0509999999995,4223.462,0,0
629,48,0,0,4203.718,4205.769,4188.718,4201.154,4220.513,4204.615,4214.487,4198.846,4194.615,4220.897,4219.103,4165.255999999999,4215.385,4223.462,0,0
630,49,0,0,4194.231,4207.0509999999995,4181.923,4190.769,4223.462,4214.487,4215.128,4196.667,4193.718,4220.513,4210.385,4170.513,4215.641,4210.128,0,0
631,50,0,0,4188.205,4199.872,4172.564,4178.718,4222.0509999999995,4211.538,4215.255999999999,4200.513,4192.436,4218.462,4195.513,4170.897,4215.128,4198.462,0,0
632,51,0,0,4188.077,4192.692,4176.923,4183.462,4213.974,4199.103,4213.59,4200.897,4187.692,4199.103,4183.59,4167.308,4206.795,4195.641,0,0
633,52,0,0,4187.821,4189.359,4189.103,4191.538,4205.513,4201.923,4215.0,4189.744000000001,4184.744000000001,4187.308,4191.41,4170.641,4198.205,4191.795,0,0
634,53,0,0,4183.846,4186.41,4197.0509999999995,4190.128,4201.026,4205.513,4216.923,4187.179,4185.897,4195.255999999999,4203.205,4175.769,4197.179,4182.9490000000005,0,0
635,54,0,0,4187.179,4190.897,4199.615,4192.436,4201.923,4200.0,4213.718,4199.615,4188.59,4204.103,4188.333,4175.0,4200.128,4188.205,0,0
636,55,0,0,4195.128,4194.231,4201.026,4193.205,4197.692,4200.769,4206.41,4201.282,4189.744000000001,4202.564,4176.795,4180.0,4202.564,4200.897,0,0
637,56,0,0,4193.974,4188.59,4197.179,4186.154,4193.59,4202.179,4201.795,4188.974,4185.0,4197.821,4196.667,4185.641,4200.769,4200.128,0,0
638,57,0,0,4188.333,4184.872,4190.641,4183.846,4194.359,4199.487,4201.667,4185.897,4184.103,4198.59,4205.385,4180.0,4195.128,4193.974,0,0
639,58,0,0,4184.487,4183.718,4186.538,4185.128,4187.0509999999995,4198.333,4197.564,4188.077,4185.769,4190.128,4190.769,4169.359,4193.077,4186.026,0,0
640,59,0,0,4183.718,4188.462,4188.205,4184.231,4183.59,4201.923,4200.255999999999,4186.41,4184.615,4179.359,4185.897,4164.615,4196.41,4181.538,0,0
641,60,0,0,4186.538,4198.333,4190.128,4186.154,4191.538,4204.231,4211.538,4187.692,4186.923,4190.769,4190.0,4163.59,4202.436,4184.231,0,0
642,61,0,0,4188.462,4202.692,4177.564,4187.692,4196.538,4200.513,4206.026,4186.282,4189.231,4202.0509999999995,4194.744000000001,4159.103,4203.333,4186.795,0,0
643,62,0,0,4185.128,4200.641,4162.564,4185.769,4197.436,4199.103,4197.692,4182.564,4186.026,4192.692,4201.41,4152.692,4200.128,4188.974,0,0
644,63,0,0,4188.077,4204.231,4169.615,4196.026,4210.128,4204.231,4209.744000000001,4185.128,4186.026,4199.103,4204.744000000001,4156.41,4206.538,4198.077,0,0
645,64,0,2224,4194.359,4206.026,4180.0,4199.615,4220.385,4205.769,4213.333,4187.821,4190.385,4219.103,4203.718,4159.231,4216.154,4203.718,0,0
646,65,0,2612,4192.564,4202.308,4169.103,4189.744000000001,4209.231,4201.282,4199.359,4183.205,4189.231,4210.897,4204.231,4148.718,4212.179,4199.487,0,0
647,66,0,2866,4185.128,4195.897,4168.333,4184.103,4191.026,4199.487,4197.564,4181.795,4184.872,4192.308,4198.974,4153.59,4198.205,4190.769,0,0
648,67,0,3037,4175.128,4178.974,4188.59,4179.487,4183.333,4200.641,4205.513,4185.641,4185.0,4186.923,4189.872,4174.487,4189.231,4181.154,0,0
649,68,0,3530,4175.769,4170.641,4191.154,4176.154,4182.821,4198.846,4196.795,4185.769,4185.641,4177.308,4188.462,4178.718,4187.0509999999995,4180.641,0,0
650,69,0,2031,4186.282,4181.026,4174.744000000001,4180.385,4178.974,4195.513,4190.513,4184.615,4185.385,4173.59,4191.282,4172.0509999999995,4185.897,4187.436,0,0
651,70,0,2374,4187.0509999999995,4186.667,4170.641,4184.231,4175.0,4193.333,4193.333,4185.897,4185.385,4177.308,4185.128,4173.846,4183.462,4185.897,0,0
652,71,0,1337,4180.513,4182.692,4180.513,4185.769,4177.564,4194.487,4188.333,4186.026,4184.744000000001,4176.154,4179.615,4176.41,4182.821,4183.462,0,0
653,72,0,1051,4184.103,4181.41,4193.333,4189.615,4181.154,4200.513,4192.0509999999995,4186.282,4184.872,4179.487,4193.462,4182.9490000000005,4183.974,4186.282,0,0
654,73,0,3527,4184.103,4178.718,4197.564,4183.205,4177.308,4200.513,4201.538,4187.692,4185.513,4182.436,4202.179,4190.897,4179.231,4181.795,0,0
655,74,0,3085,4171.026,4165.128,4190.769,4170.128,4168.59,4189.103,4185.513,4185.897,4182.821,4169.615,4181.154,4187.436,4171.667,4166.282,0,0
656,75,0,3428,4167.692,4156.538,4193.205,4170.385,4157.179,4183.59,4169.231,4183.462,4182.0509999999995,4156.41,4160.513,4189.487,4167.821,4155.255999999999,0,0
657,76,0,3242,4171.667,4154.744000000001,4208.846,4174.359,4144.872,4187.692,4181.282,4186.282,4182.308,4152.436,4150.769,4205.769,4162.564,4151.795,0,0
658,77,0,1637,4168.718,4144.872,4215.897,4168.846,4137.436,4186.667,4181.282,4188.333,4173.59,4142.692,4145.128,4214.744000000001,4156.795,4143.718,0,0
659,78,0,3085,4165.641,4135.513,4215.255999999999,4158.205,4130.0,4181.667,4162.0509999999995,4186.41,4167.9490000000005,4134.872,4152.179,4211.026,4150.255999999999,4136.026,0,0
660,79,0,3428,4165.513,4137.821,4220.0,4155.0,4120.897,4182.179,4168.077,4185.769,4178.462,4136.667,4158.205,4214.359,4146.154,4139.744000000001,0,0
661,80,0,3242,4158.846,4141.154,4223.462,4163.59,4118.077,4183.333,4186.923,4189.744000000001,4182.821,4131.026,4152.179,4220.641,4147.436,4141.667,0,0
662,81,0,1637,4152.436,4138.077,4219.231,4169.872,4117.821,4182.9490000000005,4183.077,4192.0509999999995,4172.179,4124.359,4138.974,4218.59,4147.692,4132.436,0,0
663,82,0,3085,4153.462,4136.795,4208.846,4159.872,4116.795,4182.436,4169.487,4190.769,4168.077,4123.974,4133.59,4209.487,4146.282,4128.077,0,0
664,83,0,3428,4153.462,4135.513,4201.923,4153.077,4120.255999999999,4182.692,4173.718,4190.255999999999,4172.0509999999995,4117.308,4150.0,4202.436,4150.0,4135.641,0,0
665,84,0,3242,4153.846,4138.974,4205.897,4162.0509999999995,4128.205,4184.231,4184.487,4190.128,4177.9490000000005,4120.255999999999,4162.0509999999995,4198.205,4155.0,4139.744000000001,0,0
666,85,0,1637,4159.359,4150.641,4210.897,4169.231,4134.872,4184.359,4185.385,4189.103,4183.718,4144.231,4160.0,4196.026,4154.487,4137.821,0,0
667,86,0,3085,4164.103,4153.974,4206.154,4167.436,4144.615,4184.487,4183.462,4186.795,4184.231,4158.59,4160.255999999999,4194.231,4158.846,4141.538,0,0
668,87,0,3428,4166.923,4152.179,4205.897,4168.59,4152.692,4185.769,4183.205,4186.667,4181.667,4153.59,4160.255999999999,4192.692,4167.308,4153.462,0,0
669,88,0,3242,4169.744000000001,4157.821,4212.0509999999995,4171.667,4154.615,4186.923,4182.308,4187.821,4182.564,4146.795,4164.872,4191.41,4169.103,4164.359,0,0
670,89,0,1637,4169.359,4164.103,4203.718,4171.538,4159.487,4187.179,4183.205,4188.205,4182.436,4152.179,4176.667,4186.667,4168.462,4163.718,0,0
671,90,0,3085,4168.846,4167.308,4189.103,4170.255999999999,4168.718,4189.103,4186.41,4188.59,4181.538,4165.641,4181.026,4180.385,4168.718,4154.487,0,0
672,91,0,3428,4169.487,4170.769,4192.692,4169.231,4167.179,4188.077,4186.41,4187.564,4183.333,4166.41,4175.641,4181.795,4169.231,4151.026,0,0
673,92,0,3242,4172.308,4173.462,4195.641,4175.641,4162.308,4186.538,4186.795,4187.308,4183.077,4162.9490000000005,4175.128,4183.59,4173.077,4161.923,0,0
674,93,0,1637,4177.179,4177.821,4185.769,4186.41,4172.564,4192.821,4191.538,4186.154,4183.333,4176.41,4175.0,4178.205,4177.692,4171.538,0,0
675,94,0,3085,4180.769,4184.103,4188.974,4187.179,4185.513,4199.359,4199.231,4185.385,4183.462,4184.103,4177.9490000000005,4175.769,4177.436,4170.513,0,0
676,95,0,3428,4190.0,4188.077,4199.103,4185.769,4188.846,4201.667,4207.308,4187.564,4182.821,4176.923,4193.333,4182.436,4180.769,4175.897,0,0
677,96,0,3242,4199.744000000001,4188.846,4194.487,4188.846,4190.0,4201.154,4207.692,4188.59,4184.744000000001,4183.718,4203.462,4184.359,4190.128,4186.026,0,0
678,97,0,1637,4195.641,4186.154,4188.333,4186.154,4187.308,4198.333,4200.255999999999,4186.282,4185.128,4188.846,4198.846,4178.077,4191.795,4187.436,0,0
679,98,0,3085,4186.026,4182.564,4189.615,4181.538,4185.0,4198.462,4195.513,4185.385,4182.308,4181.923,4186.026,4177.308,4185.255999999999,4185.0,0,0
680,99,0,3428,4187.436,4183.077,4188.077,4186.41,4190.641,4199.872,4198.333,4185.897,4181.795,4190.513,4189.615,4178.974,4188.974,4187.0509999999995,0,0
681,100,0,3242,4191.667,4187.308,4189.487,4191.026,4194.359,4198.077,4202.692,4186.538,4185.128,4199.744000000001,4205.0,4175.769,4201.282,4186.41,0,0
682,101,0,1637,4186.026,4186.282,4192.179,4181.41,4192.9490000000005,4195.128,4202.179,4187.436,4185.897,4195.513,4198.718,4172.821,4203.205,4183.974,0,0
683,102,0,3085,4181.538,4180.0,4185.897,4171.667,4189.744000000001,4194.103,4198.462,4186.923,4185.0,4198.59,4187.564,4172.308,4196.667,4182.308,0,0
684,103,0,3428,4183.077,4176.538,4176.154,4177.0509999999995,4184.103,4191.282,4195.769,4184.615,4185.255999999999,4206.41,4195.0,4168.077,4197.179,4179.231,0,0
685,104,0,3242,4180.769,4176.667,4175.0,4184.103,4183.333,4188.974,4193.718,4183.846,4184.744000000001,4196.026,4200.769,4165.128,4197.179,4182.308,0,0
686,105,0,1637,4175.255999999999,4183.718,4177.179,4186.538,4189.487,4194.103,4190.513,4185.128,4184.615,4184.231,4195.255999999999,4166.026,4194.103,4186.667,0,0
687,106,0,3085,4173.077,4184.744000000001,4170.897,4183.462,4189.103,4196.282,4189.231,4184.744000000001,4184.744000000001,4188.59,4191.026,4165.769,4193.974,4177.692,0,0
688,107,0,3428,4173.205,4172.564,4167.9490000000005,4174.487,4181.795,4188.333,4186.41,4183.462,4184.103,4188.205,4187.821,4165.255999999999,4196.795,4173.59,0,0
689,108,0,3242,4170.128,4170.128,4170.385,4167.821,4183.077,4184.231,4183.846,4182.821,4182.9490000000005,4180.128,4182.0509999999995,4163.718,4195.641,4178.205,0,0
690,109,0,1637,4166.923,4181.282,4168.077,4169.487,4186.026,4187.821,4185.513,4183.462,4183.205,4180.0,4183.205,4160.897,4189.103,4174.231,0,0
691,110,0,3085,4174.487,4185.641,4164.744000000001,4177.179,4181.795,4184.487,4186.026,4183.462,4183.974,4191.795,4193.333,4162.179,4188.077,4172.308,0,0
692,111,0,3428,4185.641,4182.436,4171.026,4184.231,4181.282,4185.641,4191.026,4183.718,4184.615,4203.333,4197.308,4166.154,4198.59,4184.615,0,0
693,112,0,3242,4184.872,4185.128,4175.0,4185.769,4193.718,4202.436,4204.231,4185.769,4185.641,4207.0509999999995,4194.744000000001,4167.179,4202.564,4187.9490000000005,0,0
694,113,0,1637,4179.744000000001,4183.462,4169.231,4181.795,4203.846,4203.205,4205.641,4184.615,4185.255999999999,4197.308,4188.333,4165.0,4190.0,4173.846,0,0
695,114,0,3085,4183.333,4181.41,4173.077,4182.436,4198.077,4188.846,4194.359,4184.103,4185.0,4182.0509999999995,4178.077,4165.0,4188.077,4173.333,0,0
696,115,0,3428,4183.205,4186.282,4180.513,4184.359,4189.359,4187.9490000000005,4191.026,4186.667,4185.769,4183.846,4182.692,4165.128,4199.359,4185.385,0,0
697,116,0,3242,4178.077,4184.487,4175.255999999999,4182.564,4189.487,4196.538,4187.821,4186.41,4186.282,4196.795,4195.385,4161.538,4201.026,4184.872,0,0
698,117,0,1637,4179.615,4177.821,4172.308,4182.564,4190.255999999999,4198.846,4184.103,4184.744000000001,4185.385,4196.923,4192.9490000000005,4162.9490000000005,4197.179,4179.487,0,0
699,118,0,3085,4183.077,4180.128,4177.564,4183.59,4190.513,4192.821,4191.026,4186.41,4184.103,4193.205,4187.9490000000005,4167.179,4197.564,4188.59,0,0
700,119,0,3428,4185.641,4186.923,4178.974,4186.41,4196.026,4183.59,4194.744000000001,4188.718,4184.615,4201.154,4198.718,4167.564,4201.538,4204.231,0,0
701,120,0,3242,4188.974,4189.103,4178.333,4188.846,4201.923,4185.897,4194.231,4187.179,4185.897,4209.103,4208.205,4168.462,4205.385,4205.641,0,0
702,121,0,1637,4193.974,4191.41,4184.487,4188.718,4201.923,4196.795,4200.255999999999,4186.026,4186.154,4211.923,4212.692,4174.487,4207.179,4198.59,0,0
703,122,0,3085,4201.667,4199.359,4186.026,4189.103,4205.385,4200.897,4207.564,4187.821,4186.026,4219.872,4221.154,4175.0,4210.897,4200.513,0,0
704,123,0,3428,4199.615,4198.718,4177.692,4189.615,4209.103,4201.667,4205.641,4189.359,4185.769,4219.487,4210.641,4168.205,4214.359,4208.974,0,0
705,124,0,3242,4188.718,4190.897,4172.0509999999995,4188.718,4205.255999999999,4198.077,4199.615,4188.718,4185.513,4208.205,4191.923,4164.744000000001,4210.769,4206.41,0,0
706,125,0,1637,4186.667,4190.255999999999,4167.564,4187.179,4204.872,4193.846,4196.923,4185.897,4185.385,4204.487,4195.385,4165.641,4207.692,4196.923,0,0
707,126,0,3085,4189.615,4195.769,4165.641,4186.795,4207.564,4197.564,4197.308,4185.513,4185.385,4205.897,4205.897,4165.255999999999,4211.923,4198.462,0,0
708,127,0,52,4193.462,4198.462,4175.255999999999,4187.308,4202.179,4202.308,4201.667,4192.9490000000005,4187.179,4206.923,4210.128,4166.154,4215.255999999999,4207.179,0,0
709,0,0,2226,4202.0509999999995,4199.615,4185.641,4187.692,4200.769,4198.846,4203.077,4196.282,4188.974,4211.282,4208.077,4171.667,4213.718,4207.9490000000005,0,0
710,1,0,2614,4199.872,4201.538,4180.769,4188.974,4211.41,4194.615,4201.026,4187.179,4186.923,4216.282,4203.205,4171.282,4214.103,4205.385,0,0
711,2,0,2868,4187.821,4199.359,4171.154,4189.231,4212.0509999999995,4199.103,4201.026,4183.077,4184.872,4213.59,4201.795,4165.128,4216.795,4203.205,0,0
712,3,0,3037,4183.59,4193.974,4172.564,4186.154,4199.359,4197.692,4201.154,4187.308,4185.255999999999,4205.0,4203.077,4162.436,4213.205,4200.513,0,0
713,4,0,3535,4184.615,4190.128,4175.385,4183.077,4196.282,4186.923,4194.359,4184.487,4185.128,4200.128,4195.769,4164.487,4204.615,4198.59,0,0
714,5,0,2030,4184.615,4191.923,4172.564,4185.641,4206.154,4186.795,4191.282,4183.333,4184.744000000001,4205.641,4192.9490000000005,4163.077,4205.128,4197.0509999999995,0,0
715,6,0,2373,4187.179,4201.154,4169.487,4190.897,4214.744000000001,4199.103,4200.769,4189.744000000001,4186.154,4211.923,4204.103,4162.179,4214.487,4199.103,0,0
716,7,0,1337,4187.564,4202.308,4169.872,4191.41,4216.667,4202.308,4205.0,4188.59,4186.41,4209.744000000001,4206.923,4163.718,4212.0509999999995,4201.282,0,0
717,8,0,1051,4187.179,4196.667,4174.872,4185.897,4213.077,4199.231,4196.282,4184.872,4185.513,4206.923,4203.077,4164.359,4203.077,4200.0,0,0
718,9,0,3530,4189.615,4199.359,4169.231,4182.692,4210.897,4198.718,4194.615,4188.205,4186.538,4209.487,4205.128,4164.487,4207.821,4202.0509999999995,0,0
719,10,0,3086,4186.667,4198.59,4158.59,4184.487,4208.077,4189.231,4195.769,4187.564,4187.308,4204.615,4202.179,4163.205,4211.667,4202.821,0,0
720,11,0,3422,4183.205,4187.821,4163.333,4183.718,4203.333,4185.513,4190.0,4182.564,4185.255999999999,4190.128,4187.821,4162.692,4202.9490000000005,4191.538,0,0
721,12,0,3236,4186.923,4189.872,4176.154,4184.487,4207.564,4199.744000000001,4189.615,4182.9490000000005,4182.9490000000005,4190.641,4179.744000000001,4162.692,4197.308,4189.744000000001,0,0
722,13,0,1636,4187.821,4200.128,4177.564,4187.821,4216.795,4202.179,4192.179,4185.513,4184.615,4206.667,4190.513,4160.641,4205.255999999999,4201.026,0,0
723,14,0,3086,4183.974,4196.026,4171.795,4185.385,4217.0509999999995,4186.923,4185.897,4183.59,4187.564,4205.385,4202.564,4158.59,4212.179,4200.128,0,0
724,15,0,3422,4183.462,4191.41,4175.897,4183.205,4206.154,4182.9490000000005,4184.231,4181.795,4186.538,4197.179,4197.564,4162.564,4208.846,4196.923,0,0
725,16,0,0,4186.795,4198.974,4178.974,4186.667,4200.128,4189.744000000001,4191.795,4186.026,4185.897,4208.205,4190.128,4167.692,4206.923,4203.718,0,0
726,17,0,0,4187.821,4199.615,4170.641,4188.333,4201.282,4189.615,4188.846,4188.718,4187.692,4214.487,4189.487,4165.0,4207.692,4199.487,0,0
727,18,0,0,4187.179,4189.744000000001,4165.128,4185.513,4201.282,4188.205,4181.41,4185.769,4187.436,4205.513,4188.974,4161.923,4208.205,4191.41,0,0
728,19,0,0,4186.154,4185.0,4168.846,4182.692,4197.436,4190.0,4185.513,4185.385,4185.897,4203.333,4186.41,4168.462,4207.179,4197.436,0,0
729,20,0,0,4185.513,4191.795,4170.641,4182.179,4196.667,4187.9490000000005,4190.769,4187.821,4186.795,4204.359,4191.154,4174.231,4208.205,4204.103,0,0
730,21,0,0,4186.667,4196.026,4168.718,4184.615,4197.436,4186.282,4189.231,4186.154,4187.821,4202.9490000000005,4196.282,4172.564,4207.308,4203.462,0,0
731,22,0,0,4187.179,4189.231,4166.154,4186.41,4190.0,4188.718,4184.359,4183.846,4186.282,4203.59,4194.231,4167.0509999999995,4202.821,4201.538,0,0
732,23,0,0,4185.385,4184.744000000001,4165.128,4185.255999999999,4185.0,4189.615,4184.231,4184.231,4185.513,4196.154,4189.103,4163.846,4201.795,4198.205,0,0
733,24,0,0,4184.359,4188.205,4168.718,4183.205,4188.718,4185.641,4187.9490000000005,4185.128,4184.872,4179.872,4181.923,4165.128,4199.103,4194.487,0,0
734,25,0,0,4186.41,4187.9490000000005,4169.615,4182.692,4189.872,4185.128,4187.436,4185.897,4183.205,4177.436,4183.462,4168.718,4195.641,4193.718,0,0
735,26,0,0,4189.231,4184.872,4167.436,4186.667,4192.821,4193.462,4182.821,4183.462,4183.333,4192.692,4197.308,4171.538,4198.59,4199.744000000001,0,0
736,27,0,0,4188.846,4188.718,4172.308,4189.359,4195.513,4199.487,4183.59,4181.282,4184.359,4203.59,4207.0509999999995,4171.026,4202.436,4208.462,0,0
737,28,0,0,4185.128,4188.333,4178.462,4184.615,4192.564,4198.974,4187.821,4183.462,4184.487,4200.769,4198.718,4167.436,4195.897,4206.282,0,0
738,29,0,0,4184.359,4182.564,4172.308,4183.077,4190.128,4193.846,4187.179,4184.231,4184.103,4200.128,4189.615,4160.513,4194.744000000001,4197.308,0,0
739,30,0,0,4187.564,4184.231,4166.795,4187.179,4195.385,4190.385,4184.744000000001,4182.179,4184.615,4202.179,4193.718,4163.333,4203.974,4197.9490000000005,0,0
740,31,0,0,4186.795,4189.359,4173.718,4180.385,4197.821,4191.795,4184.359,4182.9490000000005,4184.231,4205.255999999999,4197.308,4172.179,4206.282,4203.462,0,0
741,32,0,0,4182.9490000000005,4185.128,4175.897,4173.846,4192.308,4191.282,4183.59,4183.846,4182.821,4207.179,4197.692,4170.385,4201.026,4199.744000000001,0,0
742,33,0,0,4181.923,4181.41,4168.462,4180.641,4190.385,4188.333,4184.359,4182.821,4183.333,4203.718,4198.077,4164.872,4199.872,4191.667,0,0
743,34,0,0,4183.077,4185.385,4166.538,4186.282,4192.821,4187.179,4185.769,4183.077,4183.718,4195.0,4194.231,4166.282,4199.487,4190.897,0,0
744,35,0,0,4183.205,4185.641,4165.513,4183.333,4190.0,4184.231,4181.923,4181.282,4182.692,4186.282,4182.821,4165.641,4196.026,4189.744000000001,0,0
745,36,0,0,4181.795,4182.0509999999995,4163.333,4181.282,4185.128,4184.231,4178.974,4180.513,4181.923,4184.103,4179.103,4163.333,4195.128,4186.154,0,0
746,37,0,0,4182.821,4182.9490000000005,4169.231,4181.538,4191.154,4192.564,4184.231,4185.0,4183.59,4194.872,4190.897,4163.462,4198.718,4191.667,0,0
747,38,0,0,4185.255999999999,4187.179,4172.179,4175.513,4196.026,4192.0509999999995,4187.692,4185.641,4185.0,4198.333,4194.744000000001,4164.103,4196.282,4198.333,0,0
748,39,0,0,4183.333,4186.282,4167.0509999999995,4171.923,4186.923,4184.615,4184.744000000001,4182.9490000000005,4183.718,4186.667,4189.744000000001,4166.923,4192.436,4199.615,0,0
749,40,0,0,4182.692,4175.897,4171.154,4176.667,4187.308,4189.487,4186.282,4185.769,4184.744000000001,4194.872,4194.615,4172.179,4196.795,4198.718,0,0
750,41,0,0,4187.179,4160.513,4172.0509999999995,4179.359,4191.538,4193.462,4189.103,4187.308,4186.538,4209.744000000001,4208.205,4169.231,4196.538,4191.538,0,0
751,42,0,0,4183.974,4146.923,4159.744000000001,4171.154,4179.872,4187.564,4187.0509999999995,4182.821,4183.974,4185.513,4200.385,4162.821,4186.41,4182.692,0,0
752,43,0,0,4176.795,4140.255999999999,4158.846,4164.872,4176.282,4184.872,4185.641,4182.564,4181.538,4160.769,4170.769,4163.333,4183.205,4182.564,0,0
753,44,0,0,4182.564,4140.513,4170.513,4176.154,4184.615,4187.179,4187.564,4185.513,4183.718,4175.255999999999,4169.359,4167.179,4188.077,4186.026,0,0
754,45,0,0,4189.103,4142.308,4171.795,4188.077,4179.872,4186.026,4186.795,4185.385,4185.255999999999,4190.0,4198.974,4165.385,4189.872,4185.255999999999,0,0
755,46,0,0,4182.9490000000005,4136.923,4166.026,4181.41,4176.026,4186.026,4183.59,4185.513,4184.103,4189.487,4193.462,4163.59,4191.667,4186.282,0,0
756,47,0,0,4180.641,4129.744000000001,4175.513,4172.821,4186.923,4188.462,4185.385,4186.41,4184.359,4193.59,4156.41,4170.641,4194.359,4188.205,0,0
757,48,0,0,4187.308,4126.538,4185.897,4177.0509999999995,4189.872,4188.718,4188.59,4185.769,4184.744000000001,4194.872,4153.59,4176.538,4193.846,4183.462,0,0
758,49,0,0,4185.769,4123.846,4176.795,4177.308,4182.436,4186.923,4186.282,4183.333,4182.564,4181.41,4173.077,4176.538,4189.744000000001,4179.744000000001,0,0
759,50,0,0,4175.897,4119.615,4166.538,4168.846,4177.179,4185.769,4183.077,4180.769,4180.513,4169.487,4181.923,4174.615,4186.795,4182.436,0,0
760,51,0,0,4171.282,4113.974,4168.59,4166.667,4174.359,4186.795,4186.667,4182.436,4181.282,4167.564,4187.692,4173.846,4187.308,4183.077,0,0
761,52,0,0,4172.564,4112.308,4171.026,4168.718,4179.103,4188.59,4192.179,4186.154,4183.333,4173.974,4184.872,4173.974,4187.564,4178.974,0,0
762,53,0,0,4171.026,4115.0,4172.0509999999995,4165.513,4181.667,4184.231,4187.692,4186.538,4183.718,4178.077,4178.205,4174.487,4185.641,4172.308,0,0
763,54,0,0,4173.462,4123.205,4180.255999999999,4168.205,4177.564,4184.231,4185.641,4185.641,4182.821,4176.538,4185.0,4175.385,4183.333,4172.821,0,0
764,55,0,0,4183.846,4138.077,4187.0509999999995,4177.564,4178.333,4193.333,4191.026,4187.9490000000005,4182.564,4179.744000000001,4191.923,4180.513,4184.872,4181.026,0,0
765,56,0,0,4183.59,4142.692,4182.179,4175.641,4177.179,4193.077,4189.744000000001,4188.718,4185.513,4181.41,4185.897,4183.59,4185.385,4180.255999999999,0,0
766,57,0,0,4172.179,4129.872,4174.744000000001,4166.026,4165.769,4183.974,4187.0509999999995,4185.769,4183.59,4180.128,4183.462,4180.513,4180.128,4168.974,0,0
767,58,0,0,4167.308,4127.564,4173.846,4168.846,4160.385,4181.795,4183.718,4183.205,4175.128,4181.923,4186.026,4177.692,4178.205,4169.359,0,0
768,59,0,0,4170.0,4136.026,4175.255999999999,4172.0509999999995,4163.462,4183.718,4173.846,4182.0509999999995,4172.0509999999995,4170.0,4181.795,4177.179,4179.744000000001,4175.255999999999,0,0
769,60,0,0,4166.154,4126.282,4171.923,4160.641,4159.615,4183.077,4169.231,4182.9490000000005,4173.333,4151.154,4166.923,4177.821,4175.897,4161.282,0,0
770,61,0,0,4163.974,4119.872,4167.9490000000005,4159.231,4153.333,4178.333,4173.077,4185.128,4173.333,4158.077,4160.513,4178.718,4167.9490000000005,4154.487,0,0
771,62,0,0,4176.154,4140.513,4173.846,4172.308,4154.359,4172.564,4171.282,4184.615,4174.359,4170.513,4176.667,4180.0,4168.846,4172.564,0,0
772,63,0,0,4188.077,4159.359,4184.359,4176.795,4161.154,4176.026,4167.9490000000005,4182.9490000000005,4173.846,4162.821,4190.897,4183.333,4179.103,4189.487,0,0
773,64,0,2229,4185.385,4151.667,4183.974,4172.308,4162.0509999999995,4186.795,4172.308,4184.103,4170.769,4157.308,4180.641,4184.744000000001,4179.872,4184.744000000001,0,0
774,65,0,2613,4174.872,4137.308,4173.974,4169.103,4153.333,4185.641,4170.897,4183.718,4174.744000000001,4158.718,4163.462,4179.103,4169.231,4168.59,0,0
775,66,0,2868,4173.333,4134.487,4173.718,4170.897,4149.359,4177.0509999999995,4168.718,4180.513,4182.564,4155.641,4164.615,4176.923,4164.615,4164.487,0,0
776,67,0,3038,4177.9490000000005,4137.179,4183.718,4174.103,4161.41,4177.821,4177.436,4183.333,4185.128,4158.077,4175.897,4179.872,4172.0509999999995,4171.795,0,0
